»»»»»»»»»»»»»»»»»»»»»»»»»»»»»»»»»»»» Hysteresis ««««««««««««««««««««««««««««««««««««
»»»  Executed Version:	5.48.1
»»»  Vision Version:	5.48.4 (R)
»»»  Vision Compiled:	9/18/24
»»»  Driver Version:	5.47.0
»»»  Windows Version:	Windows 8 or 8.1
»»»  Processor Information:	x86 (AMD or Intel) - 32 Processors
»»»  Tester Name:	PMF21124-494 (100V)
»»»  Tester S/N:	PMF21124-494
»»»  Internal Amp Type:	100V RevK 270k
»»»  Internal Amp S/N:	iAB2-596/K     
»»»  Execution Count:	1
»»»»»»»»»»»»»»»»»»»»»»»»»»»»»»»»»»»»»»»»»»««««««««««««««««««««««««««««««««««««««««««

Stored:	6/5/2025 - 15:11:45
Configured:	06/05/25 02:51:50 PM
Executed:	06/05/25 03:11:07 PM

»»»»»»»»»»»»»»»»»»»»»»»»»»»»»»»»»»» Sample Info ««««««««««««««««««««««««««««««««««««
Sample Name:	
Lot Name:	
Wafer Name:	
Die Row/Column:	0/0
Capacitor Number:	0
Sample Area (cm2):	1.00e-04
Sample Thickness (microns):	3.00e-01

Amplifier:	Internal

»»»»»»»»»»»»»»»»»»»»»»»»»»»»»»»»»»» Tester Info «««««««««««««««««««««««««««««««««««
Tester Name:	PMF21124-494 (100V)
Tester Serial Number:	PMF21124-494
Return Signal Amp. Level:	0.19 [Index: 3]

»»»»»»»»»»»»»»»»»»»»»»»»»»»»»»»» Hysteresis Info ««««««««««««««««««««««««««««««««««
Task Name:	Hyst-353
Volts:	20.00
Field:	666.67 (kV/cm)
DCBias:	0.00
DCField:	0.00 (kV/cm)
Hysteresis Period (ms):	1.00e+00
Preset:	Enabled
Preset Delay (ms):	1.00e+03
Profile:	Standard Bipolar

»»»»»»»»»»»»»»»»»»»»»»»»»»»»»»»»»»»»»» Data «««««««««««««««««««««««««««««««««««««««
Points:	2001

Valid Data

Point	Time (ms)	Drive Voltage	Measured Polarization (uC/cm2)	Capacitance (uF)	Normalized Capacitance (uF/cm2)	Dielectric Constant	Instantaneous Current (mA)
   1	0.0000e+00	0.0112	-4.057297	0.000091	0.909290	0.308076	0.007260
   2	5.0000e-04	0.0176	-4.020999	0.000091	0.909290	0.308076	0.007260
   3	1.0000e-03	0.0497	-3.984701	0.000091	0.909290	0.308076	0.007260
   4	1.5000e-03	0.0930	-3.984701	0.000000	0.000000	0.000000	0.000000
   5	2.0000e-03	0.1251	-3.928238	0.000141	1.414451	0.479229	0.011293
   6	2.5000e-03	0.1620	-3.928238	0.000000	0.000000	0.000000	0.000000
   7	3.0000e-03	0.2069	-3.831444	0.000242	2.424774	0.821536	0.019359
   8	3.5000e-03	0.2471	-3.762881	0.000172	1.717548	0.581921	0.013713
   9	4.0000e-03	0.2920	-3.726583	0.000091	0.909290	0.308076	0.007260
  10	4.5000e-03	0.3289	-3.686252	0.000101	1.010322	0.342306	0.008066
  11	5.0000e-03	0.3674	-3.581392	0.000263	2.626838	0.889997	0.020972
  12	5.5000e-03	0.4155	-3.480564	0.000253	2.525806	0.855766	0.020165
  13	6.0000e-03	0.4444	-3.617689	-0.000344	-3.435096	-1.163842	-0.027425
  14	6.5000e-03	0.4893	-3.371670	0.000616	6.162967	2.088070	0.049204
  15	7.0000e-03	0.5230	-3.186148	0.000465	4.647483	1.574610	0.037105
  16	7.5000e-03	0.5567	-3.137751	0.000121	1.212387	0.410768	0.009679
  17	8.0000e-03	0.6000	-3.020791	0.000293	2.929935	0.992689	0.023392
  18	8.5000e-03	0.6449	-2.964327	0.000141	1.414451	0.479229	0.011293
  19	9.0000e-03	0.6722	-2.871566	0.000232	2.323742	0.787305	0.018552
  20	9.5000e-03	0.7203	-2.734441	0.000344	3.435096	1.163842	0.027425
  21	1.0000e-02	0.7636	-2.698143	0.000091	0.909290	0.308076	0.007260
  22	1.0500e-02	0.8005	-2.585216	0.000283	2.828903	0.958458	0.022585
  23	1.1000e-02	0.8390	-2.464223	0.000303	3.030967	1.026919	0.024199
  24	1.1500e-02	0.8791	-2.343230	0.000303	3.030967	1.026919	0.024199
  25	1.2000e-02	0.9160	-2.266601	0.000192	1.919613	0.650382	0.015326
  26	1.2500e-02	0.9657	-2.177873	0.000222	2.222709	0.753074	0.017746
  27	1.3000e-02	1.0042	-2.077046	0.000253	2.525806	0.855766	0.020165
  28	1.3500e-02	1.0347	-1.988318	0.000222	2.222709	0.753074	0.017746
  29	1.4000e-02	1.0764	-1.867325	0.000303	3.030967	1.026919	0.024199
  30	1.4500e-02	1.1262	-1.738265	0.000323	3.233032	1.095381	0.025812
  31	1.5000e-02	1.1663	-1.697935	0.000101	1.010322	0.342306	0.008066
  32	1.5500e-02	1.1968	-1.548710	0.000374	3.738193	1.266534	0.029845
  33	1.6000e-02	1.2337	-1.476114	0.000182	1.818580	0.616152	0.014519
  34	1.6500e-02	1.2786	-1.347055	0.000323	3.233032	1.095381	0.025812
  35	1.7000e-02	1.3251	-1.230095	0.000293	2.929935	0.992689	0.023392
  36	1.7500e-02	1.3732	-1.117168	0.000283	2.828903	0.958458	0.022585
  37	1.8000e-02	1.4069	-1.012308	0.000263	2.626838	0.889997	0.020972
  38	1.8500e-02	1.4470	-0.895348	0.000293	2.929935	0.992689	0.023392
  39	1.9000e-02	1.4871	-0.762256	0.000333	3.334064	1.129611	0.026618
  40	1.9500e-02	1.5192	-0.677561	0.000212	2.121677	0.718844	0.016939
  41	2.0000e-02	1.5641	-0.568667	0.000273	2.727871	0.924228	0.021779
  42	2.0500e-02	1.6026	-0.492038	0.000192	1.919613	0.650382	0.015326
  43	2.1000e-02	1.6475	-0.358946	0.000333	3.334064	1.129611	0.026618
  44	2.1500e-02	1.6764	-0.221820	0.000344	3.435096	1.163842	0.027425
  45	2.2000e-02	1.7069	-0.120993	0.000253	2.525806	0.855766	0.020165
  46	2.2500e-02	1.7582	0.008066	0.000323	3.233032	1.095381	0.025812
  47	2.3000e-02	1.8128	0.088728	0.000202	2.020645	0.684613	0.016132
  48	2.3500e-02	1.8465	0.209721	0.000303	3.030967	1.026919	0.024199
  49	2.4000e-02	1.8818	0.310549	0.000253	2.525806	0.855766	0.020165
  50	2.4500e-02	1.9283	0.443641	0.000333	3.334064	1.129611	0.026618
  51	2.5000e-02	1.9636	0.552535	0.000273	2.727871	0.924228	0.021779
  52	2.5500e-02	2.0053	0.681594	0.000323	3.233032	1.095381	0.025812
  53	2.6000e-02	2.0550	0.742090	0.000152	1.515484	0.513460	0.012099
  54	2.6500e-02	2.0839	0.891315	0.000374	3.738193	1.266534	0.029845
  55	2.7000e-02	2.1208	0.992142	0.000253	2.525806	0.855766	0.020165
  56	2.7500e-02	2.1657	1.092970	0.000253	2.525806	0.855766	0.020165
  57	2.8000e-02	2.2026	1.254294	0.000404	4.041290	1.369226	0.032265
  58	2.8500e-02	2.2491	1.359154	0.000263	2.626838	0.889997	0.020972
  59	2.9000e-02	2.2844	1.512412	0.000384	3.839225	1.300765	0.030652
  60	2.9500e-02	2.3277	1.661637	0.000374	3.738193	1.266534	0.029845
  61	3.0000e-02	2.3598	1.710034	0.000121	1.212387	0.410768	0.009679
  62	3.0500e-02	2.4112	1.831027	0.000303	3.030967	1.026919	0.024199
  63	3.1000e-02	2.4432	1.943954	0.000283	2.828903	0.958458	0.022585
  64	3.1500e-02	2.4817	2.056880	0.000283	2.828903	0.958458	0.022585
  65	3.2000e-02	2.5138	2.157708	0.000253	2.525806	0.855766	0.020165
  66	3.2500e-02	2.5620	2.286767	0.000323	3.233032	1.095381	0.025812
  67	3.3000e-02	2.5989	2.415826	0.000323	3.233032	1.095381	0.025812
  68	3.3500e-02	2.6502	2.496488	0.000202	2.020645	0.684613	0.016132
  69	3.4000e-02	2.6823	2.686044	0.000475	4.748515	1.608841	0.037911
  70	3.4500e-02	2.7224	2.794937	0.000273	2.727871	0.924228	0.021779
  71	3.5000e-02	2.7641	2.847368	0.000131	1.313419	0.444998	0.010486
  72	3.5500e-02	2.8042	3.016758	0.000424	4.243354	1.437687	0.033878
  73	3.6000e-02	2.8379	3.105486	0.000222	2.222709	0.753074	0.017746
  74	3.6500e-02	2.8860	3.246644	0.000354	3.536128	1.198073	0.028232
  75	3.7000e-02	2.9245	3.375704	0.000323	3.233032	1.095381	0.025812
  76	3.7500e-02	2.9470	3.537027	0.000404	4.041290	1.369226	0.032265
  77	3.8000e-02	3.0031	3.637855	0.000253	2.525806	0.855766	0.020165
  78	3.8500e-02	3.0336	3.779013	0.000354	3.536128	1.198073	0.028232
  79	3.9000e-02	3.0833	3.859675	0.000202	2.020645	0.684613	0.016132
  80	3.9500e-02	3.1363	4.037132	0.000445	4.445419	1.506149	0.035491
  81	4.0000e-02	3.1619	4.133926	0.000242	2.424774	0.821536	0.019359
  82	4.0500e-02	3.2133	4.226687	0.000232	2.323742	0.787305	0.018552
  83	4.1000e-02	3.2470	4.396077	0.000424	4.243354	1.437687	0.033878
  84	4.1500e-02	3.2791	4.525137	0.000323	3.233032	1.095381	0.025812
  85	4.2000e-02	3.3320	4.625964	0.000253	2.525806	0.855766	0.020165
  86	4.2500e-02	3.3641	4.746957	0.000303	3.030967	1.026919	0.024199
  87	4.3000e-02	3.3978	4.863917	0.000293	2.929935	0.992689	0.023392
  88	4.3500e-02	3.4459	4.968777	0.000263	2.626838	0.889997	0.020972
  89	4.4000e-02	3.4876	5.109936	0.000354	3.536128	1.198073	0.028232
  90	4.4500e-02	3.5341	5.271260	0.000404	4.041290	1.369226	0.032265
  91	4.5000e-02	3.5678	5.368054	0.000242	2.424774	0.821536	0.019359
  92	4.5500e-02	3.6031	5.472915	0.000263	2.626838	0.889997	0.020972
  93	4.6000e-02	3.6464	5.606007	0.000333	3.334064	1.129611	0.026618
  94	4.6500e-02	3.6865	5.767331	0.000404	4.041290	1.369226	0.032265
  95	4.7000e-02	3.7282	5.892357	0.000313	3.131999	1.061150	0.025005
  96	4.7500e-02	3.7555	6.033516	0.000354	3.536128	1.198073	0.028232
  97	4.8000e-02	3.7988	6.122244	0.000222	2.222709	0.753074	0.017746
  98	4.8500e-02	3.8357	6.227104	0.000263	2.626838	0.889997	0.020972
  99	4.9000e-02	3.8838	6.396494	0.000424	4.243354	1.437687	0.033878
 100	4.9500e-02	3.9352	6.489256	0.000232	2.323742	0.787305	0.018552
 101	5.0000e-02	3.9737	6.670745	0.000455	4.546451	1.540379	0.036298
 102	5.0500e-02	4.0106	6.795771	0.000313	3.131999	1.061150	0.025005
 103	5.1000e-02	4.0491	6.932896	0.000344	3.435096	1.163842	0.027425
 104	5.1500e-02	4.0812	7.057923	0.000313	3.131999	1.061150	0.025005
 105	5.2000e-02	4.1277	7.146651	0.000222	2.222709	0.753074	0.017746
 106	5.2500e-02	4.1646	7.312008	0.000414	4.142322	1.403457	0.033071
 107	5.3000e-02	4.1983	7.449133	0.000344	3.435096	1.163842	0.027425
 108	5.3500e-02	4.2448	7.541894	0.000232	2.323742	0.787305	0.018552
 109	5.4000e-02	4.2785	7.683053	0.000354	3.536128	1.198073	0.028232
 110	5.4500e-02	4.3250	7.844377	0.000404	4.041290	1.369226	0.032265
 111	5.5000e-02	4.3651	7.929072	0.000212	2.121677	0.718844	0.016939
 112	5.5500e-02	4.4036	8.046032	0.000293	2.929935	0.992689	0.023392
 113	5.6000e-02	4.4453	8.207356	0.000404	4.041290	1.369226	0.032265
 114	5.6500e-02	4.4919	8.368680	0.000404	4.041290	1.369226	0.032265
 115	5.7000e-02	4.5223	8.477573	0.000273	2.727871	0.924228	0.021779
 116	5.7500e-02	4.5640	8.638897	0.000404	4.041290	1.369226	0.032265
 117	5.8000e-02	4.6138	8.776023	0.000344	3.435096	1.163842	0.027425
 118	5.8500e-02	4.6507	8.868784	0.000232	2.323742	0.787305	0.018552
 119	5.9000e-02	4.6828	9.082538	0.000535	5.354709	1.814224	0.042751
 120	5.9500e-02	4.7261	9.195465	0.000283	2.828903	0.958458	0.022585
 121	6.0000e-02	4.7630	9.268061	0.000182	1.818580	0.616152	0.014519
 122	6.0500e-02	4.8047	9.421318	0.000384	3.839225	1.300765	0.030652
 123	6.1000e-02	4.8464	9.558444	0.000344	3.435096	1.163842	0.027425
 124	6.1500e-02	4.8849	9.691536	0.000333	3.334064	1.129611	0.026618
 125	6.2000e-02	4.9218	9.836727	0.000364	3.637161	1.232303	0.029038
 126	6.2500e-02	4.9683	9.961754	0.000313	3.131999	1.061150	0.025005
 127	6.3000e-02	5.0004	10.050482	0.000222	2.222709	0.753074	0.017746
 128	6.3500e-02	5.0501	10.203739	0.000384	3.839225	1.300765	0.030652
 129	6.4000e-02	5.0870	10.348931	0.000364	3.637161	1.232303	0.029038
 130	6.4500e-02	5.1271	10.502189	0.000384	3.839225	1.300765	0.030652
 131	6.5000e-02	5.1560	10.631248	0.000323	3.233032	1.095381	0.025812
 132	6.5500e-02	5.2025	10.796605	0.000414	4.142322	1.403457	0.033071
 133	6.6000e-02	5.2458	10.913565	0.000293	2.929935	0.992689	0.023392
 134	6.6500e-02	5.2827	11.103120	0.000475	4.748515	1.608841	0.037911
 135	6.7000e-02	5.3277	11.244279	0.000354	3.536128	1.198073	0.028232
 136	6.7500e-02	5.3710	11.377371	0.000333	3.334064	1.129611	0.026618
 137	6.8000e-02	5.3966	11.486265	0.000273	2.727871	0.924228	0.021779
 138	6.8500e-02	5.4480	11.587092	0.000253	2.525806	0.855766	0.020165
 139	6.9000e-02	5.4865	11.740350	0.000384	3.839225	1.300765	0.030652
 140	6.9500e-02	5.5250	11.885542	0.000364	3.637161	1.232303	0.029038
 141	7.0000e-02	5.5699	12.010568	0.000313	3.131999	1.061150	0.025005
 142	7.0500e-02	5.6052	12.115428	0.000263	2.626838	0.889997	0.020972
 143	7.1000e-02	5.6453	12.268686	0.000384	3.839225	1.300765	0.030652
 144	7.1500e-02	5.6902	12.421944	0.000384	3.839225	1.300765	0.030652
 145	7.2000e-02	5.7159	12.534870	0.000283	2.828903	0.958458	0.022585
 146	7.2500e-02	5.7592	12.922048	0.000970	9.699095	3.286142	0.077435
 147	7.3000e-02	5.8009	12.877684	-0.000111	-1.111355	-0.376537	-0.008873
 148	7.3500e-02	5.8410	13.014809	0.000344	3.435096	1.163842	0.027425
 149	7.4000e-02	5.8811	13.123703	0.000273	2.727871	0.924228	0.021779
 150	7.4500e-02	5.9244	13.256795	0.000333	3.334064	1.129611	0.026618
 151	7.5000e-02	5.9565	13.406020	0.000374	3.738193	1.266534	0.029845
 152	7.5500e-02	6.0030	13.482649	0.000192	1.919613	0.650382	0.015326
 153	7.6000e-02	6.0415	13.652039	0.000424	4.243354	1.437687	0.033878
 154	7.6500e-02	6.0881	13.813363	0.000404	4.041290	1.369226	0.032265
 155	7.7000e-02	6.1201	13.958554	0.000364	3.637161	1.232303	0.029038
 156	7.7500e-02	6.1635	14.131978	0.000434	4.344386	1.471918	0.034685
 157	7.8000e-02	6.1891	14.281202	0.000374	3.738193	1.266534	0.029845
 158	7.8500e-02	6.2549	14.386063	0.000263	2.626838	0.889997	0.020972
 159	7.9000e-02	6.2918	14.527221	0.000354	3.536128	1.198073	0.028232
 160	7.9500e-02	6.3223	14.644181	0.000293	2.929935	0.992689	0.023392
 161	8.0000e-02	6.3576	14.761141	0.000293	2.929935	0.992689	0.023392
 162	8.0500e-02	6.4105	14.974895	0.000535	5.354709	1.814224	0.042751
 163	8.1000e-02	6.4442	15.079756	0.000263	2.626838	0.889997	0.020972
 164	8.1500e-02	6.4891	15.172517	0.000232	2.323742	0.787305	0.018552
 165	8.2000e-02	6.5196	15.337874	0.000414	4.142322	1.403457	0.033071
 166	8.2500e-02	6.5613	15.470966	0.000333	3.334064	1.129611	0.026618
 167	8.3000e-02	6.5982	15.632290	0.000404	4.041290	1.369226	0.032265
 168	8.3500e-02	6.6319	15.773449	0.000354	3.536128	1.198073	0.028232
 169	8.4000e-02	6.6864	15.930739	0.000394	3.940257	1.334995	0.031458
 170	8.4500e-02	6.7265	16.055766	0.000313	3.131999	1.061150	0.025005
 171	8.5000e-02	6.7618	16.257420	0.000505	5.051612	1.711532	0.040331
 172	8.5500e-02	6.7987	16.346149	0.000222	2.222709	0.753074	0.017746
 173	8.6000e-02	6.8469	16.487307	0.000354	3.536128	1.198073	0.028232
 174	8.6500e-02	6.8838	16.567969	0.000202	2.020645	0.684613	0.016132
 175	8.7000e-02	6.9319	16.749458	0.000455	4.546451	1.540379	0.036298
 176	8.7500e-02	6.9688	16.894650	0.000364	3.637161	1.232303	0.029038
 177	8.8000e-02	6.9993	17.084206	0.000475	4.748515	1.608841	0.037911
 178	8.8500e-02	7.0506	17.160835	0.000192	1.919613	0.650382	0.015326
 179	8.9000e-02	7.0907	17.306026	0.000364	3.637161	1.232303	0.029038
 180	8.9500e-02	7.1212	17.414920	0.000273	2.727871	0.924228	0.021779
 181	9.0000e-02	7.1661	17.612542	0.000495	4.950580	1.677302	0.039524
 182	9.0500e-02	7.2014	17.753700	0.000354	3.536128	1.198073	0.028232
 183	9.1000e-02	7.2303	17.894858	0.000354	3.536128	1.198073	0.028232
 184	9.1500e-02	7.2864	17.999719	0.000263	2.626838	0.889997	0.020972
 185	9.2000e-02	7.3185	18.148944	0.000374	3.738193	1.266534	0.029845
 186	9.2500e-02	7.3698	18.278003	0.000323	3.233032	1.095381	0.025812
 187	9.3000e-02	7.4003	18.451426	0.000434	4.344386	1.471918	0.034685
 188	9.3500e-02	7.4436	18.592585	0.000354	3.536128	1.198073	0.028232
 189	9.4000e-02	7.4837	18.725677	0.000333	3.334064	1.129611	0.026618
 190	9.4500e-02	7.5239	18.895067	0.000424	4.243354	1.437687	0.033878
 191	9.5000e-02	7.5559	19.024126	0.000323	3.233032	1.095381	0.025812
 192	9.5500e-02	7.6025	19.185450	0.000404	4.041290	1.369226	0.032265
 193	9.6000e-02	7.6474	19.302410	0.000293	2.929935	0.992689	0.023392
 194	9.6500e-02	7.6875	19.443568	0.000354	3.536128	1.198073	0.028232
 195	9.7000e-02	7.7244	19.592793	0.000374	3.738193	1.266534	0.029845
 196	9.7500e-02	7.7693	19.733951	0.000354	3.536128	1.198073	0.028232
 197	9.8000e-02	7.7934	19.879143	0.000364	3.637161	1.232303	0.029038
 198	9.8500e-02	7.8511	19.992070	0.000283	2.828903	0.958458	0.022585
 199	9.9000e-02	7.8752	20.096930	0.000263	2.626838	0.889997	0.020972
 200	9.9500e-02	7.9249	20.242122	0.000364	3.637161	1.232303	0.029038
 201	1.0000e-01	7.9618	20.455876	0.000535	5.354709	1.814224	0.042751
 202	1.0050e-01	8.0083	20.536538	0.000202	2.020645	0.684613	0.016132
 203	1.0100e-01	8.0532	20.685763	0.000374	3.738193	1.266534	0.029845
 204	1.0150e-01	8.0837	20.871285	0.000465	4.647483	1.574610	0.037105
 205	1.0200e-01	8.1190	20.935815	0.000162	1.616516	0.547690	0.012906
 206	1.0250e-01	8.1639	21.117304	0.000455	4.546451	1.540379	0.036298
 207	1.0300e-01	8.2040	21.230231	0.000283	2.828903	0.958458	0.022585
 208	1.0350e-01	8.2474	21.391555	0.000404	4.041290	1.369226	0.032265
 209	1.0400e-01	8.2875	21.508515	0.000293	2.929935	0.992689	0.023392
 210	1.0450e-01	8.3260	21.661773	0.000384	3.839225	1.300765	0.030652
 211	1.0500e-01	8.3597	21.790832	0.000323	3.233032	1.095381	0.025812
 212	1.0550e-01	8.3917	21.919891	0.000323	3.233032	1.095381	0.025812
 213	1.0600e-01	8.4383	22.165910	0.000616	6.162967	2.088070	0.049204
 214	1.0650e-01	8.4896	22.226406	0.000152	1.515484	0.513460	0.012099
 215	1.0700e-01	8.5265	22.371598	0.000364	3.637161	1.232303	0.029038
 216	1.0750e-01	8.5618	22.512756	0.000354	3.536128	1.198073	0.028232
 217	1.0800e-01	8.6051	22.633749	0.000303	3.030967	1.026919	0.024199
 218	1.0850e-01	8.6452	22.819272	0.000465	4.647483	1.574610	0.037105
 219	1.0900e-01	8.6853	22.996728	0.000445	4.445419	1.506149	0.035491
 220	1.0950e-01	8.7190	23.137887	0.000354	3.536128	1.198073	0.028232
 221	1.1000e-01	8.7687	23.190317	0.000131	1.313419	0.444998	0.010486
 222	1.1050e-01	8.8088	23.375839	0.000465	4.647483	1.574610	0.037105
 223	1.1100e-01	8.8425	23.496832	0.000303	3.030967	1.026919	0.024199
 224	1.1150e-01	8.8923	23.646057	0.000374	3.738193	1.266534	0.029845
 225	1.1200e-01	8.9260	23.758984	0.000283	2.828903	0.958458	0.022585
 226	1.1250e-01	8.9612	23.871911	0.000283	2.828903	0.958458	0.022585
 227	1.1300e-01	9.0078	24.081632	0.000525	5.253677	1.779994	0.041944
 228	1.1350e-01	9.0495	24.198592	0.000293	2.929935	0.992689	0.023392
 229	1.1400e-01	9.0800	24.331684	0.000333	3.334064	1.129611	0.026618
 230	1.1450e-01	9.1169	24.472842	0.000354	3.536128	1.198073	0.028232
 231	1.1500e-01	9.1666	24.585769	0.000283	2.828903	0.958458	0.022585
 232	1.1550e-01	9.2003	24.730961	0.000364	3.637161	1.232303	0.029038
 233	1.1600e-01	9.2564	24.884218	0.000384	3.839225	1.300765	0.030652
 234	1.1650e-01	9.2917	25.013278	0.000323	3.233032	1.095381	0.025812
 235	1.1700e-01	9.3254	25.134270	0.000303	3.030967	1.026919	0.024199
 236	1.1750e-01	9.3655	25.291561	0.000394	3.940257	1.334995	0.031458
 237	1.1800e-01	9.3992	25.444819	0.000384	3.839225	1.300765	0.030652
 238	1.1850e-01	9.4345	25.610176	0.000414	4.142322	1.403457	0.033071
 239	1.1900e-01	9.4810	25.751335	0.000354	3.536128	1.198073	0.028232
 240	1.1950e-01	9.5291	25.856195	0.000263	2.626838	0.889997	0.020972
 241	1.2000e-01	9.5725	26.009453	0.000384	3.839225	1.300765	0.030652
 242	1.2050e-01	9.6061	26.146578	0.000344	3.435096	1.163842	0.027425
 243	1.2100e-01	9.6382	26.231273	0.000212	2.121677	0.718844	0.016939
 244	1.2150e-01	9.6815	26.404697	0.000434	4.344386	1.471918	0.034685
 245	1.2200e-01	9.7281	26.557954	0.000384	3.839225	1.300765	0.030652
 246	1.2250e-01	9.7682	26.682980	0.000313	3.131999	1.061150	0.025005
 247	1.2300e-01	9.8115	26.803973	0.000303	3.030967	1.026919	0.024199
 248	1.2350e-01	9.8564	26.957231	0.000384	3.839225	1.300765	0.030652
 249	1.2400e-01	9.8805	27.098390	0.000354	3.536128	1.198073	0.028232
 250	1.2450e-01	9.9254	27.291978	0.000485	4.849548	1.643071	0.038718
 251	1.2500e-01	9.9671	27.300044	0.000020	0.202064	0.068461	0.001613
 252	1.2550e-01	10.0168	27.501699	0.000505	5.051612	1.711532	0.040331
 253	1.2600e-01	10.0473	27.675123	0.000434	4.344386	1.471918	0.034685
 254	1.2650e-01	10.0890	27.779983	0.000263	2.626838	0.889997	0.020972
 255	1.2700e-01	10.1195	27.888877	0.000273	2.727871	0.924228	0.021779
 256	1.2750e-01	10.1676	28.078432	0.000475	4.748515	1.608841	0.037911
 257	1.2800e-01	10.2045	28.199425	0.000303	3.030967	1.026919	0.024199
 258	1.2850e-01	10.2366	28.344617	0.000364	3.637161	1.232303	0.029038
 259	1.2900e-01	10.2879	28.477709	0.000333	3.334064	1.129611	0.026618
 260	1.2950e-01	10.3232	28.639033	0.000404	4.041290	1.369226	0.032265
 261	1.3000e-01	10.3553	28.707596	0.000172	1.717548	0.581921	0.013713
 262	1.3050e-01	10.4034	28.864887	0.000394	3.940257	1.334995	0.031458
 263	1.3100e-01	10.4484	29.014111	0.000374	3.738193	1.266534	0.029845
 264	1.3150e-01	10.4901	29.163336	0.000374	3.738193	1.266534	0.029845
 265	1.3200e-01	10.5302	29.288362	0.000313	3.131999	1.061150	0.025005
 266	1.3250e-01	10.5591	29.421454	0.000333	3.334064	1.129611	0.026618
 267	1.3300e-01	10.6088	29.623109	0.000505	5.051612	1.711532	0.040331
 268	1.3350e-01	10.6425	29.740069	0.000293	2.929935	0.992689	0.023392
 269	1.3400e-01	10.6922	29.869128	0.000323	3.233032	1.095381	0.025812
 270	1.3450e-01	10.7211	29.969956	0.000253	2.525806	0.855766	0.020165
 271	1.3500e-01	10.7628	30.086916	0.000293	2.929935	0.992689	0.023392
 272	1.3550e-01	10.8029	30.256306	0.000424	4.243354	1.437687	0.033878
 273	1.3600e-01	10.8494	30.349067	0.000232	2.323742	0.787305	0.018552
 274	1.3650e-01	10.8831	30.506358	0.000394	3.940257	1.334995	0.031458
 275	1.3700e-01	10.9264	30.691880	0.000465	4.647483	1.574610	0.037105
 276	1.3750e-01	10.9713	30.776575	0.000212	2.121677	0.718844	0.016939
 277	1.3800e-01	11.0066	30.897568	0.000303	3.030967	1.026919	0.024199
 278	1.3850e-01	11.0500	31.058892	0.000404	4.041290	1.369226	0.032265
 279	1.3900e-01	11.0885	31.155687	0.000242	2.424774	0.821536	0.019359
 280	1.3950e-01	11.1254	31.240382	0.000212	2.121677	0.718844	0.016939
 281	1.4000e-01	11.1606	31.450103	0.000525	5.253677	1.779994	0.041944
 282	1.4050e-01	11.2040	31.627559	0.000445	4.445419	1.506149	0.035491
 283	1.4100e-01	11.2344	31.732420	0.000263	2.626838	0.889997	0.020972
 284	1.4150e-01	11.2858	31.873578	0.000354	3.536128	1.198073	0.028232
 285	1.4200e-01	11.3275	31.942141	0.000172	1.717548	0.581921	0.013713
 286	1.4250e-01	11.3676	32.123630	0.000455	4.546451	1.540379	0.036298
 287	1.4300e-01	11.4173	32.293021	0.000424	4.243354	1.437687	0.033878
 288	1.4350e-01	11.4446	32.426113	0.000333	3.334064	1.129611	0.026618
 289	1.4400e-01	11.4799	32.579371	0.000384	3.839225	1.300765	0.030652
 290	1.4450e-01	11.5216	32.688264	0.000273	2.727871	0.924228	0.021779
 291	1.4500e-01	11.5665	32.793125	0.000263	2.626838	0.889997	0.020972
 292	1.4550e-01	11.6034	32.914118	0.000303	3.030967	1.026919	0.024199
 293	1.4600e-01	11.6451	33.131905	0.000546	5.455741	1.848455	0.043557
 294	1.4650e-01	11.6900	33.244832	0.000283	2.828903	0.958458	0.022585
 295	1.4700e-01	11.7302	33.385990	0.000354	3.536128	1.198073	0.028232
 296	1.4750e-01	11.7670	33.498917	0.000283	2.828903	0.958458	0.022585
 297	1.4800e-01	11.8007	33.640075	0.000354	3.536128	1.198073	0.028232
 298	1.4850e-01	11.8441	33.773168	0.000333	3.334064	1.129611	0.026618
 299	1.4900e-01	11.8858	33.869962	0.000242	2.424774	0.821536	0.019359
 300	1.4950e-01	11.9259	34.075650	0.000515	5.152644	1.745763	0.041138
 301	1.5000e-01	11.9676	34.152279	0.000192	1.919613	0.650382	0.015326
 302	1.5050e-01	12.0109	34.285371	0.000333	3.334064	1.129611	0.026618
 303	1.5100e-01	12.0494	34.474927	0.000475	4.748515	1.608841	0.037911
 304	1.5150e-01	12.0847	34.583821	0.000273	2.727871	0.924228	0.021779
 305	1.5200e-01	12.1280	34.684648	0.000253	2.525806	0.855766	0.020165
 306	1.5250e-01	12.1617	34.789509	0.000263	2.626838	0.889997	0.020972
 307	1.5300e-01	12.2066	34.979064	0.000475	4.748515	1.608841	0.037911
 308	1.5350e-01	12.2531	35.108123	0.000323	3.233032	1.095381	0.025812
 309	1.5400e-01	12.2916	35.204918	0.000242	2.424774	0.821536	0.019359
 310	1.5450e-01	12.3189	35.346076	0.000354	3.536128	1.198073	0.028232
 311	1.5500e-01	12.3670	35.499334	0.000384	3.839225	1.300765	0.030652
 312	1.5550e-01	12.4055	35.652592	0.000384	3.839225	1.300765	0.030652
 313	1.5600e-01	12.4488	35.769552	0.000293	2.929935	0.992689	0.023392
 314	1.5650e-01	12.4809	35.862313	0.000232	2.323742	0.787305	0.018552
 315	1.5700e-01	12.5242	36.007504	0.000364	3.637161	1.232303	0.029038
 316	1.5750e-01	12.5676	36.160762	0.000384	3.839225	1.300765	0.030652
 317	1.5800e-01	12.6029	36.322086	0.000404	4.041290	1.369226	0.032265
 318	1.5850e-01	12.6478	36.402748	0.000202	2.020645	0.684613	0.016132
 319	1.5900e-01	12.6847	36.547940	0.000364	3.637161	1.232303	0.029038
 320	1.5950e-01	12.7248	36.697164	0.000374	3.738193	1.266534	0.029845
 321	1.6000e-01	12.7649	36.822190	0.000313	3.131999	1.061150	0.025005
 322	1.6050e-01	12.8098	36.959316	0.000344	3.435096	1.163842	0.027425
 323	1.6100e-01	12.8483	37.116606	0.000394	3.940257	1.334995	0.031458
 324	1.6150e-01	12.8916	37.221467	0.000263	2.626838	0.889997	0.020972
 325	1.6200e-01	12.9221	37.358592	0.000344	3.435096	1.163842	0.027425
 326	1.6250e-01	12.9670	37.503784	0.000364	3.637161	1.232303	0.029038
 327	1.6300e-01	13.0087	37.620744	0.000293	2.929935	0.992689	0.023392
 328	1.6350e-01	13.0376	37.745770	0.000313	3.131999	1.061150	0.025005
 329	1.6400e-01	13.0825	37.907094	0.000404	4.041290	1.369226	0.032265
 330	1.6450e-01	13.1242	37.995822	0.000222	2.222709	0.753074	0.017746
 331	1.6500e-01	13.1659	38.153113	0.000394	3.940257	1.334995	0.031458
 332	1.6550e-01	13.2076	38.249907	0.000242	2.424774	0.821536	0.019359
 333	1.6600e-01	13.2478	38.370900	0.000303	3.030967	1.026919	0.024199
 334	1.6650e-01	13.2830	38.487860	0.000293	2.929935	0.992689	0.023392
 335	1.6700e-01	13.3232	38.629018	0.000354	3.536128	1.198073	0.028232
 336	1.6750e-01	13.3649	38.806475	0.000445	4.445419	1.506149	0.035491
 337	1.6800e-01	13.4050	38.899236	0.000232	2.323742	0.787305	0.018552
 338	1.6850e-01	13.4403	39.028295	0.000323	3.233032	1.095381	0.025812
 339	1.6900e-01	13.4820	39.189619	0.000404	4.041290	1.369226	0.032265
 340	1.6950e-01	13.5253	39.318678	0.000323	3.233032	1.095381	0.025812
 341	1.7000e-01	13.5654	39.435638	0.000293	2.929935	0.992689	0.023392
 342	1.7050e-01	13.5943	39.560664	0.000313	3.131999	1.061150	0.025005
 343	1.7100e-01	13.6424	39.649392	0.000222	2.222709	0.753074	0.017746
 344	1.7150e-01	13.6841	39.806683	0.000394	3.940257	1.334995	0.031458
 345	1.7200e-01	13.7146	39.899444	0.000232	2.323742	0.787305	0.018552
 346	1.7250e-01	13.7675	40.133364	0.000586	5.859870	1.985378	0.046784
 347	1.7300e-01	13.8076	40.165629	0.000081	0.808258	0.273845	0.006453
 348	1.7350e-01	13.8445	40.355185	0.000475	4.748515	1.608841	0.037911
 349	1.7400e-01	13.8878	40.488277	0.000333	3.334064	1.129611	0.026618
 350	1.7450e-01	13.9247	40.564906	0.000192	1.919613	0.650382	0.015326
 351	1.7500e-01	13.9648	40.766561	0.000505	5.051612	1.711532	0.040331
 352	1.7550e-01	14.0017	40.871421	0.000263	2.626838	0.889997	0.020972
 353	1.7600e-01	14.0531	40.919818	0.000121	1.212387	0.410768	0.009679
 354	1.7650e-01	14.0852	41.081142	0.000404	4.041290	1.369226	0.032265
 355	1.7700e-01	14.1317	41.246499	0.000414	4.142322	1.403457	0.033071
 356	1.7750e-01	14.1670	41.367492	0.000303	3.030967	1.026919	0.024199
 357	1.7800e-01	14.2023	41.504618	0.000344	3.435096	1.163842	0.027425
 358	1.7850e-01	14.2472	41.569147	0.000162	1.616516	0.547690	0.012906
 359	1.7900e-01	14.2809	41.726438	0.000394	3.940257	1.334995	0.031458
 360	1.7950e-01	14.3242	41.827266	0.000253	2.525806	0.855766	0.020165
 361	1.8000e-01	14.3611	42.024887	0.000495	4.950580	1.677302	0.039524
 362	1.8050e-01	14.4076	42.137814	0.000283	2.828903	0.958458	0.022585
 363	1.8100e-01	14.4429	42.262840	0.000313	3.131999	1.061150	0.025005
 364	1.8150e-01	14.4846	42.412065	0.000374	3.738193	1.266534	0.029845
 365	1.8200e-01	14.5279	42.529025	0.000293	2.929935	0.992689	0.023392
 366	1.8250e-01	14.5664	42.613720	0.000212	2.121677	0.718844	0.016939
 367	1.8300e-01	14.6033	42.742779	0.000323	3.233032	1.095381	0.025812
 368	1.8350e-01	14.6466	42.912169	0.000424	4.243354	1.437687	0.033878
 369	1.8400e-01	14.6819	43.025096	0.000283	2.828903	0.958458	0.022585
 370	1.8450e-01	14.7236	43.138023	0.000283	2.828903	0.958458	0.022585
 371	1.8500e-01	14.7638	43.275148	0.000344	3.435096	1.163842	0.027425
 372	1.8550e-01	14.8007	43.404207	0.000323	3.233032	1.095381	0.025812
 373	1.8600e-01	14.8392	43.533266	0.000323	3.233032	1.095381	0.025812
 374	1.8650e-01	14.8793	43.646193	0.000283	2.828903	0.958458	0.022585
 375	1.8700e-01	14.9226	43.763153	0.000293	2.929935	0.992689	0.023392
 376	1.8750e-01	14.9643	43.892212	0.000323	3.233032	1.095381	0.025812
 377	1.8800e-01	14.9948	44.053536	0.000404	4.041290	1.369226	0.032265
 378	1.8850e-01	15.0381	44.226959	0.000434	4.344386	1.471918	0.034685
 379	1.8900e-01	15.0830	44.283423	0.000141	1.414451	0.479229	0.011293
 380	1.8950e-01	15.1247	44.392316	0.000273	2.727871	0.924228	0.021779
 381	1.9000e-01	15.1680	44.501210	0.000273	2.727871	0.924228	0.021779
 382	1.9050e-01	15.2081	44.638335	0.000344	3.435096	1.163842	0.027425
 383	1.9100e-01	15.2450	44.783527	0.000364	3.637161	1.232303	0.029038
 384	1.9150e-01	15.2819	44.944851	0.000404	4.041290	1.369226	0.032265
 385	1.9200e-01	15.3300	45.086009	0.000354	3.536128	1.198073	0.028232
 386	1.9250e-01	15.3653	45.158605	0.000182	1.818580	0.616152	0.014519
 387	1.9300e-01	15.4087	45.275565	0.000293	2.929935	0.992689	0.023392
 388	1.9350e-01	15.4536	45.412690	0.000344	3.435096	1.163842	0.027425
 389	1.9400e-01	15.4905	45.541749	0.000323	3.233032	1.095381	0.025812
 390	1.9450e-01	15.5210	45.678875	0.000344	3.435096	1.163842	0.027425
 391	1.9500e-01	15.5627	45.747437	0.000172	1.717548	0.581921	0.013713
 392	1.9550e-01	15.5964	45.932960	0.000465	4.647483	1.574610	0.037105
 393	1.9600e-01	15.6429	46.037821	0.000263	2.626838	0.889997	0.020972
 394	1.9650e-01	15.6894	46.150747	0.000283	2.828903	0.958458	0.022585
 395	1.9700e-01	15.7391	46.308038	0.000394	3.940257	1.334995	0.031458
 396	1.9750e-01	15.7664	46.445164	0.000344	3.435096	1.163842	0.027425
 397	1.9800e-01	15.8065	46.562123	0.000293	2.929935	0.992689	0.023392
 398	1.9850e-01	15.8514	46.646818	0.000212	2.121677	0.718844	0.016939
 399	1.9900e-01	15.8899	46.767811	0.000303	3.030967	1.026919	0.024199
 400	1.9950e-01	15.9124	46.941235	0.000434	4.344386	1.471918	0.034685
 401	2.0000e-01	15.9653	47.033996	0.000232	2.323742	0.787305	0.018552
 402	2.0050e-01	16.0070	47.187254	0.000384	3.839225	1.300765	0.030652
 403	2.0100e-01	16.0455	47.300180	0.000283	2.828903	0.958458	0.022585
 404	2.0150e-01	16.0872	47.360677	0.000152	1.515484	0.513460	0.012099
 405	2.0200e-01	16.1290	47.501835	0.000354	3.536128	1.198073	0.028232
 406	2.0250e-01	16.1562	47.687358	0.000465	4.647483	1.574610	0.037105
 407	2.0300e-01	16.1963	47.772053	0.000212	2.121677	0.718844	0.016939
 408	2.0350e-01	16.2413	47.860781	0.000222	2.222709	0.753074	0.017746
 409	2.0400e-01	16.2749	48.034204	0.000434	4.344386	1.471918	0.034685
 410	2.0450e-01	16.3167	48.118899	0.000212	2.121677	0.718844	0.016939
 411	2.0500e-01	16.3616	48.300389	0.000455	4.546451	1.540379	0.036298
 412	2.0550e-01	16.4001	48.171330	-0.000323	-3.233032	-1.095381	-0.025812
 413	2.0600e-01	16.4354	48.461713	0.000727	7.274321	2.464607	0.058077
 414	2.0650e-01	16.4851	48.667401	0.000515	5.152644	1.745763	0.041138
 415	2.0700e-01	16.5364	48.792427	0.000313	3.131999	1.061150	0.025005
 416	2.0750e-01	16.5669	48.897287	0.000263	2.626838	0.889997	0.020972
 417	2.0800e-01	16.6038	49.026347	0.000323	3.233032	1.095381	0.025812
 418	2.0850e-01	16.6519	49.078777	0.000131	1.313419	0.444998	0.010486
 419	2.0900e-01	16.6840	49.207836	0.000323	3.233032	1.095381	0.025812
 420	2.0950e-01	16.7225	49.332862	0.000313	3.131999	1.061150	0.025005
 421	2.1000e-01	16.7658	49.465954	0.000333	3.334064	1.129611	0.026618
 422	2.1050e-01	16.8075	49.611146	0.000364	3.637161	1.232303	0.029038
 423	2.1100e-01	16.8428	49.764404	0.000384	3.839225	1.300765	0.030652
 424	2.1150e-01	16.8846	49.845066	0.000202	2.020645	0.684613	0.016132
 425	2.1200e-01	16.9295	50.018489	0.000434	4.344386	1.471918	0.034685
 426	2.1250e-01	16.9648	50.070919	0.000131	1.313419	0.444998	0.010486
 427	2.1300e-01	17.0049	50.224177	0.000384	3.839225	1.300765	0.030652
 428	2.1350e-01	17.0482	50.337104	0.000283	2.828903	0.958458	0.022585
 429	2.1400e-01	17.0803	50.474229	0.000344	3.435096	1.163842	0.027425
 430	2.1450e-01	17.1236	50.603288	0.000323	3.233032	1.095381	0.025812
 431	2.1500e-01	17.1605	50.679917	0.000192	1.919613	0.650382	0.015326
 432	2.1550e-01	17.2022	50.841241	0.000404	4.041290	1.369226	0.032265
 433	2.1600e-01	17.2471	50.921903	0.000202	2.020645	0.684613	0.016132
 434	2.1650e-01	17.2760	51.063061	0.000354	3.536128	1.198073	0.028232
 435	2.1700e-01	17.3209	51.167922	0.000263	2.626838	0.889997	0.020972
 436	2.1750e-01	17.3610	51.292948	0.000313	3.131999	1.061150	0.025005
 437	2.1800e-01	17.4091	51.417974	0.000313	3.131999	1.061150	0.025005
 438	2.1850e-01	17.4541	51.543000	0.000313	3.131999	1.061150	0.025005
 439	2.1900e-01	17.4845	51.659960	0.000293	2.929935	0.992689	0.023392
 440	2.1950e-01	17.5230	51.772887	0.000283	2.828903	0.958458	0.022585
 441	2.2000e-01	17.5631	51.926145	0.000384	3.839225	1.300765	0.030652
 442	2.2050e-01	17.6145	52.087468	0.000404	4.041290	1.369226	0.032265
 443	2.2100e-01	17.6530	52.204428	0.000293	2.929935	0.992689	0.023392
 444	2.2150e-01	17.6979	52.256859	0.000131	1.313419	0.444998	0.010486
 445	2.2200e-01	17.7252	52.398017	0.000354	3.536128	1.198073	0.028232
 446	2.2250e-01	17.7669	52.478679	0.000202	2.020645	0.684613	0.016132
 447	2.2300e-01	17.8054	52.603705	0.000313	3.131999	1.061150	0.025005
 448	2.2350e-01	17.8455	52.740830	0.000344	3.435096	1.163842	0.027425
 449	2.2400e-01	17.8792	52.890055	0.000374	3.738193	1.266534	0.029845
 450	2.2450e-01	17.9273	53.055412	0.000414	4.142322	1.403457	0.033071
 451	2.2500e-01	17.9546	53.128008	0.000182	1.818580	0.616152	0.014519
 452	2.2550e-01	18.0075	53.192537	0.000162	1.616516	0.547690	0.012906
 453	2.2600e-01	18.0428	53.341762	0.000374	3.738193	1.266534	0.029845
 454	2.2650e-01	18.0845	53.478887	0.000344	3.435096	1.163842	0.027425
 455	2.2700e-01	18.1278	53.527285	0.000121	1.212387	0.410768	0.009679
 456	2.2750e-01	18.1711	53.688609	0.000404	4.041290	1.369226	0.032265
 457	2.2800e-01	18.2080	53.777337	0.000222	2.222709	0.753074	0.017746
 458	2.2850e-01	18.2401	53.958826	0.000455	4.546451	1.540379	0.036298
 459	2.2900e-01	18.2850	54.063687	0.000263	2.626838	0.889997	0.020972
 460	2.2950e-01	18.3284	54.156448	0.000232	2.323742	0.787305	0.018552
 461	2.3000e-01	18.3717	54.305673	0.000374	3.738193	1.266534	0.029845
 462	2.3050e-01	18.4070	54.466997	0.000404	4.041290	1.369226	0.032265
 463	2.3100e-01	18.4391	54.579923	0.000283	2.828903	0.958458	0.022585
 464	2.3150e-01	18.4840	54.668652	0.000222	2.222709	0.753074	0.017746
 465	2.3200e-01	18.5289	54.801744	0.000333	3.334064	1.129611	0.026618
 466	2.3250e-01	18.5642	54.946935	0.000364	3.637161	1.232303	0.029038
 467	2.3300e-01	18.6043	55.084061	0.000344	3.435096	1.163842	0.027425
 468	2.3350e-01	18.6476	55.136491	0.000131	1.313419	0.444998	0.010486
 469	2.3400e-01	18.6861	55.237318	0.000253	2.525806	0.855766	0.020165
 470	2.3450e-01	18.7198	55.370411	0.000333	3.334064	1.129611	0.026618
 471	2.3500e-01	18.7663	55.491404	0.000303	3.030967	1.026919	0.024199
 472	2.3550e-01	18.8016	55.576099	0.000212	2.121677	0.718844	0.016939
 473	2.3600e-01	18.8481	55.729356	0.000384	3.839225	1.300765	0.030652
 474	2.3650e-01	18.8947	55.910846	0.000455	4.546451	1.540379	0.036298
 475	2.3700e-01	18.9235	55.890680	-0.000051	-0.505161	-0.171153	-0.004033
 476	2.3750e-01	18.9620	56.039905	0.000374	3.738193	1.266534	0.029845
 477	2.3800e-01	19.0037	56.164931	0.000313	3.131999	1.061150	0.025005
 478	2.3850e-01	19.0438	56.306090	0.000354	3.536128	1.198073	0.028232
 479	2.3900e-01	19.0888	56.382718	0.000192	1.919613	0.650382	0.015326
 480	2.3950e-01	19.1321	56.560175	0.000445	4.445419	1.506149	0.035491
 481	2.4000e-01	19.1658	56.652936	0.000232	2.323742	0.787305	0.018552
 482	2.4050e-01	19.2059	56.749730	0.000242	2.424774	0.821536	0.019359
 483	2.4100e-01	19.2396	56.919121	0.000424	4.243354	1.437687	0.033878
 484	2.4150e-01	19.2829	57.064312	0.000364	3.637161	1.232303	0.029038
 485	2.4200e-01	19.3310	57.189338	0.000313	3.131999	1.061150	0.025005
 486	2.4250e-01	19.3647	57.249835	0.000152	1.515484	0.513460	0.012099
 487	2.4300e-01	19.4032	57.358728	0.000273	2.727871	0.924228	0.021779
 488	2.4350e-01	19.4417	57.544251	0.000465	4.647483	1.574610	0.037105
 489	2.4400e-01	19.4786	57.616847	0.000182	1.818580	0.616152	0.014519
 490	2.4450e-01	19.5219	57.749939	0.000333	3.334064	1.129611	0.026618
 491	2.4500e-01	19.5684	57.798336	0.000121	1.212387	0.410768	0.009679
 492	2.4550e-01	19.6069	57.959660	0.000404	4.041290	1.369226	0.032265
 493	2.4600e-01	19.6454	58.076620	0.000293	2.929935	0.992689	0.023392
 494	2.4650e-01	19.6807	58.185514	0.000273	2.727871	0.924228	0.021779
 495	2.4700e-01	19.7273	58.298440	0.000283	2.828903	0.958458	0.022585
 496	2.4750e-01	19.7641	58.314573	0.000040	0.404129	0.136923	0.003226
 497	2.4800e-01	19.7962	58.475897	0.000404	4.041290	1.369226	0.032265
 498	2.4850e-01	19.8460	58.653353	0.000445	4.445419	1.506149	0.035491
 499	2.4900e-01	19.8813	58.725949	0.000182	1.818580	0.616152	0.014519
 500	2.4950e-01	19.9278	58.850975	0.000313	3.131999	1.061150	0.025005
 501	2.5000e-01	19.9583	59.000199	0.000374	3.738193	1.266534	0.029845
 502	2.5050e-01	19.9695	59.113126	0.000283	2.828903	0.958458	0.022585
 503	2.5100e-01	19.9486	59.213954	-0.000253	-2.525806	-0.855766	0.020165
 504	2.5150e-01	19.8973	59.254285	-0.000101	-1.010322	-0.342306	0.008066
 505	2.5200e-01	19.8652	59.306715	-0.000131	-1.313419	-0.444998	0.010486
 506	2.5250e-01	19.8203	59.334947	-0.000071	-0.707226	-0.239615	0.005646
 507	2.5300e-01	19.7850	59.318814	0.000040	0.404129	0.136923	-0.003226
 508	2.5350e-01	19.7465	59.367211	-0.000121	-1.212387	-0.410768	0.009679
 509	2.5400e-01	19.7000	59.383344	-0.000040	-0.404129	-0.136923	0.003226
 510	2.5450e-01	19.6679	59.403509	-0.000051	-0.505161	-0.171153	0.004033
 511	2.5500e-01	19.6182	59.387377	0.000040	0.404129	0.136923	-0.003226
 512	2.5550e-01	19.5813	59.318814	0.000172	1.717548	0.581921	-0.013713
 513	2.5600e-01	19.5428	59.322847	-0.000010	-0.101032	-0.034231	0.000807
 514	2.5650e-01	19.5027	59.314781	0.000020	0.202064	0.068461	-0.001613
 515	2.5700e-01	19.4674	59.294616	0.000051	0.505161	0.171153	-0.004033
 516	2.5750e-01	19.4192	59.294616	-0.000000	-0.000000	-0.000000	0.000000
 517	2.5800e-01	19.3743	59.290583	0.000010	0.101032	0.034231	-0.000807
 518	2.5850e-01	19.3438	59.213954	0.000192	1.919613	0.650382	-0.015326
 519	2.5900e-01	19.3053	59.205887	0.000020	0.202064	0.068461	-0.001613
 520	2.5950e-01	19.2636	59.125226	0.000202	2.020645	0.684613	-0.016132
 521	2.6000e-01	19.2315	59.117159	0.000020	0.202064	0.068461	-0.001613
 522	2.6050e-01	19.1834	59.101027	0.000040	0.404129	0.136923	-0.003226
 523	2.6100e-01	19.1449	59.056663	0.000111	1.111355	0.376537	-0.008873
 524	2.6150e-01	19.1032	59.020365	0.000091	0.909290	0.308076	-0.007260
 525	2.6200e-01	19.0615	59.028431	-0.000020	-0.202064	-0.068461	0.001613
 526	2.6250e-01	19.0230	58.992133	0.000091	0.909290	0.308076	-0.007260
 527	2.6300e-01	18.9781	58.955835	0.000091	0.909290	0.308076	-0.007260
 528	2.6350e-01	18.9396	58.943736	0.000030	0.303097	0.102692	-0.002420
 529	2.6400e-01	18.9059	58.923571	0.000051	0.505161	0.171153	-0.004033
 530	2.6450e-01	18.8594	58.838876	0.000212	2.121677	0.718844	-0.016939
 531	2.6500e-01	18.8241	58.859041	-0.000051	-0.505161	-0.171153	0.004033
 532	2.6550e-01	18.7888	58.746114	0.000283	2.828903	0.958458	-0.022585
 533	2.6600e-01	18.7487	58.713849	0.000081	0.808258	0.273845	-0.006453
 534	2.6650e-01	18.7070	58.677552	0.000091	0.909290	0.308076	-0.007260
 535	2.6700e-01	18.6652	58.653353	0.000061	0.606193	0.205384	-0.004840
 536	2.6750e-01	18.6219	58.600923	0.000131	1.313419	0.444998	-0.010486
 537	2.6800e-01	18.5834	58.621088	-0.000051	-0.505161	-0.171153	0.004033
 538	2.6850e-01	18.5417	58.536393	0.000212	2.121677	0.718844	-0.016939
 539	2.6900e-01	18.4952	58.471864	0.000162	1.616516	0.547690	-0.012906
 540	2.6950e-01	18.4583	58.467830	0.000010	0.101032	0.034231	-0.000807
 541	2.7000e-01	18.4118	58.423466	0.000111	1.111355	0.376537	-0.008873
 542	2.7050e-01	18.3813	58.342804	0.000202	2.020645	0.684613	-0.016132
 543	2.7100e-01	18.3476	58.326672	0.000040	0.404129	0.136923	-0.003226
 544	2.7150e-01	18.3075	58.322639	0.000010	0.101032	0.034231	-0.000807
 545	2.7200e-01	18.2594	58.233911	0.000222	2.222709	0.753074	-0.017746
 546	2.7250e-01	18.2225	58.217778	0.000040	0.404129	0.136923	-0.003226
 547	2.7300e-01	18.1792	58.120984	0.000242	2.424774	0.821536	-0.019359
 548	2.7350e-01	18.1503	58.112918	0.000020	0.202064	0.068461	-0.001613
 549	2.7400e-01	18.1118	58.052421	0.000152	1.515484	0.513460	-0.012099
 550	2.7450e-01	18.0701	58.012090	0.000101	1.010322	0.342306	-0.008066
 551	2.7500e-01	18.0332	57.870932	0.000354	3.536128	1.198073	-0.028232
 552	2.7550e-01	17.9851	57.907230	-0.000091	-0.909290	-0.308076	0.007260
 553	2.7600e-01	17.9305	57.838667	0.000172	1.717548	0.581921	-0.013713
 554	2.7650e-01	17.9113	57.814468	0.000061	0.606193	0.205384	-0.004840
 555	2.7700e-01	17.8615	57.749939	0.000162	1.616516	0.547690	-0.012906
 556	2.7750e-01	17.8214	57.677343	0.000182	1.818580	0.616152	-0.014519
 557	2.7800e-01	17.7877	57.616847	0.000152	1.515484	0.513460	-0.012099
 558	2.7850e-01	17.7540	57.584582	0.000081	0.808258	0.273845	-0.006453
 559	2.7900e-01	17.7091	57.532152	0.000131	1.313419	0.444998	-0.010486
 560	2.7950e-01	17.6690	57.483754	0.000121	1.212387	0.410768	-0.009679
 561	2.8000e-01	17.6257	57.455523	0.000071	0.707226	0.239615	-0.005646
 562	2.8050e-01	17.5776	57.407126	0.000121	1.212387	0.410768	-0.009679
 563	2.8100e-01	17.5503	57.302265	0.000263	2.626838	0.889997	-0.020972
 564	2.8150e-01	17.5214	57.265967	0.000091	0.909290	0.308076	-0.007260
 565	2.8200e-01	17.4621	57.249835	0.000040	0.404129	0.136923	-0.003226
 566	2.8250e-01	17.4284	57.112709	0.000344	3.435096	1.163842	-0.027425
 567	2.8300e-01	17.3851	57.060279	0.000131	1.313419	0.444998	-0.010486
 568	2.8350e-01	17.3466	57.040114	0.000051	0.505161	0.171153	-0.004033
 569	2.8400e-01	17.3017	56.971551	0.000172	1.717548	0.581921	-0.013713
 570	2.8450e-01	17.2712	56.931220	0.000101	1.010322	0.342306	-0.008066
 571	2.8500e-01	17.2311	56.878790	0.000131	1.313419	0.444998	-0.010486
 572	2.8550e-01	17.1781	56.858624	0.000051	0.505161	0.171153	-0.004033
 573	2.8600e-01	17.1460	56.737631	0.000303	3.030967	1.026919	-0.024199
 574	2.8650e-01	17.1059	56.681168	0.000141	1.414451	0.479229	-0.011293
 575	2.8700e-01	17.0626	56.644870	0.000091	0.909290	0.308076	-0.007260
 576	2.8750e-01	17.0305	56.604539	0.000101	1.010322	0.342306	-0.008066
 577	2.8800e-01	16.9808	56.548076	0.000141	1.414451	0.479229	-0.011293
 578	2.8850e-01	16.9455	56.455314	0.000232	2.323742	0.787305	-0.018552
 579	2.8900e-01	16.8974	56.378685	0.000192	1.919613	0.650382	-0.015326
 580	2.8950e-01	16.8685	56.342387	0.000091	0.909290	0.308076	-0.007260
 581	2.9000e-01	16.8204	56.293990	0.000121	1.212387	0.410768	-0.009679
 582	2.9050e-01	16.7883	56.181064	0.000283	2.828903	0.958458	-0.022585
 583	2.9100e-01	16.7434	56.132666	0.000121	1.212387	0.410768	-0.009679
 584	2.9150e-01	16.7081	56.112501	0.000051	0.505161	0.171153	-0.004033
 585	2.9200e-01	16.6664	56.031839	0.000202	2.020645	0.684613	-0.016132
 586	2.9250e-01	16.6231	55.991508	0.000101	1.010322	0.342306	-0.008066
 587	2.9300e-01	16.5814	55.910846	0.000202	2.020645	0.684613	-0.016132
 588	2.9350e-01	16.5477	55.818085	0.000232	2.323742	0.787305	-0.018552
 589	2.9400e-01	16.5043	55.745489	0.000182	1.818580	0.616152	-0.014519
 590	2.9450e-01	16.4707	55.745489	-0.000000	-0.000000	-0.000000	0.000000
 591	2.9500e-01	16.4338	55.644661	0.000253	2.525806	0.855766	-0.020165
 592	2.9550e-01	16.3824	55.572066	0.000182	1.818580	0.616152	-0.014519
 593	2.9600e-01	16.3407	55.479304	0.000232	2.323742	0.787305	-0.018552
 594	2.9650e-01	16.3038	55.463172	0.000040	0.404129	0.136923	-0.003226
 595	2.9700e-01	16.2669	55.406709	0.000141	1.414451	0.479229	-0.011293
 596	2.9750e-01	16.2236	55.370411	0.000091	0.909290	0.308076	-0.007260
 597	2.9800e-01	16.1835	55.322014	0.000121	1.212387	0.410768	-0.009679
 598	2.9850e-01	16.1498	55.209087	0.000283	2.828903	0.958458	-0.022585
 599	2.9900e-01	16.1049	55.140524	0.000172	1.717548	0.581921	-0.013713
 600	2.9950e-01	16.0680	55.043730	0.000242	2.424774	0.821536	-0.019359
 601	3.0000e-01	16.0199	55.019531	0.000061	0.606193	0.205384	-0.004840
 602	3.0050e-01	15.9862	54.950968	0.000172	1.717548	0.581921	-0.013713
 603	3.0100e-01	15.9493	54.918704	0.000081	0.808258	0.273845	-0.006453
 604	3.0150e-01	15.9028	54.821909	0.000242	2.424774	0.821536	-0.019359
 605	3.0200e-01	15.8627	54.753347	0.000172	1.717548	0.581921	-0.013713
 606	3.0250e-01	15.8225	54.664618	0.000222	2.222709	0.753074	-0.017746
 607	3.0300e-01	15.7744	54.612188	0.000131	1.313419	0.444998	-0.010486
 608	3.0350e-01	15.7439	54.527493	0.000212	2.121677	0.718844	-0.016939
 609	3.0400e-01	15.7006	54.471030	0.000141	1.414451	0.479229	-0.011293
 610	3.0450e-01	15.6605	54.402467	0.000172	1.717548	0.581921	-0.013713
 611	3.0500e-01	15.6236	54.325838	0.000192	1.919613	0.650382	-0.015326
 612	3.0550e-01	15.5883	54.450864	-0.000313	-3.131999	-1.061150	0.025005
 613	3.0600e-01	15.5450	54.229044	0.000556	5.556773	1.882686	-0.044364
 614	3.0650e-01	15.5033	54.124183	0.000263	2.626838	0.889997	-0.020972
 615	3.0700e-01	15.4616	54.047554	0.000192	1.919613	0.650382	-0.015326
 616	3.0750e-01	15.4295	53.974959	0.000182	1.818580	0.616152	-0.014519
 617	3.0800e-01	15.3894	53.894297	0.000202	2.020645	0.684613	-0.016132
 618	3.0850e-01	15.3413	53.902363	-0.000020	-0.202064	-0.068461	0.001613
 619	3.0900e-01	15.3060	53.761204	0.000354	3.536128	1.198073	-0.028232
 620	3.0950e-01	15.2579	53.724906	0.000091	0.909290	0.308076	-0.007260
 621	3.1000e-01	15.2226	53.603914	0.000303	3.030967	1.026919	-0.024199
 622	3.1050e-01	15.1857	53.555516	0.000121	1.212387	0.410768	-0.009679
 623	3.1100e-01	15.1472	53.474854	0.000202	2.020645	0.684613	-0.016132
 624	3.1150e-01	15.0926	53.442590	0.000081	0.808258	0.273845	-0.006453
 625	3.1200e-01	15.0686	53.333696	0.000273	2.727871	0.924228	-0.021779
 626	3.1250e-01	15.0252	53.309497	0.000061	0.606193	0.205384	-0.004840
 627	3.1300e-01	14.9835	53.188504	0.000303	3.030967	1.026919	-0.024199
 628	3.1350e-01	14.9450	53.180438	0.000020	0.202064	0.068461	-0.001613
 629	3.1400e-01	14.9065	53.099776	0.000202	2.020645	0.684613	-0.016132
 630	3.1450e-01	14.8584	52.986849	0.000283	2.828903	0.958458	-0.022585
 631	3.1500e-01	14.8279	52.910221	0.000192	1.919613	0.650382	-0.015326
 632	3.1550e-01	14.7798	52.825525	0.000212	2.121677	0.718844	-0.016939
 633	3.1600e-01	14.7445	52.736797	0.000222	2.222709	0.753074	-0.017746
 634	3.1650e-01	14.6996	52.676301	0.000152	1.515484	0.513460	-0.012099
 635	3.1700e-01	14.6707	52.591606	0.000212	2.121677	0.718844	-0.016939
 636	3.1750e-01	14.6274	52.527076	0.000162	1.616516	0.547690	-0.012906
 637	3.1800e-01	14.5809	52.446414	0.000202	2.020645	0.684613	-0.016132
 638	3.1850e-01	14.5472	52.353653	0.000232	2.323742	0.787305	-0.018552
 639	3.1900e-01	14.5071	52.317355	0.000091	0.909290	0.308076	-0.007260
 640	3.1950e-01	14.4590	52.285090	0.000081	0.808258	0.273845	-0.006453
 641	3.2000e-01	14.4237	52.180230	0.000263	2.626838	0.889997	-0.020972
 642	3.2050e-01	14.3836	52.087468	0.000232	2.323742	0.787305	-0.018552
 643	3.2100e-01	14.3499	51.994707	0.000232	2.323742	0.787305	-0.018552
 644	3.2150e-01	14.3098	51.942277	0.000131	1.313419	0.444998	-0.010486
 645	3.2200e-01	14.2632	51.857582	0.000212	2.121677	0.718844	-0.016939
 646	3.2250e-01	14.2263	51.780953	0.000192	1.919613	0.650382	-0.015326
 647	3.2300e-01	14.1862	51.663993	0.000293	2.929935	0.992689	-0.023392
 648	3.2350e-01	14.1429	51.611563	0.000131	1.313419	0.444998	-0.010486
 649	3.2400e-01	14.0948	51.543000	0.000172	1.717548	0.581921	-0.013713
 650	3.2450e-01	14.0579	51.478471	0.000162	1.616516	0.547690	-0.012906
 651	3.2500e-01	14.0290	51.377643	0.000253	2.525806	0.855766	-0.020165
 652	3.2550e-01	13.9905	51.264716	0.000283	2.828903	0.958458	-0.022585
 653	3.2600e-01	13.9456	51.204220	0.000152	1.515484	0.513460	-0.012099
 654	3.2650e-01	13.9039	51.143723	0.000152	1.515484	0.513460	-0.012099
 655	3.2700e-01	13.8606	51.083227	0.000152	1.515484	0.513460	-0.012099
 656	3.2750e-01	13.8269	50.950135	0.000333	3.334064	1.129611	-0.026618
 657	3.2800e-01	13.7836	50.929969	0.000051	0.505161	0.171153	-0.004033
 658	3.2850e-01	13.7354	50.853340	0.000192	1.919613	0.650382	-0.015326
 659	3.2900e-01	13.7018	50.724281	0.000323	3.233032	1.095381	-0.025812
 660	3.2950e-01	13.6665	50.692016	0.000081	0.808258	0.273845	-0.006453
 661	3.3000e-01	13.6199	50.607321	0.000212	2.121677	0.718844	-0.016939
 662	3.3050e-01	13.5798	50.470196	0.000344	3.435096	1.163842	-0.027425
 663	3.3100e-01	13.5445	50.405666	0.000162	1.616516	0.547690	-0.012906
 664	3.3150e-01	13.5044	50.349203	0.000141	1.414451	0.479229	-0.011293
 665	3.3200e-01	13.4595	50.224177	0.000313	3.131999	1.061150	-0.025005
 666	3.3250e-01	13.4210	50.151581	0.000182	1.818580	0.616152	-0.014519
 667	3.3300e-01	13.3825	50.103184	0.000121	1.212387	0.410768	-0.009679
 668	3.3350e-01	13.3360	49.990257	0.000283	2.828903	0.958458	-0.022585
 669	3.3400e-01	13.3039	49.949926	0.000101	1.010322	0.342306	-0.008066
 670	3.3450e-01	13.2702	49.889430	0.000152	1.515484	0.513460	-0.012099
 671	3.3500e-01	13.2253	49.748271	0.000354	3.536128	1.198073	-0.028232
 672	3.3550e-01	13.1804	49.695841	0.000131	1.313419	0.444998	-0.010486
 673	3.3600e-01	13.1451	49.599047	0.000242	2.424774	0.821536	-0.019359
 674	3.3650e-01	13.1034	49.502252	0.000242	2.424774	0.821536	-0.019359
 675	3.3700e-01	13.0665	49.421590	0.000202	2.020645	0.684613	-0.016132
 676	3.3750e-01	13.0328	49.304630	0.000293	2.929935	0.992689	-0.023392
 677	3.3800e-01	12.9798	49.260266	0.000111	1.111355	0.376537	-0.008873
 678	3.3850e-01	12.9397	49.090876	0.000424	4.243354	1.437687	-0.033878
 679	3.3900e-01	12.8996	49.211869	-0.000303	-3.030967	-1.026919	0.024199
 680	3.3950e-01	12.8547	48.965850	0.000616	6.162967	2.088070	-0.049204
 681	3.4000e-01	12.8339	48.945685	0.000051	0.505161	0.171153	-0.004033
 682	3.4050e-01	12.7825	48.808559	0.000344	3.435096	1.163842	-0.027425
 683	3.4100e-01	12.7504	48.768228	0.000101	1.010322	0.342306	-0.008066
 684	3.4150e-01	12.7087	48.651268	0.000293	2.929935	0.992689	-0.023392
 685	3.4200e-01	12.6606	48.590772	0.000152	1.515484	0.513460	-0.012099
 686	3.4250e-01	12.6253	48.498011	0.000232	2.323742	0.787305	-0.018552
 687	3.4300e-01	12.5820	48.413316	0.000212	2.121677	0.718844	-0.016939
 688	3.4350e-01	12.5611	48.336687	0.000192	1.919613	0.650382	-0.015326
 689	3.4400e-01	12.5034	48.264091	0.000182	1.818580	0.616152	-0.014519
 690	3.4450e-01	12.4665	48.159230	0.000263	2.626838	0.889997	-0.020972
 691	3.4500e-01	12.4312	48.074535	0.000212	2.121677	0.718844	-0.016939
 692	3.4550e-01	12.3831	47.989840	0.000212	2.121677	0.718844	-0.016939
 693	3.4600e-01	12.3510	47.893046	0.000242	2.424774	0.821536	-0.019359
 694	3.4650e-01	12.3029	47.772053	0.000303	3.030967	1.026919	-0.024199
 695	3.4700e-01	12.2660	47.695424	0.000192	1.919613	0.650382	-0.015326
 696	3.4750e-01	12.2323	47.614762	0.000202	2.020645	0.684613	-0.016132
 697	3.4800e-01	12.1858	47.501835	0.000283	2.828903	0.958458	-0.022585
 698	3.4850e-01	12.1473	47.485703	0.000040	0.404129	0.136923	-0.003226
 699	3.4900e-01	12.1120	47.372776	0.000283	2.828903	0.958458	-0.022585
 700	3.4950e-01	12.0702	47.235651	0.000344	3.435096	1.163842	-0.027425
 701	3.5000e-01	12.0189	47.138856	0.000242	2.424774	0.821536	-0.019359
 702	3.5050e-01	11.9836	47.090459	0.000121	1.212387	0.410768	-0.009679
 703	3.5100e-01	11.9419	46.945268	0.000364	3.637161	1.232303	-0.029038
 704	3.5150e-01	11.9018	46.917036	0.000071	0.707226	0.239615	-0.005646
 705	3.5200e-01	11.8601	46.848473	0.000172	1.717548	0.581921	-0.013713
 706	3.5250e-01	11.8312	46.743613	0.000263	2.626838	0.889997	-0.020972
 707	3.5300e-01	11.7879	46.622620	0.000303	3.030967	1.026919	-0.024199
 708	3.5350e-01	11.7430	46.566156	0.000141	1.414451	0.479229	-0.011293
 709	3.5400e-01	11.7141	46.453230	0.000283	2.828903	0.958458	-0.022585
 710	3.5450e-01	11.6628	46.356435	0.000242	2.424774	0.821536	-0.019359
 711	3.5500e-01	11.6291	46.243509	0.000283	2.828903	0.958458	-0.022585
 712	3.5550e-01	11.5858	46.146714	0.000242	2.424774	0.821536	-0.019359
 713	3.5600e-01	11.5457	46.110416	0.000091	0.909290	0.308076	-0.007260
 714	3.5650e-01	11.5056	46.017655	0.000232	2.323742	0.787305	-0.018552
 715	3.5700e-01	11.4655	45.852298	0.000414	4.142322	1.403457	-0.033071
 716	3.5750e-01	11.4109	45.844232	0.000020	0.202064	0.068461	-0.001613
 717	3.5800e-01	11.3852	45.759537	0.000212	2.121677	0.718844	-0.016939
 718	3.5850e-01	11.3499	45.650643	0.000273	2.727871	0.924228	-0.021779
 719	3.5900e-01	11.3082	45.497385	0.000384	3.839225	1.300765	-0.030652
 720	3.5950e-01	11.2601	45.440922	0.000141	1.414451	0.479229	-0.011293
 721	3.6000e-01	11.2393	45.319929	0.000303	3.030967	1.026919	-0.024199
 722	3.6050e-01	11.1911	45.182804	0.000344	3.435096	1.163842	-0.027425
 723	3.6100e-01	11.1446	45.086009	0.000242	2.424774	0.821536	-0.019359
 724	3.6150e-01	11.1045	44.973083	0.000283	2.828903	0.958458	-0.022585
 725	3.6200e-01	11.0660	44.920652	0.000131	1.313419	0.444998	-0.010486
 726	3.6250e-01	11.0291	44.831924	0.000222	2.222709	0.753074	-0.017746
 727	3.6300e-01	10.9858	44.735130	0.000242	2.424774	0.821536	-0.019359
 728	3.6350e-01	10.9473	44.646402	0.000222	2.222709	0.753074	-0.017746
 729	3.6400e-01	10.8992	44.618170	0.000071	0.707226	0.239615	-0.005646
 730	3.6450e-01	10.8735	44.456846	0.000404	4.041290	1.369226	-0.032265
 731	3.6500e-01	10.8238	44.408449	0.000121	1.212387	0.410768	-0.009679
 732	3.6550e-01	10.7885	44.311654	0.000242	2.424774	0.821536	-0.019359
 733	3.6600e-01	10.7468	44.178562	0.000333	3.334064	1.129611	-0.026618
 734	3.6650e-01	10.7034	44.069668	0.000273	2.727871	0.924228	-0.021779
 735	3.6700e-01	10.6665	43.993040	0.000192	1.919613	0.650382	-0.015326
 736	3.6750e-01	10.6184	43.892212	0.000253	2.525806	0.855766	-0.020165
 737	3.6800e-01	10.5799	43.783318	0.000273	2.727871	0.924228	-0.021779
 738	3.6850e-01	10.5510	43.666359	0.000293	2.929935	0.992689	-0.023392
 739	3.6900e-01	10.5125	43.605862	0.000152	1.515484	0.513460	-0.012099
 740	3.6950e-01	10.4692	43.472770	0.000333	3.334064	1.129611	-0.026618
 741	3.7000e-01	10.4259	43.436472	0.000091	0.909290	0.308076	-0.007260
 742	3.7050e-01	10.3778	43.315479	0.000303	3.030967	1.026919	-0.024199
 743	3.7100e-01	10.3457	43.186420	0.000323	3.233032	1.095381	-0.025812
 744	3.7150e-01	10.3104	43.125923	0.000152	1.515484	0.513460	-0.012099
 745	3.7200e-01	10.2607	42.972666	0.000384	3.839225	1.300765	-0.030652
 746	3.7250e-01	10.2238	43.053328	-0.000202	-2.020645	-0.684613	0.016132
 747	3.7300e-01	10.1773	42.944434	0.000273	2.727871	0.924228	-0.021779
 748	3.7350e-01	10.1404	42.670183	0.000687	6.870192	2.327684	-0.054850
 749	3.7400e-01	10.1051	42.617753	0.000131	1.313419	0.444998	-0.010486
 750	3.7450e-01	10.0601	42.496760	0.000303	3.030967	1.026919	-0.024199
 751	3.7500e-01	10.0232	42.375767	0.000303	3.030967	1.026919	-0.024199
 752	3.7550e-01	9.9703	42.230575	0.000364	3.637161	1.232303	-0.029038
 753	3.7600e-01	9.9478	42.242675	-0.000030	-0.303097	-0.102692	0.002420
 754	3.7650e-01	9.9093	42.109583	0.000333	3.334064	1.129611	-0.026618
 755	3.7700e-01	9.8612	41.984556	0.000313	3.131999	1.061150	-0.025005
 756	3.7750e-01	9.8243	41.944225	0.000101	1.010322	0.342306	-0.008066
 757	3.7800e-01	9.7826	41.807100	0.000344	3.435096	1.163842	-0.027425
 758	3.7850e-01	9.7441	41.714339	0.000232	2.323742	0.787305	-0.018552
 759	3.7900e-01	9.7008	41.601412	0.000283	2.828903	0.958458	-0.022585
 760	3.7950e-01	9.6623	41.452187	0.000374	3.738193	1.266534	-0.029845
 761	3.8000e-01	9.6174	41.371525	0.000202	2.020645	0.684613	-0.016132
 762	3.8050e-01	9.5821	41.262632	0.000273	2.727871	0.924228	-0.021779
 763	3.8100e-01	9.5436	41.173904	0.000222	2.222709	0.753074	-0.017746
 764	3.8150e-01	9.4906	41.052911	0.000303	3.030967	1.026919	-0.024199
 765	3.8200e-01	9.4602	40.927885	0.000313	3.131999	1.061150	-0.025005
 766	3.8250e-01	9.4217	40.831090	0.000242	2.424774	0.821536	-0.019359
 767	3.8300e-01	9.3799	40.722197	0.000273	2.727871	0.924228	-0.021779
 768	3.8350e-01	9.3431	40.637502	0.000212	2.121677	0.718844	-0.016939
 769	3.8400e-01	9.2981	40.560873	0.000192	1.919613	0.650382	-0.015326
 770	3.8450e-01	9.2596	40.451979	0.000273	2.727871	0.924228	-0.021779
 771	3.8500e-01	9.2275	40.326953	0.000313	3.131999	1.061150	-0.025005
 772	3.8550e-01	9.1810	40.242258	0.000212	2.121677	0.718844	-0.016939
 773	3.8600e-01	9.1441	40.117232	0.000313	3.131999	1.061150	-0.025005
 774	3.8650e-01	9.1008	40.028504	0.000222	2.222709	0.753074	-0.017746
 775	3.8700e-01	9.0671	39.972040	0.000141	1.414451	0.479229	-0.011293
 776	3.8750e-01	9.0254	39.855080	0.000293	2.929935	0.992689	-0.023392
 777	3.8800e-01	8.9853	39.730054	0.000313	3.131999	1.061150	-0.025005
 778	3.8850e-01	8.9372	39.605028	0.000313	3.131999	1.061150	-0.025005
 779	3.8900e-01	8.8987	39.480002	0.000313	3.131999	1.061150	-0.025005
 780	3.8950e-01	8.8714	39.427572	0.000131	1.313419	0.444998	-0.010486
 781	3.9000e-01	8.8361	39.270281	0.000394	3.940257	1.334995	-0.031458
 782	3.9050e-01	8.7864	39.161387	0.000273	2.727871	0.924228	-0.021779
 783	3.9100e-01	8.7399	39.088792	0.000182	1.818580	0.616152	-0.014519
 784	3.9150e-01	8.7030	38.971832	0.000293	2.929935	0.992689	-0.023392
 785	3.9200e-01	8.6645	38.862938	0.000273	2.727871	0.924228	-0.021779
 786	3.9250e-01	8.6228	38.754044	0.000273	2.727871	0.924228	-0.021779
 787	3.9300e-01	8.5859	38.645151	0.000273	2.727871	0.924228	-0.021779
 788	3.9350e-01	8.5361	38.548356	0.000242	2.424774	0.821536	-0.019359
 789	3.9400e-01	8.5040	38.455595	0.000232	2.323742	0.787305	-0.018552
 790	3.9450e-01	8.4703	38.322503	0.000333	3.334064	1.129611	-0.026618
 791	3.9500e-01	8.4222	38.157146	0.000414	4.142322	1.403457	-0.033071
 792	3.9550e-01	8.3805	38.076484	0.000202	2.020645	0.684613	-0.016132
 793	3.9600e-01	8.3436	37.935325	0.000354	3.536128	1.198073	-0.028232
 794	3.9650e-01	8.3035	37.878862	0.000141	1.414451	0.479229	-0.011293
 795	3.9700e-01	8.2618	37.761902	0.000293	2.929935	0.992689	-0.023392
 796	3.9750e-01	8.2281	37.681240	0.000202	2.020645	0.684613	-0.016132
 797	3.9800e-01	8.1864	37.540082	0.000354	3.536128	1.198073	-0.028232
 798	3.9850e-01	8.1511	37.431188	0.000273	2.727871	0.924228	-0.021779
 799	3.9900e-01	8.1078	37.310195	0.000303	3.030967	1.026919	-0.024199
 800	3.9950e-01	8.0741	37.177103	0.000333	3.334064	1.129611	-0.026618
 801	4.0000e-01	8.0276	37.056110	0.000303	3.030967	1.026919	-0.024199
 802	4.0050e-01	7.9762	36.947216	0.000273	2.727871	0.924228	-0.021779
 803	4.0100e-01	7.9442	36.870587	0.000192	1.919613	0.650382	-0.015326
 804	4.0150e-01	7.9008	36.713297	0.000394	3.940257	1.334995	-0.031458
 805	4.0200e-01	7.8656	36.660866	0.000131	1.313419	0.444998	-0.010486
 806	4.0250e-01	7.8222	36.499542	0.000404	4.041290	1.369226	-0.032265
 807	4.0300e-01	7.7821	36.390649	0.000273	2.727871	0.924228	-0.021779
 808	4.0350e-01	7.7452	36.330152	0.000152	1.515484	0.513460	-0.012099
 809	4.0400e-01	7.7019	36.237391	0.000232	2.323742	0.787305	-0.018552
 810	4.0450e-01	7.6586	36.080100	0.000394	3.940257	1.334995	-0.031458
 811	4.0500e-01	7.6121	35.971206	0.000273	2.727871	0.924228	-0.021779
 812	4.0550e-01	7.5800	35.858280	0.000283	2.828903	0.958458	-0.022585
 813	4.0600e-01	7.5399	35.938942	-0.000202	-2.020645	-0.684613	0.016132
 814	4.0650e-01	7.5062	35.700989	0.000596	5.960902	2.019608	-0.047591
 815	4.0700e-01	7.4549	35.519499	0.000455	4.546451	1.540379	-0.036298
 816	4.0750e-01	7.4180	35.370275	0.000374	3.738193	1.266534	-0.029845
 817	4.0800e-01	7.3747	35.313811	0.000141	1.414451	0.479229	-0.011293
 818	4.0850e-01	7.3378	35.237182	0.000192	1.919613	0.650382	-0.015326
 819	4.0900e-01	7.3041	34.970998	0.000667	6.668128	2.259223	-0.053237
 820	4.0950e-01	7.2656	34.950832	0.000051	0.505161	0.171153	-0.004033
 821	4.1000e-01	7.2174	34.813707	0.000344	3.435096	1.163842	-0.027425
 822	4.1050e-01	7.1838	34.737078	0.000192	1.919613	0.650382	-0.015326
 823	4.1100e-01	7.1453	34.587854	0.000374	3.738193	1.266534	-0.029845
 824	4.1150e-01	7.1019	34.503159	0.000212	2.121677	0.718844	-0.016939
 825	4.1200e-01	7.0570	34.382166	0.000303	3.030967	1.026919	-0.024199
 826	4.1250e-01	7.0281	34.232941	0.000374	3.738193	1.266534	-0.029845
 827	4.1300e-01	6.9848	34.111948	0.000303	3.030967	1.026919	-0.024199
 828	4.1350e-01	6.9463	34.023220	0.000222	2.222709	0.753074	-0.017746
 829	4.1400e-01	6.8966	33.894161	0.000323	3.233032	1.095381	-0.025812
 830	4.1450e-01	6.8597	33.761068	0.000333	3.334064	1.129611	-0.026618
 831	4.1500e-01	6.8244	33.648142	0.000283	2.828903	0.958458	-0.022585
 832	4.1550e-01	6.7875	33.478751	0.000424	4.243354	1.437687	-0.033878
 833	4.1600e-01	6.7378	33.410189	0.000172	1.717548	0.581921	-0.013713
 834	4.1650e-01	6.7057	33.309361	0.000253	2.525806	0.855766	-0.020165
 835	4.1700e-01	6.6576	33.192401	0.000293	2.929935	0.992689	-0.023392
 836	4.1750e-01	6.6223	33.079475	0.000283	2.828903	0.958458	-0.022585
 837	4.1800e-01	6.5838	32.982680	0.000242	2.424774	0.821536	-0.019359
 838	4.1850e-01	6.5437	32.865721	0.000293	2.929935	0.992689	-0.023392
 839	4.1900e-01	6.5100	32.716496	0.000374	3.738193	1.266534	-0.029845
 840	4.1950e-01	6.4683	32.563238	0.000384	3.839225	1.300765	-0.030652
 841	4.2000e-01	6.4169	32.478543	0.000212	2.121677	0.718844	-0.016939
 842	4.2050e-01	6.3736	32.385782	0.000232	2.323742	0.787305	-0.018552
 843	4.2100e-01	6.3383	32.224458	0.000404	4.041290	1.369226	-0.032265
 844	4.2150e-01	6.3094	32.091366	0.000333	3.334064	1.129611	-0.026618
 845	4.2200e-01	6.2661	32.006671	0.000212	2.121677	0.718844	-0.016939
 846	4.2250e-01	6.2292	31.841313	0.000414	4.142322	1.403457	-0.033071
 847	4.2300e-01	6.1859	31.716287	0.000313	3.131999	1.061150	-0.025005
 848	4.2350e-01	6.1474	31.643692	0.000182	1.818580	0.616152	-0.014519
 849	4.2400e-01	6.1041	31.514632	0.000323	3.233032	1.095381	-0.025812
 850	4.2450e-01	6.0688	31.421871	0.000232	2.323742	0.787305	-0.018552
 851	4.2500e-01	6.0271	31.232316	0.000475	4.748515	1.608841	-0.037911
 852	4.2550e-01	5.9870	31.147621	0.000212	2.121677	0.718844	-0.016939
 853	4.2600e-01	5.9421	31.010495	0.000344	3.435096	1.163842	-0.027425
 854	4.2650e-01	5.9036	30.889502	0.000303	3.030967	1.026919	-0.024199
 855	4.2700e-01	5.8603	30.792708	0.000242	2.424774	0.821536	-0.019359
 856	4.2750e-01	5.8250	30.627351	0.000414	4.142322	1.403457	-0.033071
 857	4.2800e-01	5.7849	30.538623	0.000222	2.222709	0.753074	-0.017746
 858	4.2850e-01	5.7464	30.336968	0.000505	5.051612	1.711532	-0.040331
 859	4.2900e-01	5.6966	30.288571	0.000121	1.212387	0.410768	-0.009679
 860	4.2950e-01	5.6533	30.127247	0.000404	4.041290	1.369226	-0.032265
 861	4.3000e-01	5.6260	30.034485	0.000232	2.323742	0.787305	-0.018552
 862	4.3050e-01	5.5795	29.893327	0.000354	3.536128	1.198073	-0.028232
 863	4.3100e-01	5.5362	29.752168	0.000354	3.536128	1.198073	-0.028232
 864	4.3150e-01	5.5073	29.663440	0.000222	2.222709	0.753074	-0.017746
 865	4.3200e-01	5.4544	29.574712	0.000222	2.222709	0.753074	-0.017746
 866	4.3250e-01	5.4207	29.389190	0.000465	4.647483	1.574610	-0.037105
 867	4.3300e-01	5.3822	29.260130	0.000323	3.233032	1.095381	-0.025812
 868	4.3350e-01	5.3517	29.143171	0.000293	2.929935	0.992689	-0.023392
 869	4.3400e-01	5.3052	29.062509	0.000202	2.020645	0.684613	-0.016132
 870	4.3450e-01	5.2603	28.913284	0.000374	3.738193	1.266534	-0.029845
 871	4.3500e-01	5.2250	28.743894	0.000424	4.243354	1.437687	-0.033878
 872	4.3550e-01	5.1849	28.635000	0.000273	2.727871	0.924228	-0.021779
 873	4.3600e-01	5.1432	28.501908	0.000333	3.334064	1.129611	-0.026618
 874	4.3650e-01	5.1015	28.417213	0.000212	2.121677	0.718844	-0.016939
 875	4.3700e-01	5.0662	28.259922	0.000394	3.940257	1.334995	-0.031458
 876	4.3750e-01	5.0261	28.167161	0.000232	2.323742	0.787305	-0.018552
 877	4.3800e-01	4.9876	28.042135	0.000313	3.131999	1.061150	-0.025005
 878	4.3850e-01	4.9394	27.905009	0.000344	3.435096	1.163842	-0.027425
 879	4.3900e-01	4.9057	27.755785	0.000374	3.738193	1.266534	-0.029845
 880	4.3950e-01	4.8608	27.578328	0.000445	4.445419	1.506149	-0.035491
 881	4.4000e-01	4.8191	27.453302	0.000313	3.131999	1.061150	-0.025005
 882	4.4050e-01	4.7902	27.384740	0.000172	1.717548	0.581921	-0.013713
 883	4.4100e-01	4.7453	27.283912	0.000253	2.525806	0.855766	-0.020165
 884	4.4150e-01	4.7036	27.162919	0.000303	3.030967	1.026919	-0.024199
 885	4.4200e-01	4.6603	27.025794	0.000344	3.435096	1.163842	-0.027425
 886	4.4250e-01	4.6346	26.888668	0.000344	3.435096	1.163842	-0.027425
 887	4.4300e-01	4.5881	26.767675	0.000303	3.030967	1.026919	-0.024199
 888	4.4350e-01	4.5368	26.634583	0.000333	3.334064	1.129611	-0.026618
 889	4.4400e-01	4.5063	26.521656	0.000283	2.828903	0.958458	-0.022585
 890	4.4450e-01	4.4662	26.424862	0.000242	2.424774	0.821536	-0.019359
 891	4.4500e-01	4.4277	26.235306	0.000475	4.748515	1.608841	-0.037911
 892	4.4550e-01	4.3812	26.033651	0.000505	5.051612	1.711532	-0.040331
 893	4.4600e-01	4.3427	26.029618	0.000010	0.101032	0.034231	-0.000807
 894	4.4650e-01	4.3058	25.840063	0.000475	4.748515	1.608841	-0.037911
 895	4.4700e-01	4.2689	25.694871	0.000364	3.637161	1.232303	-0.029038
 896	4.4750e-01	4.2272	25.569845	0.000313	3.131999	1.061150	-0.025005
 897	4.4800e-01	4.1903	25.404488	0.000414	4.142322	1.403457	-0.033071
 898	4.4850e-01	4.1405	25.303661	0.000253	2.525806	0.855766	-0.020165
 899	4.4900e-01	4.1020	25.150403	0.000384	3.839225	1.300765	-0.030652
 900	4.4950e-01	4.0651	25.045542	0.000263	2.626838	0.889997	-0.020972
 901	4.5000e-01	4.0186	24.884218	0.000404	4.041290	1.369226	-0.032265
 902	4.5050e-01	3.9849	24.747093	0.000344	3.435096	1.163842	-0.027425
 903	4.5100e-01	3.9400	24.614001	0.000333	3.334064	1.129611	-0.026618
 904	4.5150e-01	3.8967	24.517206	0.000242	2.424774	0.821536	-0.019359
 905	4.5200e-01	3.8614	24.363949	0.000384	3.839225	1.300765	-0.030652
 906	4.5250e-01	3.8261	24.267154	0.000242	2.424774	0.821536	-0.019359
 907	4.5300e-01	3.7828	24.134062	0.000333	3.334064	1.129611	-0.026618
 908	4.5350e-01	3.7427	24.005003	0.000323	3.233032	1.095381	-0.025812
 909	4.5400e-01	3.7042	23.815447	0.000475	4.748515	1.608841	-0.037911
 910	4.5450e-01	3.6641	23.678322	0.000344	3.435096	1.163842	-0.027425
 911	4.5500e-01	3.6224	23.617825	0.000152	1.515484	0.513460	-0.012099
 912	4.5550e-01	3.5758	23.440369	0.000445	4.445419	1.506149	-0.035491
 913	4.5600e-01	3.5373	23.355674	0.000212	2.121677	0.718844	-0.016939
 914	4.5650e-01	3.5036	23.145953	0.000525	5.253677	1.779994	-0.041944
 915	4.5700e-01	3.4635	23.028993	0.000293	2.929935	0.992689	-0.023392
 916	4.5750e-01	3.4202	22.895901	0.000333	3.334064	1.129611	-0.026618
 917	4.5800e-01	3.3785	22.750709	0.000364	3.637161	1.232303	-0.029038
 918	4.5850e-01	3.3400	22.661981	0.000222	2.222709	0.753074	-0.017746
 919	4.5900e-01	3.2999	22.484525	0.000445	4.445419	1.506149	-0.035491
 920	4.5950e-01	3.2630	22.327234	0.000394	3.940257	1.334995	-0.031458
 921	4.6000e-01	3.2309	22.266737	0.000152	1.515484	0.513460	-0.012099
 922	4.6050e-01	3.1908	22.081215	0.000465	4.647483	1.574610	-0.037105
 923	4.6100e-01	3.1475	21.903759	0.000445	4.445419	1.506149	-0.035491
 924	4.6150e-01	3.1026	21.819063	0.000212	2.121677	0.718844	-0.016939
 925	4.6200e-01	3.0641	21.698070	0.000303	3.030967	1.026919	-0.024199
 926	4.6250e-01	3.0240	21.544813	0.000384	3.839225	1.300765	-0.030652
 927	4.6300e-01	2.9742	21.411720	0.000333	3.334064	1.129611	-0.026618
 928	4.6350e-01	2.9470	21.234264	0.000445	4.445419	1.506149	-0.035491
 929	4.6400e-01	2.9021	21.117304	0.000293	2.929935	0.992689	-0.023392
 930	4.6450e-01	2.8571	20.951947	0.000414	4.142322	1.403457	-0.033071
 931	4.6500e-01	2.8267	20.843054	0.000273	2.727871	0.924228	-0.021779
 932	4.6550e-01	2.7849	20.705928	0.000344	3.435096	1.163842	-0.027425
 933	4.6600e-01	2.7384	20.584935	0.000303	3.030967	1.026919	-0.024199
 934	4.6650e-01	2.6983	20.431678	0.000384	3.839225	1.300765	-0.030652
 935	4.6700e-01	2.6502	20.290519	0.000354	3.536128	1.198073	-0.028232
 936	4.6750e-01	2.6229	20.129195	0.000404	4.041290	1.369226	-0.032265
 937	4.6800e-01	2.5780	20.008202	0.000303	3.030967	1.026919	-0.024199
 938	4.6850e-01	2.5475	19.915441	0.000232	2.323742	0.787305	-0.018552
 939	4.6900e-01	2.5058	19.750084	0.000414	4.142322	1.403457	-0.033071
 940	4.6950e-01	2.4609	19.588760	0.000404	4.041290	1.369226	-0.032265
 941	4.7000e-01	2.4208	19.463734	0.000313	3.131999	1.061150	-0.025005
 942	4.7050e-01	2.3807	19.314509	0.000374	3.738193	1.266534	-0.029845
 943	4.7100e-01	2.3438	19.173351	0.000354	3.536128	1.198073	-0.028232
 944	4.7150e-01	2.3069	18.995894	0.000445	4.445419	1.506149	-0.035491
 945	4.7200e-01	2.2539	18.887001	0.000273	2.727871	0.924228	-0.021779
 946	4.7250e-01	2.2219	18.745842	0.000354	3.536128	1.198073	-0.028232
 947	4.7300e-01	2.1818	18.576452	0.000424	4.243354	1.437687	-0.033878
 948	4.7350e-01	2.1449	18.576452	-0.000000	-0.000000	-0.000000	0.000000
 949	4.7400e-01	2.1048	18.306235	0.000677	6.769160	2.293454	-0.054044
 950	4.7450e-01	2.0582	18.185242	0.000303	3.030967	1.026919	-0.024199
 951	4.7500e-01	2.0245	18.100547	0.000212	2.121677	0.718844	-0.016939
 952	4.7550e-01	1.9812	17.975520	0.000313	3.131999	1.061150	-0.025005
 953	4.7600e-01	1.9459	17.681104	0.000738	7.375354	2.498837	-0.058883
 954	4.7650e-01	1.9042	17.564144	0.000293	2.929935	0.992689	-0.023392
 955	4.7700e-01	1.8753	17.451218	0.000283	2.828903	0.958458	-0.022585
 956	4.7750e-01	1.8208	17.338291	0.000283	2.828903	0.958458	-0.022585
 957	4.7800e-01	1.7823	17.237463	0.000253	2.525806	0.855766	-0.020165
 958	4.7850e-01	1.7406	17.084206	0.000384	3.839225	1.300765	-0.030652
 959	4.7900e-01	1.6957	16.842220	0.000606	6.061934	2.053839	-0.048397
 960	4.7950e-01	1.6620	16.785756	0.000141	1.414451	0.479229	-0.011293
 961	4.8000e-01	1.6187	16.632499	0.000384	3.839225	1.300765	-0.030652
 962	4.8050e-01	1.5898	16.495373	0.000344	3.435096	1.163842	-0.027425
 963	4.8100e-01	1.5417	16.342116	0.000384	3.839225	1.300765	-0.030652
 964	4.8150e-01	1.4984	16.196924	0.000364	3.637161	1.232303	-0.029038
 965	4.8200e-01	1.4582	15.999302	0.000495	4.950580	1.677302	-0.039524
 966	4.8250e-01	1.4133	15.866210	0.000333	3.334064	1.129611	-0.026618
 967	4.8300e-01	1.3780	15.721018	0.000364	3.637161	1.232303	-0.029038
 968	4.8350e-01	1.3427	15.604058	0.000293	2.929935	0.992689	-0.023392
 969	4.8400e-01	1.3091	15.458867	0.000364	3.637161	1.232303	-0.029038
 970	4.8450e-01	1.2657	15.301576	0.000394	3.940257	1.334995	-0.031458
 971	4.8500e-01	1.2192	15.148318	0.000384	3.839225	1.300765	-0.030652
 972	4.8550e-01	1.1807	15.043458	0.000263	2.626838	0.889997	-0.020972
 973	4.8600e-01	1.1390	14.853902	0.000475	4.748515	1.608841	-0.037911
 974	4.8650e-01	1.1085	14.724843	0.000323	3.233032	1.095381	-0.025812
 975	4.8700e-01	1.0556	14.603850	0.000303	3.030967	1.026919	-0.024199
 976	4.8750e-01	1.0155	14.450592	0.000384	3.839225	1.300765	-0.030652
 977	4.8800e-01	0.9706	14.297335	0.000384	3.839225	1.300765	-0.030652
 978	4.8850e-01	0.9305	14.136011	0.000404	4.041290	1.369226	-0.032265
 979	4.8900e-01	0.8952	14.010985	0.000313	3.131999	1.061150	-0.025005
 980	4.8950e-01	0.8583	13.813363	0.000495	4.950580	1.677302	-0.039524
 981	4.9000e-01	0.8326	13.696403	0.000293	2.929935	0.992689	-0.023392
 982	4.9050e-01	0.7877	13.531046	0.000414	4.142322	1.403457	-0.033071
 983	4.9100e-01	0.7331	13.438285	0.000232	2.323742	0.787305	-0.018552
 984	4.9150e-01	0.7107	13.232597	0.000515	5.152644	1.745763	-0.041138
 985	4.9200e-01	0.6625	13.103537	0.000323	3.233032	1.095381	-0.025812
 986	4.9250e-01	0.6192	12.934147	0.000424	4.243354	1.437687	-0.033878
 987	4.9300e-01	0.5727	12.845419	0.000222	2.222709	0.753074	-0.017746
 988	4.9350e-01	0.5422	12.684095	0.000404	4.041290	1.369226	-0.032265
 989	4.9400e-01	0.5037	12.486473	0.000495	4.950580	1.677302	-0.039524
 990	4.9450e-01	0.4700	12.333216	0.000384	3.839225	1.300765	-0.030652
 991	4.9500e-01	0.4155	12.204156	0.000323	3.233032	1.095381	-0.025812
 992	4.9550e-01	0.3786	12.034766	0.000424	4.243354	1.437687	-0.033878
 993	4.9600e-01	0.3385	11.950071	0.000212	2.121677	0.718844	-0.016939
 994	4.9650e-01	0.3000	11.772615	0.000445	4.445419	1.506149	-0.035491
 995	4.9700e-01	0.2615	11.603225	0.000424	4.243354	1.437687	-0.033878
 996	4.9750e-01	0.2198	11.470132	0.000333	3.334064	1.129611	-0.026618
 997	4.9800e-01	0.1797	11.284610	0.000465	4.647483	1.574610	-0.037105
 998	4.9850e-01	0.1299	11.135385	0.000374	3.738193	1.266534	-0.029845
 999	4.9900e-01	0.0930	11.010359	0.000313	3.131999	1.061150	-0.025005
1000	4.9950e-01	0.0626	10.885333	0.000313	3.131999	1.061150	-0.025005
1001	5.0000e-01	0.0209	10.724009	0.000404	4.041290	1.369226	-0.032265
1002	5.0050e-01	-0.0144	10.550586	0.000434	4.344386	1.471918	-0.034685
1003	5.0100e-01	-0.0497	10.429593	0.000303	3.030967	1.026919	-0.024199
1004	5.0150e-01	-0.0914	10.288435	0.000354	3.536128	1.198073	-0.028232
1005	5.0200e-01	-0.1219	10.119044	0.000424	4.243354	1.437687	-0.033878
1006	5.0250e-01	-0.1749	9.961754	0.000394	3.940257	1.334995	-0.031458
1007	5.0300e-01	-0.2053	9.844794	0.000293	2.929935	0.992689	-0.023392
1008	5.0350e-01	-0.2519	9.683470	0.000404	4.041290	1.369226	-0.032265
1009	5.0400e-01	-0.2904	9.530212	0.000384	3.839225	1.300765	-0.030652
1010	5.0450e-01	-0.3208	9.372921	0.000394	3.940257	1.334995	-0.031458
1011	5.0500e-01	-0.3642	9.255961	0.000293	2.929935	0.992689	-0.023392
1012	5.0550e-01	-0.4059	9.062373	0.000485	4.849548	1.643071	-0.038718
1013	5.0600e-01	-0.4460	8.933313	0.000323	3.233032	1.095381	-0.025812
1014	5.0650e-01	-0.4909	8.796188	0.000344	3.435096	1.163842	-0.027425
1015	5.0700e-01	-0.5342	8.630831	0.000414	4.142322	1.403457	-0.033071
1016	5.0750e-01	-0.5631	8.465474	0.000414	4.142322	1.403457	-0.033071
1017	5.0800e-01	-0.6096	8.267852	0.000495	4.950580	1.677302	-0.039524
1018	5.0850e-01	-0.6577	8.142826	0.000313	3.131999	1.061150	-0.025005
1019	5.0900e-01	-0.6898	8.041999	0.000253	2.525806	0.855766	-0.020165
1020	5.0950e-01	-0.7251	7.800013	0.000606	6.061934	2.053839	-0.048397
1021	5.1000e-01	-0.7700	7.719351	0.000202	2.020645	0.684613	-0.016132
1022	5.1050e-01	-0.8133	7.541894	0.000445	4.445419	1.506149	-0.035491
1023	5.1100e-01	-0.8567	7.424935	0.000293	2.929935	0.992689	-0.023392
1024	5.1150e-01	-0.8903	7.328140	0.000242	2.424774	0.821536	-0.019359
1025	5.1200e-01	-0.9305	7.049856	0.000697	6.971225	2.361915	-0.055657
1026	5.1250e-01	-0.9738	6.985327	0.000162	1.616516	0.547690	-0.012906
1027	5.1300e-01	-1.0139	6.791738	0.000485	4.849548	1.643071	-0.038718
1028	5.1350e-01	-1.0540	6.626381	0.000414	4.142322	1.403457	-0.033071
1029	5.1400e-01	-1.0877	6.461024	0.000414	4.142322	1.403457	-0.033071
1030	5.1450e-01	-1.1310	6.400527	0.000152	1.515484	0.513460	-0.012099
1031	5.1500e-01	-1.1663	6.215005	0.000465	4.647483	1.574610	-0.037105
1032	5.1550e-01	-1.2112	5.989151	0.000566	5.657805	1.916916	-0.045171
1033	5.1600e-01	-1.2497	5.864125	0.000313	3.131999	1.061150	-0.025005
1034	5.1650e-01	-1.2882	5.722967	0.000354	3.536128	1.198073	-0.028232
1035	5.1700e-01	-1.3331	5.549544	0.000434	4.344386	1.471918	-0.034685
1036	5.1750e-01	-1.3764	5.396286	0.000384	3.839225	1.300765	-0.030652
1037	5.1800e-01	-1.4101	5.251094	0.000364	3.637161	1.232303	-0.029038
1038	5.1850e-01	-1.4534	5.113969	0.000344	3.435096	1.163842	-0.027425
1039	5.1900e-01	-1.4935	4.940546	0.000434	4.344386	1.471918	-0.034685
1040	5.1950e-01	-1.5272	4.791321	0.000374	3.738193	1.266534	-0.029845
1041	5.2000e-01	-1.5705	4.662262	0.000323	3.233032	1.095381	-0.025812
1042	5.2050e-01	-1.6171	4.480773	0.000455	4.546451	1.540379	-0.036298
1043	5.2100e-01	-1.6524	4.287184	0.000485	4.849548	1.643071	-0.038718
1044	5.2150e-01	-1.6941	4.113761	0.000434	4.344386	1.471918	-0.034685
1045	5.2200e-01	-1.7374	4.041165	0.000182	1.818580	0.616152	-0.014519
1046	5.2250e-01	-1.7647	3.867742	0.000434	4.344386	1.471918	-0.034685
1047	5.2300e-01	-1.8048	3.690285	0.000445	4.445419	1.506149	-0.035491
1048	5.2350e-01	-1.8497	3.492663	0.000495	4.950580	1.677302	-0.039524
1049	5.2400e-01	-1.8898	3.387803	0.000263	2.626838	0.889997	-0.020972
1050	5.2450e-01	-1.9267	3.222446	0.000414	4.142322	1.403457	-0.033071
1051	5.2500e-01	-1.9732	3.129685	0.000232	2.323742	0.787305	-0.018552
1052	5.2550e-01	-2.0101	2.923996	0.000515	5.152644	1.745763	-0.041138
1053	5.2600e-01	-2.0550	2.754606	0.000424	4.243354	1.437687	-0.033878
1054	5.2650e-01	-2.0887	2.569084	0.000465	4.647483	1.574610	-0.037105
1055	5.2700e-01	-2.1352	2.472289	0.000242	2.424774	0.821536	-0.019359
1056	5.2750e-01	-2.1657	2.302899	0.000424	4.243354	1.437687	-0.033878
1057	5.2800e-01	-2.2090	2.133509	0.000424	4.243354	1.437687	-0.033878
1058	5.2850e-01	-2.2491	1.972185	0.000404	4.041290	1.369226	-0.032265
1059	5.2900e-01	-2.2860	1.851192	0.000303	3.030967	1.026919	-0.024199
1060	5.2950e-01	-2.3406	1.697935	0.000384	3.839225	1.300765	-0.030652
1061	5.3000e-01	-2.3743	1.585008	0.000283	2.828903	0.958458	-0.022585
1062	5.3050e-01	-2.4047	1.351088	0.000586	5.859870	1.985378	-0.046784
1063	5.3100e-01	-2.4465	1.217996	0.000333	3.334064	1.129611	-0.026618
1064	5.3150e-01	-2.5010	1.076837	0.000354	3.536128	1.198073	-0.028232
1065	5.3200e-01	-2.5395	0.923580	0.000384	3.839225	1.300765	-0.030652
1066	5.3250e-01	-2.5716	0.782421	0.000354	3.536128	1.198073	-0.028232
1067	5.3300e-01	-2.6149	0.596899	0.000465	4.647483	1.574610	-0.037105
1068	5.3350e-01	-2.6502	0.367012	0.000576	5.758838	1.951147	-0.045977
1069	5.3400e-01	-2.6903	0.298449	0.000172	1.717548	0.581921	-0.013713
1070	5.3450e-01	-2.7368	0.129059	0.000424	4.243354	1.437687	-0.033878
1071	5.3500e-01	-2.7737	-0.008066	0.000344	3.435096	1.163842	-0.027425
1072	5.3550e-01	-2.8026	-0.197622	0.000475	4.748515	1.608841	-0.037911
1073	5.3600e-01	-2.8539	-0.383144	0.000465	4.647483	1.574610	-0.037105
1074	5.3650e-01	-2.8860	-0.540435	0.000394	3.940257	1.334995	-0.031458
1075	5.3700e-01	-2.9341	-0.629163	0.000222	2.222709	0.753074	-0.017746
1076	5.3750e-01	-2.9630	-0.855017	0.000566	5.657805	1.916916	-0.045171
1077	5.3800e-01	-3.0047	-0.996175	0.000354	3.536128	1.198073	-0.028232
1078	5.3850e-01	-3.0416	-1.153466	0.000394	3.940257	1.334995	-0.031458
1079	5.3900e-01	-3.0978	-1.246227	0.000232	2.323742	0.787305	-0.018552
1080	5.3950e-01	-3.1347	-1.427717	0.000455	4.546451	1.540379	-0.036298
1081	5.4000e-01	-3.1764	-1.585008	0.000394	3.940257	1.334995	-0.031458
1082	5.4050e-01	-3.2197	-1.851192	0.000667	6.668128	2.259223	-0.053237
1083	5.4100e-01	-3.2550	-1.879424	0.000071	0.707226	0.239615	-0.005646
1084	5.4150e-01	-3.2887	-1.980251	0.000253	2.525806	0.855766	-0.020165
1085	5.4200e-01	-3.3336	-2.161741	0.000455	4.546451	1.540379	-0.036298
1086	5.4250e-01	-3.3753	-2.351296	0.000475	4.748515	1.608841	-0.037911
1087	5.4300e-01	-3.4154	-2.516654	0.000414	4.142322	1.403457	-0.033071
1088	5.4350e-01	-3.4539	-2.730408	0.000535	5.354709	1.814224	-0.042751
1089	5.4400e-01	-3.4956	-2.827202	0.000242	2.424774	0.821536	-0.019359
1090	5.4450e-01	-3.5341	-3.032890	0.000515	5.152644	1.745763	-0.041138
1091	5.4500e-01	-3.5726	-3.210346	0.000445	4.445419	1.506149	-0.035491
1092	5.4550e-01	-3.6143	-3.347472	0.000344	3.435096	1.163842	-0.027425
1093	5.4600e-01	-3.6528	-3.448299	0.000253	2.525806	0.855766	-0.020165
1094	5.4650e-01	-3.6978	-3.581392	0.000333	3.334064	1.129611	-0.026618
1095	5.4700e-01	-3.7363	-3.807245	0.000566	5.657805	1.916916	-0.045171
1096	5.4750e-01	-3.7667	-3.920172	0.000283	2.828903	0.958458	-0.022585
1097	5.4800e-01	-3.8101	-4.166191	0.000616	6.162967	2.088070	-0.049204
1098	5.4850e-01	-3.8502	-4.250886	0.000212	2.121677	0.718844	-0.016939
1099	5.4900e-01	-3.8790	-4.375912	0.000313	3.131999	1.061150	-0.025005
1100	5.4950e-01	-3.9288	-4.585633	0.000525	5.253677	1.779994	-0.041944
1101	5.5000e-01	-3.9737	-4.718725	0.000333	3.334064	1.129611	-0.026618
1102	5.5050e-01	-4.0170	-4.811487	0.000232	2.323742	0.787305	-0.018552
1103	5.5100e-01	-4.0507	-4.988943	0.000445	4.445419	1.506149	-0.035491
1104	5.5150e-01	-4.0860	-5.182532	0.000485	4.849548	1.643071	-0.038718
1105	5.5200e-01	-4.1261	-5.307558	0.000313	3.131999	1.061150	-0.025005
1106	5.5250e-01	-4.1742	-5.509213	0.000505	5.051612	1.711532	-0.040331
1107	5.5300e-01	-4.2127	-5.622139	0.000283	2.828903	0.958458	-0.022585
1108	5.5350e-01	-4.2576	-5.819761	0.000495	4.950580	1.677302	-0.039524
1109	5.5400e-01	-4.2849	-5.993185	0.000434	4.344386	1.471918	-0.034685
1110	5.5450e-01	-4.3362	-6.126277	0.000333	3.334064	1.129611	-0.026618
1111	5.5500e-01	-4.3747	-6.303733	0.000445	4.445419	1.506149	-0.035491
1112	5.5550e-01	-4.4116	-6.461024	0.000394	3.940257	1.334995	-0.031458
1113	5.5600e-01	-4.4534	-6.586050	0.000313	3.131999	1.061150	-0.025005
1114	5.5650e-01	-4.4967	-6.735275	0.000374	3.738193	1.266534	-0.029845
1115	5.5700e-01	-4.5336	-6.880466	0.000364	3.637161	1.232303	-0.029038
1116	5.5750e-01	-4.5721	-7.009525	0.000323	3.233032	1.095381	-0.025812
1117	5.5800e-01	-4.6122	-7.259577	0.000626	6.263999	2.122300	-0.050010
1118	5.5850e-01	-4.6603	-7.360405	0.000253	2.525806	0.855766	-0.020165
1119	5.5900e-01	-4.6908	-7.489464	0.000323	3.233032	1.095381	-0.025812
1120	5.5950e-01	-4.7341	-7.687086	0.000495	4.950580	1.677302	-0.039524
1121	5.6000e-01	-4.7742	-7.824211	0.000344	3.435096	1.163842	-0.027425
1122	5.6050e-01	-4.8095	-7.985535	0.000404	4.041290	1.369226	-0.032265
1123	5.6100e-01	-4.8608	-8.138793	0.000384	3.839225	1.300765	-0.030652
1124	5.6150e-01	-4.8961	-8.271885	0.000333	3.334064	1.129611	-0.026618
1125	5.6200e-01	-4.9362	-8.441275	0.000424	4.243354	1.437687	-0.033878
1126	5.6250e-01	-4.9763	-8.554202	0.000283	2.828903	0.958458	-0.022585
1127	5.6300e-01	-5.0036	-8.727625	0.000434	4.344386	1.471918	-0.034685
1128	5.6350e-01	-5.0469	-8.921214	0.000485	4.849548	1.643071	-0.038718
1129	5.6400e-01	-5.0983	-9.018008	0.000242	2.424774	0.821536	-0.019359
1130	5.6450e-01	-5.1335	-9.159167	0.000354	3.536128	1.198073	-0.028232
1131	5.6500e-01	-5.1544	-9.340656	0.000455	4.546451	1.540379	-0.036298
1132	5.6550e-01	-5.2057	-9.457616	0.000293	2.929935	0.992689	-0.023392
1133	5.6600e-01	-5.2507	-9.659271	0.000505	5.051612	1.711532	-0.040331
1134	5.6650e-01	-5.2859	-9.788330	0.000323	3.233032	1.095381	-0.025812
1135	5.6700e-01	-5.3293	-9.965787	0.000445	4.445419	1.506149	-0.035491
1136	5.6750e-01	-5.3758	-10.098879	0.000333	3.334064	1.129611	-0.026618
1137	5.6800e-01	-5.4143	-10.227938	0.000323	3.233032	1.095381	-0.025812
1138	5.6850e-01	-5.4496	-10.348931	0.000303	3.030967	1.026919	-0.024199
1139	5.6900e-01	-5.4929	-10.518321	0.000424	4.243354	1.437687	-0.033878
1140	5.6950e-01	-5.5266	-10.707877	0.000475	4.748515	1.608841	-0.037911
1141	5.7000e-01	-5.5731	-10.857101	0.000374	3.738193	1.266534	-0.029845
1142	5.7050e-01	-5.6132	-11.034558	0.000445	4.445419	1.506149	-0.035491
1143	5.7100e-01	-5.6485	-11.167650	0.000333	3.334064	1.129611	-0.026618
1144	5.7150e-01	-5.6902	-11.320908	0.000384	3.839225	1.300765	-0.030652
1145	5.7200e-01	-5.7383	-11.462066	0.000354	3.536128	1.198073	-0.028232
1146	5.7250e-01	-5.7656	-11.619357	0.000394	3.940257	1.334995	-0.031458
1147	5.7300e-01	-5.8121	-11.768582	0.000374	3.738193	1.266534	-0.029845
1148	5.7350e-01	-5.8651	-11.958137	0.000475	4.748515	1.608841	-0.037911
1149	5.7400e-01	-5.8891	-12.131561	0.000434	4.344386	1.471918	-0.034685
1150	5.7450e-01	-5.9276	-12.123494	-0.000020	-0.202064	-0.068461	0.001613
1151	5.7500e-01	-5.9710	-12.345315	0.000556	5.556773	1.882686	-0.044364
1152	5.7550e-01	-6.0143	-12.474374	0.000323	3.233032	1.095381	-0.025812
1153	5.7600e-01	-6.0512	-12.659897	0.000465	4.647483	1.574610	-0.037105
1154	5.7650e-01	-6.0929	-12.805088	0.000364	3.637161	1.232303	-0.029038
1155	5.7700e-01	-6.1426	-12.970445	0.000414	4.142322	1.403457	-0.033071
1156	5.7750e-01	-6.1779	-13.127736	0.000394	3.940257	1.334995	-0.031458
1157	5.7800e-01	-6.2148	-13.272928	0.000364	3.637161	1.232303	-0.029038
1158	5.7850e-01	-6.2533	-13.414086	0.000354	3.536128	1.198073	-0.028232
1159	5.7900e-01	-6.2902	-13.583476	0.000424	4.243354	1.437687	-0.033878
1160	5.7950e-01	-6.3319	-13.740767	0.000394	3.940257	1.334995	-0.031458
1161	5.8000e-01	-6.3848	-13.885958	0.000364	3.637161	1.232303	-0.029038
1162	5.8050e-01	-6.4105	-14.015018	0.000323	3.233032	1.095381	-0.025812
1163	5.8100e-01	-6.4522	-14.148110	0.000333	3.334064	1.129611	-0.026618
1164	5.8150e-01	-6.4955	-14.321533	0.000434	4.344386	1.471918	-0.034685
1165	5.8200e-01	-6.5324	-14.470758	0.000374	3.738193	1.266534	-0.029845
1166	5.8250e-01	-6.5774	-14.688545	0.000546	5.455741	1.848455	-0.043557
1167	5.8300e-01	-6.6046	-14.829704	0.000354	3.536128	1.198073	-0.028232
1168	5.8350e-01	-6.6479	-14.890200	0.000152	1.515484	0.513460	-0.012099
1169	5.8400e-01	-6.7009	-15.023292	0.000333	3.334064	1.129611	-0.026618
1170	5.8450e-01	-6.7265	-15.184616	0.000404	4.041290	1.369226	-0.032265
1171	5.8500e-01	-6.7683	-15.402404	0.000546	5.455741	1.848455	-0.043557
1172	5.8550e-01	-6.8164	-15.543562	0.000354	3.536128	1.198073	-0.028232
1173	5.8600e-01	-6.8517	-15.656489	0.000283	2.828903	0.958458	-0.022585
1174	5.8650e-01	-6.8950	-15.773449	0.000293	2.929935	0.992689	-0.023392
1175	5.8700e-01	-6.9303	-15.910574	0.000344	3.435096	1.163842	-0.027425
1176	5.8750e-01	-6.9608	-16.071898	0.000404	4.041290	1.369226	-0.032265
1177	5.8800e-01	-7.0121	-16.225156	0.000384	3.839225	1.300765	-0.030652
1178	5.8850e-01	-7.0522	-16.398579	0.000434	4.344386	1.471918	-0.034685
1179	5.8900e-01	-7.0843	-16.531671	0.000333	3.334064	1.129611	-0.026618
1180	5.8950e-01	-7.1340	-16.640565	0.000273	2.727871	0.924228	-0.021779
1181	5.9000e-01	-7.1645	-16.850286	0.000525	5.253677	1.779994	-0.041944
1182	5.9050e-01	-7.2062	-16.955147	0.000263	2.626838	0.889997	-0.020972
1183	5.9100e-01	-7.2495	-17.088239	0.000333	3.334064	1.129611	-0.026618
1184	5.9150e-01	-7.2944	-17.229397	0.000354	3.536128	1.198073	-0.028232
1185	5.9200e-01	-7.3281	-17.354423	0.000313	3.131999	1.061150	-0.025005
1186	5.9250e-01	-7.3682	-17.576244	0.000556	5.556773	1.882686	-0.044364
1187	5.9300e-01	-7.4100	-17.685137	0.000273	2.727871	0.924228	-0.021779
1188	5.9350e-01	-7.4436	-17.814197	0.000323	3.233032	1.095381	-0.025812
1189	5.9400e-01	-7.4886	-17.991653	0.000445	4.445419	1.506149	-0.035491
1190	5.9450e-01	-7.5351	-18.132811	0.000354	3.536128	1.198073	-0.028232
1191	5.9500e-01	-7.5752	-18.257837	0.000313	3.131999	1.061150	-0.025005
1192	5.9550e-01	-7.5993	-18.390930	0.000333	3.334064	1.129611	-0.026618
1193	5.9600e-01	-7.6474	-18.560320	0.000424	4.243354	1.437687	-0.033878
1194	5.9650e-01	-7.6859	-18.705511	0.000364	3.637161	1.232303	-0.029038
1195	5.9700e-01	-7.7324	-18.846670	0.000354	3.536128	1.198073	-0.028232
1196	5.9750e-01	-7.7661	-18.983795	0.000344	3.435096	1.163842	-0.027425
1197	5.9800e-01	-7.7982	-19.149152	0.000414	4.142322	1.403457	-0.033071
1198	5.9850e-01	-7.8575	-19.274178	0.000313	3.131999	1.061150	-0.025005
1199	5.9900e-01	-7.8928	-19.435502	0.000404	4.041290	1.369226	-0.032265
1200	5.9950e-01	-7.9249	-19.536330	0.000253	2.525806	0.855766	-0.020165
1201	6.0000e-01	-7.9778	-19.725885	0.000475	4.748515	1.608841	-0.037911
1202	6.0050e-01	-8.0131	-19.863011	0.000344	3.435096	1.163842	-0.027425
1203	6.0100e-01	-8.0404	-19.984004	0.000303	3.030967	1.026919	-0.024199
1204	6.0150e-01	-8.0885	-20.149361	0.000414	4.142322	1.403457	-0.033071
1205	6.0200e-01	-8.1303	-20.286486	0.000344	3.435096	1.163842	-0.027425
1206	6.0250e-01	-8.1655	-20.375214	0.000222	2.222709	0.753074	-0.017746
1207	6.0300e-01	-8.2105	-20.508306	0.000333	3.334064	1.129611	-0.026618
1208	6.0350e-01	-8.2634	-20.689796	0.000455	4.546451	1.540379	-0.036298
1209	6.0400e-01	-8.2923	-20.839020	0.000374	3.738193	1.266534	-0.029845
1210	6.0450e-01	-8.3308	-21.016477	0.000445	4.445419	1.506149	-0.035491
1211	6.0500e-01	-8.3645	-21.169735	0.000384	3.839225	1.300765	-0.030652
1212	6.0550e-01	-8.4126	-21.306860	0.000344	3.435096	1.163842	-0.027425
1213	6.0600e-01	-8.4543	-21.460118	0.000384	3.839225	1.300765	-0.030652
1214	6.0650e-01	-8.5008	-21.540780	0.000202	2.020645	0.684613	-0.016132
1215	6.0700e-01	-8.5249	-21.714203	0.000434	4.344386	1.471918	-0.034685
1216	6.0750e-01	-8.5762	-21.927957	0.000535	5.354709	1.814224	-0.042751
1217	6.0800e-01	-8.5987	-21.968288	0.000101	1.010322	0.342306	-0.008066
1218	6.0850e-01	-8.6500	-22.121546	0.000384	3.839225	1.300765	-0.030652
1219	6.0900e-01	-8.6917	-22.270770	0.000374	3.738193	1.266534	-0.029845
1220	6.0950e-01	-8.7334	-22.379664	0.000273	2.727871	0.924228	-0.021779
1221	6.1000e-01	-8.7752	-22.528889	0.000374	3.738193	1.266534	-0.029845
1222	6.1050e-01	-8.8137	-22.750709	0.000556	5.556773	1.882686	-0.044364
1223	6.1100e-01	-8.8489	-22.770875	0.000051	0.505161	0.171153	-0.004033
1224	6.1150e-01	-8.8891	-22.972530	0.000505	5.051612	1.711532	-0.040331
1225	6.1200e-01	-8.9243	-23.069324	0.000242	2.424774	0.821536	-0.019359
1226	6.1250e-01	-8.9725	-23.214516	0.000364	3.637161	1.232303	-0.029038
1227	6.1300e-01	-9.0142	-23.400038	0.000465	4.647483	1.574610	-0.037105
1228	6.1350e-01	-9.0415	-23.561362	0.000404	4.041290	1.369226	-0.032265
1229	6.1400e-01	-9.0912	-23.674289	0.000283	2.828903	0.958458	-0.022585
1230	6.1450e-01	-9.1345	-23.775116	0.000253	2.525806	0.855766	-0.020165
1231	6.1500e-01	-9.1714	-23.916275	0.000354	3.536128	1.198073	-0.028232
1232	6.1550e-01	-9.2131	-24.045334	0.000323	3.233032	1.095381	-0.025812
1233	6.1600e-01	-9.2500	-24.214724	0.000424	4.243354	1.437687	-0.033878
1234	6.1650e-01	-9.2949	-24.343783	0.000323	3.233032	1.095381	-0.025812
1235	6.1700e-01	-9.3334	-24.480909	0.000344	3.435096	1.163842	-0.027425
1236	6.1750e-01	-9.3671	-24.662398	0.000455	4.546451	1.540379	-0.036298
1237	6.1800e-01	-9.4008	-24.783391	0.000303	3.030967	1.026919	-0.024199
1238	6.1850e-01	-9.4473	-24.904384	0.000303	3.030967	1.026919	-0.024199
1239	6.1900e-01	-9.4874	-25.049575	0.000364	3.637161	1.232303	-0.029038
1240	6.1950e-01	-9.5324	-25.190734	0.000354	3.536128	1.198073	-0.028232
1241	6.2000e-01	-9.5805	-25.335925	0.000364	3.637161	1.232303	-0.029038
1242	6.2050e-01	-9.6094	-25.473051	0.000344	3.435096	1.163842	-0.027425
1243	6.2100e-01	-9.6495	-25.594044	0.000303	3.030967	1.026919	-0.024199
1244	6.2150e-01	-9.6896	-25.727136	0.000333	3.334064	1.129611	-0.026618
1245	6.2200e-01	-9.7329	-25.860228	0.000333	3.334064	1.129611	-0.026618
1246	6.2250e-01	-9.7794	-25.997354	0.000344	3.435096	1.163842	-0.027425
1247	6.2300e-01	-9.8131	-26.126413	0.000323	3.233032	1.095381	-0.025812
1248	6.2350e-01	-9.8452	-26.287737	0.000404	4.041290	1.369226	-0.032265
1249	6.2400e-01	-9.8853	-26.404697	0.000293	2.929935	0.992689	-0.023392
1250	6.2450e-01	-9.9254	-26.493425	0.000222	2.222709	0.753074	-0.017746
1251	6.2500e-01	-9.9671	-26.666848	0.000434	4.344386	1.471918	-0.034685
1252	6.2550e-01	-10.0120	-26.844304	0.000445	4.445419	1.506149	-0.035491
1253	6.2600e-01	-10.0489	-26.941099	0.000242	2.424774	0.821536	-0.019359
1254	6.2650e-01	-10.0874	-27.110489	0.000424	4.243354	1.437687	-0.033878
1255	6.2700e-01	-10.1243	-27.211316	0.000253	2.525806	0.855766	-0.020165
1256	6.2750e-01	-10.1660	-27.372640	0.000404	4.041290	1.369226	-0.032265
1257	6.2800e-01	-10.2190	-27.542030	0.000424	4.243354	1.437687	-0.033878
1258	6.2850e-01	-10.2623	-27.654957	0.000283	2.828903	0.958458	-0.022585
1259	6.2900e-01	-10.2879	-27.800149	0.000364	3.637161	1.232303	-0.029038
1260	6.2950e-01	-10.3281	-27.913075	0.000283	2.828903	0.958458	-0.022585
1261	6.3000e-01	-10.3714	-28.066333	0.000384	3.839225	1.300765	-0.030652
1262	6.3050e-01	-10.4147	-28.195392	0.000323	3.233032	1.095381	-0.025812
1263	6.3100e-01	-10.4500	-28.340584	0.000364	3.637161	1.232303	-0.029038
1264	6.3150e-01	-10.4917	-28.461577	0.000303	3.030967	1.026919	-0.024199
1265	6.3200e-01	-10.5302	-28.582570	0.000303	3.030967	1.026919	-0.024199
1266	6.3250e-01	-10.5687	-28.723728	0.000354	3.536128	1.198073	-0.028232
1267	6.3300e-01	-10.6040	-28.848754	0.000313	3.131999	1.061150	-0.025005
1268	6.3350e-01	-10.6505	-28.977813	0.000323	3.233032	1.095381	-0.025812
1269	6.3400e-01	-10.6890	-29.171402	0.000485	4.849548	1.643071	-0.038718
1270	6.3450e-01	-10.7291	-29.264163	0.000232	2.323742	0.787305	-0.018552
1271	6.3500e-01	-10.7837	-29.393223	0.000323	3.233032	1.095381	-0.025812
1272	6.3550e-01	-10.8077	-29.510182	0.000293	2.929935	0.992689	-0.023392
1273	6.3600e-01	-10.8446	-29.683606	0.000434	4.344386	1.471918	-0.034685
1274	6.3650e-01	-10.8943	-29.796532	0.000283	2.828903	0.958458	-0.022585
1275	6.3700e-01	-10.9280	-29.969956	0.000434	4.344386	1.471918	-0.034685
1276	6.3750e-01	-10.9746	-30.082882	0.000283	2.828903	0.958458	-0.022585
1277	6.3800e-01	-11.0131	-30.240173	0.000394	3.940257	1.334995	-0.031458
1278	6.3850e-01	-11.0516	-30.332935	0.000232	2.323742	0.787305	-0.018552
1279	6.3900e-01	-11.0901	-30.474093	0.000354	3.536128	1.198073	-0.028232
1280	6.3950e-01	-11.1302	-30.639450	0.000414	4.142322	1.403457	-0.033071
1281	6.4000e-01	-11.1655	-30.764476	0.000313	3.131999	1.061150	-0.025005
1282	6.4050e-01	-11.2072	-30.865304	0.000253	2.525806	0.855766	-0.020165
1283	6.4100e-01	-11.2473	-31.070992	0.000515	5.152644	1.745763	-0.041138
1284	6.4150e-01	-11.2826	-31.147621	0.000192	1.919613	0.650382	-0.015326
1285	6.4200e-01	-11.3227	-31.284746	0.000344	3.435096	1.163842	-0.027425
1286	6.4250e-01	-11.3676	-31.442037	0.000394	3.940257	1.334995	-0.031458
1287	6.4300e-01	-11.4061	-31.554963	0.000283	2.828903	0.958458	-0.022585
1288	6.4350e-01	-11.4510	-31.704188	0.000374	3.738193	1.266534	-0.029845
1289	6.4400e-01	-11.4975	-31.889711	0.000465	4.647483	1.574610	-0.037105
1290	6.4450e-01	-11.5376	-31.938108	0.000121	1.212387	0.410768	-0.009679
1291	6.4500e-01	-11.5745	-32.063134	0.000313	3.131999	1.061150	-0.025005
1292	6.4550e-01	-11.6146	-32.200259	0.000344	3.435096	1.163842	-0.027425
1293	6.4600e-01	-11.6515	-32.293021	0.000232	2.323742	0.787305	-0.018552
1294	6.4650e-01	-11.6965	-32.470477	0.000445	4.445419	1.506149	-0.035491
1295	6.4700e-01	-11.7334	-32.575337	0.000263	2.626838	0.889997	-0.020972
1296	6.4750e-01	-11.7670	-32.752794	0.000445	4.445419	1.506149	-0.035491
1297	6.4800e-01	-11.8088	-32.914118	0.000404	4.041290	1.369226	-0.032265
1298	6.4850e-01	-11.8489	-33.002846	0.000222	2.222709	0.753074	-0.017746
1299	6.4900e-01	-11.8954	-33.119806	0.000293	2.929935	0.992689	-0.023392
1300	6.4950e-01	-11.9259	-33.281130	0.000404	4.041290	1.369226	-0.032265
1301	6.5000e-01	-11.9756	-33.410189	0.000323	3.233032	1.095381	-0.025812
1302	6.5050e-01	-12.0077	-33.547314	0.000344	3.435096	1.163842	-0.027425
1303	6.5100e-01	-12.0526	-33.591678	0.000111	1.111355	0.376537	-0.008873
1304	6.5150e-01	-12.0943	-33.769135	0.000445	4.445419	1.506149	-0.035491
1305	6.5200e-01	-12.1360	-33.922392	0.000384	3.839225	1.300765	-0.030652
1306	6.5250e-01	-12.1665	-34.055485	0.000333	3.334064	1.129611	-0.026618
1307	6.5300e-01	-12.2178	-34.192610	0.000344	3.435096	1.163842	-0.027425
1308	6.5350e-01	-12.2499	-34.337801	0.000364	3.637161	1.232303	-0.029038
1309	6.5400e-01	-12.2932	-34.478960	0.000354	3.536128	1.198073	-0.028232
1310	6.5450e-01	-12.3333	-34.608019	0.000323	3.233032	1.095381	-0.025812
1311	6.5500e-01	-12.3686	-34.700780	0.000232	2.323742	0.787305	-0.018552
1312	6.5550e-01	-12.4071	-34.813707	0.000283	2.828903	0.958458	-0.022585
1313	6.5600e-01	-12.4537	-34.946799	0.000333	3.334064	1.129611	-0.026618
1314	6.5650e-01	-12.4906	-35.104090	0.000394	3.940257	1.334995	-0.031458
1315	6.5700e-01	-12.5291	-35.261381	0.000394	3.940257	1.334995	-0.031458
1316	6.5750e-01	-12.5740	-35.354142	0.000232	2.323742	0.787305	-0.018552
1317	6.5800e-01	-12.6141	-35.495301	0.000354	3.536128	1.198073	-0.028232
1318	6.5850e-01	-12.6526	-35.571930	0.000192	1.919613	0.650382	-0.015326
1319	6.5900e-01	-12.7007	-35.749386	0.000445	4.445419	1.506149	-0.035491
1320	6.5950e-01	-12.7328	-35.874412	0.000313	3.131999	1.061150	-0.025005
1321	6.6000e-01	-12.7777	-36.019604	0.000364	3.637161	1.232303	-0.029038
1322	6.6050e-01	-12.8098	-36.136563	0.000293	2.929935	0.992689	-0.023392
1323	6.6100e-01	-12.8531	-36.285788	0.000374	3.738193	1.266534	-0.029845
1324	6.6150e-01	-12.8900	-36.410814	0.000313	3.131999	1.061150	-0.025005
1325	6.6200e-01	-12.9349	-36.547940	0.000344	3.435096	1.163842	-0.027425
1326	6.6250e-01	-12.9702	-36.672966	0.000313	3.131999	1.061150	-0.025005
1327	6.6300e-01	-13.0119	-36.810091	0.000344	3.435096	1.163842	-0.027425
1328	6.6350e-01	-13.0504	-36.959316	0.000374	3.738193	1.266534	-0.029845
1329	6.6400e-01	-13.0937	-37.076275	0.000293	2.929935	0.992689	-0.023392
1330	6.6450e-01	-13.1306	-37.152904	0.000192	1.919613	0.650382	-0.015326
1331	6.6500e-01	-13.1708	-37.277930	0.000313	3.131999	1.061150	-0.025005
1332	6.6550e-01	-13.2173	-37.439254	0.000404	4.041290	1.369226	-0.032265
1333	6.6600e-01	-13.2526	-37.568313	0.000323	3.233032	1.095381	-0.025812
1334	6.6650e-01	-13.2895	-37.729637	0.000404	4.041290	1.369226	-0.032265
1335	6.6700e-01	-13.3296	-37.794167	0.000162	1.616516	0.547690	-0.012906
1336	6.6750e-01	-13.3681	-38.020021	0.000566	5.657805	1.916916	-0.045171
1337	6.6800e-01	-13.4114	-38.116815	0.000242	2.424774	0.821536	-0.019359
1338	6.6850e-01	-13.4515	-38.185378	0.000172	1.717548	0.581921	-0.013713
1339	6.6900e-01	-13.4980	-38.407198	0.000556	5.556773	1.882686	-0.044364
1340	6.6950e-01	-13.5349	-38.471728	0.000162	1.616516	0.547690	-0.012906
1341	6.7000e-01	-13.5718	-38.592721	0.000303	3.030967	1.026919	-0.024199
1342	6.7050e-01	-13.6119	-38.721780	0.000323	3.233032	1.095381	-0.025812
1343	6.7100e-01	-13.6424	-38.875037	0.000384	3.839225	1.300765	-0.030652
1344	6.7150e-01	-13.6873	-39.028295	0.000384	3.839225	1.300765	-0.030652
1345	6.7200e-01	-13.7274	-39.084759	0.000141	1.414451	0.479229	-0.011293
1346	6.7250e-01	-13.7707	-39.233983	0.000374	3.738193	1.266534	-0.029845
1347	6.7300e-01	-13.8205	-39.379175	0.000364	3.637161	1.232303	-0.029038
1348	6.7350e-01	-13.8526	-39.508234	0.000323	3.233032	1.095381	-0.025812
1349	6.7400e-01	-13.8927	-39.621161	0.000283	2.828903	0.958458	-0.022585
1350	6.7450e-01	-13.9312	-39.883312	0.000657	6.567096	2.224992	-0.052430
1351	6.7500e-01	-13.9729	-39.943809	0.000152	1.515484	0.513460	-0.012099
1352	6.7550e-01	-14.0066	-40.004305	0.000152	1.515484	0.513460	-0.012099
1353	6.7600e-01	-14.0547	-40.157563	0.000384	3.839225	1.300765	-0.030652
1354	6.7650e-01	-14.0916	-40.230159	0.000182	1.818580	0.616152	-0.014519
1355	6.7700e-01	-14.1381	-40.367284	0.000344	3.435096	1.163842	-0.027425
1356	6.7750e-01	-14.1750	-40.504409	0.000344	3.435096	1.163842	-0.027425
1357	6.7800e-01	-14.2103	-40.702031	0.000495	4.950580	1.677302	-0.039524
1358	6.7850e-01	-14.2488	-40.766561	0.000162	1.616516	0.547690	-0.012906
1359	6.7900e-01	-14.2921	-40.907719	0.000354	3.536128	1.198073	-0.028232
1360	6.7950e-01	-14.3322	-41.052911	0.000364	3.637161	1.232303	-0.029038
1361	6.8000e-01	-14.3771	-41.190036	0.000344	3.435096	1.163842	-0.027425
1362	6.8050e-01	-14.4156	-41.302963	0.000283	2.828903	0.958458	-0.022585
1363	6.8100e-01	-14.4525	-41.432022	0.000323	3.233032	1.095381	-0.025812
1364	6.8150e-01	-14.4942	-41.548982	0.000293	2.929935	0.992689	-0.023392
1365	6.8200e-01	-14.5360	-41.690140	0.000354	3.536128	1.198073	-0.028232
1366	6.8250e-01	-14.5745	-41.823233	0.000333	3.334064	1.129611	-0.026618
1367	6.8300e-01	-14.6162	-41.903894	0.000202	2.020645	0.684613	-0.016132
1368	6.8350e-01	-14.6595	-42.053119	0.000374	3.738193	1.266534	-0.029845
1369	6.8400e-01	-14.6916	-42.182178	0.000323	3.233032	1.095381	-0.025812
1370	6.8450e-01	-14.7269	-42.303171	0.000303	3.030967	1.026919	-0.024199
1371	6.8500e-01	-14.7702	-42.432230	0.000323	3.233032	1.095381	-0.025812
1372	6.8550e-01	-14.8071	-42.529025	0.000242	2.424774	0.821536	-0.019359
1373	6.8600e-01	-14.8504	-42.670183	0.000354	3.536128	1.198073	-0.028232
1374	6.8650e-01	-14.8905	-42.867805	0.000495	4.950580	1.677302	-0.039524
1375	6.8700e-01	-14.9306	-42.940401	0.000182	1.818580	0.616152	-0.014519
1376	6.8750e-01	-14.9691	-43.117857	0.000445	4.445419	1.506149	-0.035491
1377	6.8800e-01	-15.0108	-43.202552	0.000212	2.121677	0.718844	-0.016939
1378	6.8850e-01	-15.0477	-43.335644	0.000333	3.334064	1.129611	-0.026618
1379	6.8900e-01	-15.0878	-43.456637	0.000303	3.030967	1.026919	-0.024199
1380	6.8950e-01	-15.1279	-43.549399	0.000232	2.323742	0.787305	-0.018552
1381	6.9000e-01	-15.1712	-43.678458	0.000323	3.233032	1.095381	-0.025812
1382	6.9050e-01	-15.2129	-43.815583	0.000344	3.435096	1.163842	-0.027425
1383	6.9100e-01	-15.2482	-43.936576	0.000303	3.030967	1.026919	-0.024199
1384	6.9150e-01	-15.2964	-44.081768	0.000364	3.637161	1.232303	-0.029038
1385	6.9200e-01	-15.3381	-44.202761	0.000303	3.030967	1.026919	-0.024199
1386	6.9250e-01	-15.3686	-44.319721	0.000293	2.929935	0.992689	-0.023392
1387	6.9300e-01	-15.4135	-44.456846	0.000344	3.435096	1.163842	-0.027425
1388	6.9350e-01	-15.4504	-44.593971	0.000344	3.435096	1.163842	-0.027425
1389	6.9400e-01	-15.4921	-44.698832	0.000263	2.626838	0.889997	-0.020972
1390	6.9450e-01	-15.5306	-44.860156	0.000404	4.041290	1.369226	-0.032265
1391	6.9500e-01	-15.5627	-44.985182	0.000313	3.131999	1.061150	-0.025005
1392	6.9550e-01	-15.6140	-45.110208	0.000313	3.131999	1.061150	-0.025005
1393	6.9600e-01	-15.6525	-45.190870	0.000202	2.020645	0.684613	-0.016132
1394	6.9650e-01	-15.6926	-45.319929	0.000323	3.233032	1.095381	-0.025812
1395	6.9700e-01	-15.7311	-45.465121	0.000364	3.637161	1.232303	-0.029038
1396	6.9750e-01	-15.7760	-45.598213	0.000333	3.334064	1.129611	-0.026618
1397	6.9800e-01	-15.8193	-45.747437	0.000374	3.738193	1.266534	-0.029845
1398	6.9850e-01	-15.8643	-45.856331	0.000273	2.727871	0.924228	-0.021779
1399	6.9900e-01	-15.8819	-45.969258	0.000283	2.828903	0.958458	-0.022585
1400	6.9950e-01	-15.9364	-46.082185	0.000283	2.828903	0.958458	-0.022585
1401	7.0000e-01	-15.9750	-46.231409	0.000374	3.738193	1.266534	-0.029845
1402	7.0050e-01	-16.0054	-46.348369	0.000293	2.929935	0.992689	-0.023392
1403	7.0100e-01	-16.0503	-46.521792	0.000434	4.344386	1.471918	-0.034685
1404	7.0150e-01	-16.0921	-46.642785	0.000303	3.030967	1.026919	-0.024199
1405	7.0200e-01	-16.1338	-46.763778	0.000303	3.030967	1.026919	-0.024199
1406	7.0250e-01	-16.1675	-46.880738	0.000293	2.929935	0.992689	-0.023392
1407	7.0300e-01	-16.2060	-47.038029	0.000394	3.940257	1.334995	-0.031458
1408	7.0350e-01	-16.2525	-47.146923	0.000273	2.727871	0.924228	-0.021779
1409	7.0400e-01	-16.2910	-47.251783	0.000263	2.626838	0.889997	-0.020972
1410	7.0450e-01	-16.3311	-47.384875	0.000333	3.334064	1.129611	-0.026618
1411	7.0500e-01	-16.3648	-47.538133	0.000384	3.839225	1.300765	-0.030652
1412	7.0550e-01	-16.4081	-47.614762	0.000192	1.919613	0.650382	-0.015326
1413	7.0600e-01	-16.4530	-47.772053	0.000394	3.940257	1.334995	-0.031458
1414	7.0650e-01	-16.4883	-47.893046	0.000303	3.030967	1.026919	-0.024199
1415	7.0700e-01	-16.5300	-47.965642	0.000182	1.818580	0.616152	-0.014519
1416	7.0750e-01	-16.5765	-48.139065	0.000434	4.344386	1.471918	-0.034685
1417	7.0800e-01	-16.6054	-48.264091	0.000313	3.131999	1.061150	-0.025005
1418	7.0850e-01	-16.6535	-48.256025	-0.000020	-0.202064	-0.068461	0.001613
1419	7.0900e-01	-16.6872	-48.502044	0.000616	6.162967	2.088070	-0.049204
1420	7.0950e-01	-16.7257	-48.663368	0.000404	4.041290	1.369226	-0.032265
1421	7.1000e-01	-16.7771	-48.796460	0.000333	3.334064	1.129611	-0.026618
1422	7.1050e-01	-16.8059	-48.877122	0.000202	2.020645	0.684613	-0.016132
1423	7.1100e-01	-16.8573	-48.998115	0.000303	3.030967	1.026919	-0.024199
1424	7.1150e-01	-16.8894	-49.143306	0.000364	3.637161	1.232303	-0.029038
1425	7.1200e-01	-16.9343	-49.264299	0.000303	3.030967	1.026919	-0.024199
1426	7.1250e-01	-16.9632	-49.393359	0.000323	3.233032	1.095381	-0.025812
1427	7.1300e-01	-17.0129	-49.506285	0.000283	2.828903	0.958458	-0.022585
1428	7.1350e-01	-17.0450	-49.671642	0.000414	4.142322	1.403457	-0.033071
1429	7.1400e-01	-17.0883	-49.752304	0.000202	2.020645	0.684613	-0.016132
1430	7.1450e-01	-17.1364	-49.881364	0.000323	3.233032	1.095381	-0.025812
1431	7.1500e-01	-17.1749	-50.022522	0.000354	3.536128	1.198073	-0.028232
1432	7.1550e-01	-17.2150	-50.163680	0.000354	3.536128	1.198073	-0.028232
1433	7.1600e-01	-17.2487	-50.288706	0.000313	3.131999	1.061150	-0.025005
1434	7.1650e-01	-17.2936	-50.401633	0.000283	2.828903	0.958458	-0.022585
1435	7.1700e-01	-17.3273	-50.474229	0.000182	1.818580	0.616152	-0.014519
1436	7.1750e-01	-17.3674	-50.635553	0.000404	4.041290	1.369226	-0.032265
1437	7.1800e-01	-17.4059	-50.796877	0.000404	4.041290	1.369226	-0.032265
1438	7.1850e-01	-17.4508	-50.905771	0.000273	2.727871	0.924228	-0.021779
1439	7.1900e-01	-17.4942	-51.010631	0.000263	2.626838	0.889997	-0.020972
1440	7.1950e-01	-17.5262	-51.167922	0.000394	3.940257	1.334995	-0.031458
1441	7.2000e-01	-17.5712	-51.284882	0.000293	2.929935	0.992689	-0.023392
1442	7.2050e-01	-17.6065	-51.385709	0.000253	2.525806	0.855766	-0.020165
1443	7.2100e-01	-17.6594	-51.571232	0.000465	4.647483	1.574610	-0.037105
1444	7.2150e-01	-17.6851	-51.655927	0.000212	2.121677	0.718844	-0.016939
1445	7.2200e-01	-17.7332	-51.861615	0.000515	5.152644	1.745763	-0.041138
1446	7.2250e-01	-17.7733	-51.905979	0.000111	1.111355	0.376537	-0.008873
1447	7.2300e-01	-17.8054	-52.067303	0.000404	4.041290	1.369226	-0.032265
1448	7.2350e-01	-17.8519	-52.164097	0.000242	2.424774	0.821536	-0.019359
1449	7.2400e-01	-17.8968	-52.329454	0.000414	4.142322	1.403457	-0.033071
1450	7.2450e-01	-17.9305	-52.418183	0.000222	2.222709	0.753074	-0.017746
1451	7.2500e-01	-17.9722	-52.539175	0.000303	3.030967	1.026919	-0.024199
1452	7.2550e-01	-18.0107	-52.692433	0.000384	3.839225	1.300765	-0.030652
1453	7.2600e-01	-18.0556	-52.817459	0.000313	3.131999	1.061150	-0.025005
1454	7.2650e-01	-18.0990	-52.914254	0.000242	2.424774	0.821536	-0.019359
1455	7.2700e-01	-18.1359	-53.075578	0.000404	4.041290	1.369226	-0.032265
1456	7.2750e-01	-18.1615	-53.176405	0.000253	2.525806	0.855766	-0.020165
1457	7.2800e-01	-18.2096	-53.281266	0.000263	2.626838	0.889997	-0.020972
1458	7.2850e-01	-18.2578	-53.462755	0.000455	4.546451	1.540379	-0.036298
1459	7.2900e-01	-18.2995	-53.543417	0.000202	2.020645	0.684613	-0.016132
1460	7.2950e-01	-18.3332	-53.696675	0.000384	3.839225	1.300765	-0.030652
1461	7.3000e-01	-18.3701	-53.845899	0.000374	3.738193	1.266534	-0.029845
1462	7.3050e-01	-18.4214	-53.922528	0.000192	1.919613	0.650382	-0.015326
1463	7.3100e-01	-18.4503	-54.031422	0.000273	2.727871	0.924228	-0.021779
1464	7.3150e-01	-18.4872	-54.229044	0.000495	4.950580	1.677302	-0.039524
1465	7.3200e-01	-18.5353	-54.325838	0.000242	2.424774	0.821536	-0.019359
1466	7.3250e-01	-18.5658	-54.410533	0.000212	2.121677	0.718844	-0.016939
1467	7.3300e-01	-18.6059	-54.523460	0.000283	2.828903	0.958458	-0.022585
1468	7.3350e-01	-18.6476	-54.696883	0.000434	4.344386	1.471918	-0.034685
1469	7.3400e-01	-18.6925	-54.777545	0.000202	2.020645	0.684613	-0.016132
1470	7.3450e-01	-18.7278	-54.934836	0.000394	3.940257	1.334995	-0.031458
1471	7.3500e-01	-18.7695	-55.055829	0.000303	3.030967	1.026919	-0.024199
1472	7.3550e-01	-18.8080	-55.201021	0.000364	3.637161	1.232303	-0.029038
1473	7.3600e-01	-18.8497	-55.285716	0.000212	2.121677	0.718844	-0.016939
1474	7.3650e-01	-18.8882	-55.455106	0.000424	4.243354	1.437687	-0.033878
1475	7.3700e-01	-18.9428	-55.584165	0.000323	3.233032	1.095381	-0.025812
1476	7.3750e-01	-18.9733	-55.684992	0.000253	2.525806	0.855766	-0.020165
1477	7.3800e-01	-19.0182	-55.797919	0.000283	2.828903	0.958458	-0.022585
1478	7.3850e-01	-19.0631	-55.983442	0.000465	4.647483	1.574610	-0.037105
1479	7.3900e-01	-19.0904	-56.076203	0.000232	2.323742	0.787305	-0.018552
1480	7.3950e-01	-19.1321	-56.201229	0.000313	3.131999	1.061150	-0.025005
1481	7.4000e-01	-19.1754	-56.314156	0.000283	2.828903	0.958458	-0.022585
1482	7.4050e-01	-19.2059	-56.479513	0.000414	4.142322	1.403457	-0.033071
1483	7.4100e-01	-19.2652	-56.612605	0.000333	3.334064	1.129611	-0.026618
1484	7.4150e-01	-19.3037	-56.745697	0.000333	3.334064	1.129611	-0.026618
1485	7.4200e-01	-19.3326	-56.794095	0.000121	1.212387	0.410768	-0.009679
1486	7.4250e-01	-19.3775	-56.943319	0.000374	3.738193	1.266534	-0.029845
1487	7.4300e-01	-19.4064	-57.128842	0.000465	4.647483	1.574610	-0.037105
1488	7.4350e-01	-19.4561	-57.189338	0.000152	1.515484	0.513460	-0.012099
1489	7.4400e-01	-19.4882	-57.354695	0.000414	4.142322	1.403457	-0.033071
1490	7.4450e-01	-19.5251	-57.443423	0.000222	2.222709	0.753074	-0.017746
1491	7.4500e-01	-19.5716	-57.616847	0.000434	4.344386	1.471918	-0.034685
1492	7.4550e-01	-19.6085	-57.729773	0.000283	2.828903	0.958458	-0.022585
1493	7.4600e-01	-19.6519	-57.862866	0.000333	3.334064	1.129611	-0.026618
1494	7.4650e-01	-19.6920	-57.963693	0.000253	2.525806	0.855766	-0.020165
1495	7.4700e-01	-19.7337	-58.108885	0.000364	3.637161	1.232303	-0.029038
1496	7.4750e-01	-19.7738	-58.241977	0.000333	3.334064	1.129611	-0.026618
1497	7.4800e-01	-19.8043	-58.362970	0.000303	3.030967	1.026919	-0.024199
1498	7.4850e-01	-19.8540	-58.504128	0.000354	3.536128	1.198073	-0.028232
1499	7.4900e-01	-19.8909	-58.580757	0.000192	1.919613	0.650382	-0.015326
1500	7.4950e-01	-19.9422	-58.713849	0.000333	3.334064	1.129611	-0.026618
1501	7.5000e-01	-19.9743	-58.871140	0.000394	3.940257	1.334995	-0.031458
1502	7.5050e-01	-19.9711	-58.967935	-0.000242	-2.424774	-0.821536	-0.019359
1503	7.5100e-01	-19.9502	-59.096994	-0.000323	-3.233032	-1.095381	-0.025812
1504	7.5150e-01	-19.9069	-59.145391	-0.000121	-1.212387	-0.410768	-0.009679
1505	7.5200e-01	-19.8700	-59.217987	-0.000182	-1.818580	-0.616152	-0.014519
1506	7.5250e-01	-19.8331	-59.282516	-0.000162	-1.616516	-0.547690	-0.012906
1507	7.5300e-01	-19.7914	-59.298649	-0.000040	-0.404129	-0.136923	-0.003226
1508	7.5350e-01	-19.7481	-59.298649	0.000000	0.000000	0.000000	0.000000
1509	7.5400e-01	-19.7016	-59.355112	-0.000141	-1.414451	-0.479229	-0.011293
1510	7.5450e-01	-19.6711	-59.387377	-0.000081	-0.808258	-0.273845	-0.006453
1511	7.5500e-01	-19.6278	-59.403509	-0.000040	-0.404129	-0.136923	-0.003226
1512	7.5550e-01	-19.5877	-59.383344	0.000051	0.505161	0.171153	0.004033
1513	7.5600e-01	-19.5540	-59.375278	0.000020	0.202064	0.068461	0.001613
1514	7.5650e-01	-19.5043	-59.363178	0.000030	0.303097	0.102692	0.002420
1515	7.5700e-01	-19.4674	-59.395443	-0.000081	-0.808258	-0.273845	-0.006453
1516	7.5750e-01	-19.4224	-59.379311	0.000040	0.404129	0.136923	0.003226
1517	7.5800e-01	-19.4016	-59.399476	-0.000051	-0.505161	-0.171153	-0.004033
1518	7.5850e-01	-19.3519	-59.359145	0.000101	1.010322	0.342306	0.008066
1519	7.5900e-01	-19.3166	-59.367211	-0.000020	-0.202064	-0.068461	-0.001613
1520	7.5950e-01	-19.2700	-59.355112	0.000030	0.303097	0.102692	0.002420
1521	7.6000e-01	-19.2267	-59.334947	0.000051	0.505161	0.171153	0.004033
1522	7.6050e-01	-19.1866	-59.254285	0.000202	2.020645	0.684613	0.016132
1523	7.6100e-01	-19.1497	-59.302682	-0.000121	-1.212387	-0.410768	-0.009679
1524	7.6150e-01	-19.1064	-59.270417	0.000081	0.808258	0.273845	0.006453
1525	7.6200e-01	-19.0679	-59.222020	0.000121	1.212387	0.410768	0.009679
1526	7.6250e-01	-19.0406	-59.205887	0.000040	0.404129	0.136923	0.003226
1527	7.6300e-01	-18.9925	-59.217987	-0.000030	-0.303097	-0.102692	-0.002420
1528	7.6350e-01	-18.9588	-59.181689	0.000091	0.909290	0.308076	0.007260
1529	7.6400e-01	-18.9171	-59.177656	0.000010	0.101032	0.034231	0.000807
1530	7.6450e-01	-18.8706	-59.125226	0.000131	1.313419	0.444998	0.010486
1531	7.6500e-01	-18.8385	-59.068762	0.000141	1.414451	0.479229	0.011293
1532	7.6550e-01	-18.8016	-59.056663	0.000030	0.303097	0.102692	0.002420
1533	7.6600e-01	-18.7583	-59.088928	-0.000081	-0.808258	-0.273845	-0.006453
1534	7.6650e-01	-18.7054	-58.984067	0.000263	2.626838	0.889997	0.020972
1535	7.6700e-01	-18.6781	-58.935670	0.000121	1.212387	0.410768	0.009679
1536	7.6750e-01	-18.6251	-58.955835	-0.000051	-0.505161	-0.171153	-0.004033
1537	7.6800e-01	-18.5898	-58.887273	0.000172	1.717548	0.581921	0.013713
1538	7.6850e-01	-18.5481	-58.867107	0.000051	0.505161	0.171153	0.004033
1539	7.6900e-01	-18.5080	-58.834842	0.000081	0.808258	0.273845	0.006453
1540	7.6950e-01	-18.4727	-58.790478	0.000111	1.111355	0.376537	0.008873
1541	7.7000e-01	-18.4230	-58.806611	-0.000040	-0.404129	-0.136923	-0.003226
1542	7.7050e-01	-18.3973	-58.762247	0.000111	1.111355	0.376537	0.008873
1543	7.7100e-01	-18.3476	-58.701750	0.000152	1.515484	0.513460	0.012099
1544	7.7150e-01	-18.3155	-58.701750	0.000000	0.000000	0.000000	0.000000
1545	7.7200e-01	-18.2674	-58.661419	0.000101	1.010322	0.342306	0.008066
1546	7.7250e-01	-18.2337	-58.621088	0.000101	1.010322	0.342306	0.008066
1547	7.7300e-01	-18.1936	-58.592856	0.000071	0.707226	0.239615	0.005646
1548	7.7350e-01	-18.1471	-58.532360	0.000152	1.515484	0.513460	0.012099
1549	7.7400e-01	-18.1214	-58.508161	0.000061	0.606193	0.205384	0.004840
1550	7.7450e-01	-18.0765	-58.492029	0.000040	0.404129	0.136923	0.003226
1551	7.7500e-01	-18.0412	-58.395235	0.000242	2.424774	0.821536	0.019359
1552	7.7550e-01	-17.9834	-58.443632	-0.000121	-1.212387	-0.410768	-0.009679
1553	7.7600e-01	-17.9417	-58.362970	0.000202	2.020645	0.684613	0.016132
1554	7.7650e-01	-17.9113	-58.326672	0.000091	0.909290	0.308076	0.007260
1555	7.7700e-01	-17.8695	-58.233911	0.000232	2.323742	0.787305	0.018552
1556	7.7750e-01	-17.8278	-58.201646	0.000081	0.808258	0.273845	0.006453
1557	7.7800e-01	-17.7925	-58.165348	0.000091	0.909290	0.308076	0.007260
1558	7.7850e-01	-17.7524	-58.137116	0.000071	0.707226	0.239615	0.005646
1559	7.7900e-01	-17.7091	-58.084686	0.000131	1.313419	0.444998	0.010486
1560	7.7950e-01	-17.6706	-58.032256	0.000131	1.313419	0.444998	0.010486
1561	7.8000e-01	-17.6337	-57.979826	0.000131	1.313419	0.444998	0.010486
1562	7.8050e-01	-17.5952	-57.975792	0.000010	0.101032	0.034231	0.000807
1563	7.8100e-01	-17.5487	-57.931428	0.000111	1.111355	0.376537	0.008873
1564	7.8150e-01	-17.5006	-57.899164	0.000081	0.808258	0.273845	0.006453
1565	7.8200e-01	-17.4685	-57.778171	0.000303	3.030967	1.026919	0.024199
1566	7.8250e-01	-17.4364	-57.810435	-0.000081	-0.808258	-0.273845	-0.006453
1567	7.8300e-01	-17.3883	-57.766071	0.000111	1.111355	0.376537	0.008873
1568	7.8350e-01	-17.3578	-57.725740	0.000101	1.010322	0.342306	0.008066
1569	7.8400e-01	-17.3081	-57.665244	0.000152	1.515484	0.513460	0.012099
1570	7.8450e-01	-17.2744	-57.628946	0.000091	0.909290	0.308076	0.007260
1571	7.8500e-01	-17.2359	-57.540218	0.000222	2.222709	0.753074	0.017746
1572	7.8550e-01	-17.1958	-57.487787	0.000131	1.313419	0.444998	0.010486
1573	7.8600e-01	-17.1525	-57.459556	0.000071	0.707226	0.239615	0.005646
1574	7.8650e-01	-17.1156	-57.427291	0.000081	0.808258	0.273845	0.006453
1575	7.8700e-01	-17.0706	-57.346629	0.000202	2.020645	0.684613	0.016132
1576	7.8750e-01	-17.0353	-57.298232	0.000121	1.212387	0.410768	0.009679
1577	7.8800e-01	-16.9808	-57.314364	-0.000040	-0.404129	-0.136923	-0.003226
1578	7.8850e-01	-16.9551	-57.217570	0.000242	2.424774	0.821536	0.019359
1579	7.8900e-01	-16.9118	-57.136908	0.000202	2.020645	0.684613	0.016132
1580	7.8950e-01	-16.8669	-57.144974	-0.000020	-0.202064	-0.068461	-0.001613
1581	7.9000e-01	-16.8252	-57.116742	0.000071	0.707226	0.239615	0.005646
1582	7.9050e-01	-16.7915	-56.987683	0.000323	3.233032	1.095381	0.025812
1583	7.9100e-01	-16.7498	-56.955418	0.000081	0.808258	0.273845	0.006453
1584	7.9150e-01	-16.7049	-56.806194	0.000374	3.738193	1.266534	0.029845
1585	7.9200e-01	-16.6648	-56.939286	-0.000333	-3.334064	-1.129611	-0.026618
1586	7.9250e-01	-16.6263	-56.822326	0.000293	2.929935	0.992689	0.023392
1587	7.9300e-01	-16.5862	-56.737631	0.000212	2.121677	0.718844	0.016939
1588	7.9350e-01	-16.5493	-56.681168	0.000141	1.414451	0.479229	0.011293
1589	7.9400e-01	-16.5060	-56.620671	0.000152	1.515484	0.513460	0.012099
1590	7.9450e-01	-16.4755	-56.600506	0.000051	0.505161	0.171153	0.004033
1591	7.9500e-01	-16.4354	-56.503711	0.000242	2.424774	0.821536	0.019359
1592	7.9550e-01	-16.3937	-56.511778	-0.000020	-0.202064	-0.068461	-0.001613
1593	7.9600e-01	-16.3519	-56.439182	0.000182	1.818580	0.616152	0.014519
1594	7.9650e-01	-16.3118	-56.386752	0.000131	1.313419	0.444998	0.010486
1595	7.9700e-01	-16.2749	-56.298023	0.000222	2.222709	0.753074	0.017746
1596	7.9750e-01	-16.2332	-56.281891	0.000040	0.404129	0.136923	0.003226
1597	7.9800e-01	-16.1883	-56.201229	0.000202	2.020645	0.684613	0.016132
1598	7.9850e-01	-16.1418	-56.144766	0.000141	1.414451	0.479229	0.011293
1599	7.9900e-01	-16.1049	-56.076203	0.000172	1.717548	0.581921	0.013713
1600	7.9950e-01	-16.0616	-56.015706	0.000152	1.515484	0.513460	0.012099
1601	8.0000e-01	-16.0215	-55.975376	0.000101	1.010322	0.342306	0.008066
1602	8.0050e-01	-15.9878	-55.947144	0.000071	0.707226	0.239615	0.005646
1603	8.0100e-01	-15.9541	-55.918912	0.000071	0.707226	0.239615	0.005646
1604	8.0150e-01	-15.9028	-55.838250	0.000202	2.020645	0.684613	0.016132
1605	8.0200e-01	-15.8723	-55.793886	0.000111	1.111355	0.376537	0.008873
1606	8.0250e-01	-15.8354	-55.693059	0.000253	2.525806	0.855766	0.020165
1607	8.0300e-01	-15.7889	-55.648695	0.000111	1.111355	0.376537	0.008873
1608	8.0350e-01	-15.7552	-55.672893	-0.000061	-0.606193	-0.205384	-0.004840
1609	8.0400e-01	-15.7151	-55.499470	0.000434	4.344386	1.471918	0.034685
1610	8.0450e-01	-15.6750	-55.475271	0.000061	0.606193	0.205384	0.004840
1611	8.0500e-01	-15.6300	-55.402675	0.000182	1.818580	0.616152	0.014519
1612	8.0550e-01	-15.5867	-55.342179	0.000152	1.515484	0.513460	0.012099
1613	8.0600e-01	-15.5514	-55.261517	0.000202	2.020645	0.684613	0.016132
1614	8.0650e-01	-15.5097	-55.257484	0.000010	0.101032	0.034231	0.000807
1615	8.0700e-01	-15.4680	-55.188921	0.000172	1.717548	0.581921	0.013713
1616	8.0750e-01	-15.4295	-55.156656	0.000081	0.808258	0.273845	0.006453
1617	8.0800e-01	-15.3942	-55.067928	0.000222	2.222709	0.753074	0.017746
1618	8.0850e-01	-15.3509	-55.007432	0.000152	1.515484	0.513460	0.012099
1619	8.0900e-01	-15.3060	-55.067928	-0.000152	-1.515484	-0.513460	-0.012099
1620	8.0950e-01	-15.2675	-54.882406	0.000465	4.647483	1.574610	0.037105
1621	8.1000e-01	-15.2402	-54.838042	0.000111	1.111355	0.376537	0.008873
1622	8.1050e-01	-15.1905	-54.781578	0.000141	1.414451	0.479229	0.011293
1623	8.1100e-01	-15.1472	-54.708983	0.000182	1.818580	0.616152	0.014519
1624	8.1150e-01	-15.1087	-54.640420	0.000172	1.717548	0.581921	0.013713
1625	8.1200e-01	-15.0782	-54.636387	0.000010	0.101032	0.034231	0.000807
1626	8.1250e-01	-15.0252	-54.454897	0.000455	4.546451	1.540379	0.036298
1627	8.1300e-01	-14.9900	-54.454897	0.000000	0.000000	0.000000	0.000000
1628	8.1350e-01	-14.9531	-54.366169	0.000222	2.222709	0.753074	0.017746
1629	8.1400e-01	-14.9178	-54.313739	0.000131	1.313419	0.444998	0.010486
1630	8.1450e-01	-14.8728	-54.265342	0.000121	1.212387	0.410768	0.009679
1631	8.1500e-01	-14.8263	-54.140316	0.000313	3.131999	1.061150	0.025005
1632	8.1550e-01	-14.7862	-54.104018	0.000091	0.909290	0.308076	0.007260
1633	8.1600e-01	-14.7541	-54.051587	0.000131	1.313419	0.444998	0.010486
1634	8.1650e-01	-14.7140	-53.995124	0.000141	1.414451	0.479229	0.011293
1635	8.1700e-01	-14.6739	-53.886230	0.000273	2.727871	0.924228	0.021779
1636	8.1750e-01	-14.6290	-53.829767	0.000141	1.414451	0.479229	0.011293
1637	8.1800e-01	-14.5857	-53.805568	0.000061	0.606193	0.205384	0.004840
1638	8.1850e-01	-14.5504	-53.716840	0.000222	2.222709	0.753074	0.017746
1639	8.1900e-01	-14.5119	-53.664410	0.000131	1.313419	0.444998	0.010486
1640	8.1950e-01	-14.4750	-53.603914	0.000152	1.515484	0.513460	0.012099
1641	8.2000e-01	-14.4365	-53.539384	0.000162	1.616516	0.547690	0.012906
1642	8.2050e-01	-14.3884	-53.442590	0.000242	2.424774	0.821536	0.019359
1643	8.2100e-01	-14.3531	-53.369994	0.000182	1.818580	0.616152	0.014519
1644	8.2150e-01	-14.3178	-53.285299	0.000212	2.121677	0.718844	0.016939
1645	8.2200e-01	-14.2632	-53.269166	0.000040	0.404129	0.136923	0.003226
1646	8.2250e-01	-14.2231	-53.216736	0.000131	1.313419	0.444998	0.010486
1647	8.2300e-01	-14.1894	-53.128008	0.000222	2.222709	0.753074	0.017746
1648	8.2350e-01	-14.1558	-53.111875	0.000040	0.404129	0.136923	0.003226
1649	8.2400e-01	-14.0980	-52.986849	0.000313	3.131999	1.061150	0.025005
1650	8.2450e-01	-14.0691	-52.934419	0.000131	1.313419	0.444998	0.010486
1651	8.2500e-01	-14.0242	-52.857790	0.000192	1.919613	0.650382	0.015326
1652	8.2550e-01	-13.9937	-52.793261	0.000162	1.616516	0.547690	0.012906
1653	8.2600e-01	-13.9616	-52.688400	0.000263	2.626838	0.889997	0.020972
1654	8.2650e-01	-13.9055	-52.668235	0.000051	0.505161	0.171153	0.004033
1655	8.2700e-01	-13.8670	-52.547242	0.000303	3.030967	1.026919	0.024199
1656	8.2750e-01	-13.8317	-52.474646	0.000182	1.818580	0.616152	0.014519
1657	8.2800e-01	-13.7916	-52.446414	0.000071	0.707226	0.239615	0.005646
1658	8.2850e-01	-13.7531	-52.402050	0.000111	1.111355	0.376537	0.008873
1659	8.2900e-01	-13.7162	-52.313322	0.000222	2.222709	0.753074	0.017746
1660	8.2950e-01	-13.6713	-52.260892	0.000131	1.313419	0.444998	0.010486
1661	8.3000e-01	-13.6328	-52.196362	0.000162	1.616516	0.547690	0.012906
1662	8.3050e-01	-13.5911	-52.111667	0.000212	2.121677	0.718844	0.016939
1663	8.3100e-01	-13.5622	-52.014873	0.000242	2.424774	0.821536	0.019359
1664	8.3150e-01	-13.5060	-51.942277	0.000182	1.818580	0.616152	0.014519
1665	8.3200e-01	-13.4740	-51.893880	0.000121	1.212387	0.410768	0.009679
1666	8.3250e-01	-13.4290	-51.809185	0.000212	2.121677	0.718844	0.016939
1667	8.3300e-01	-13.3793	-51.740622	0.000172	1.717548	0.581921	0.013713
1668	8.3350e-01	-13.3424	-51.680125	0.000152	1.515484	0.513460	0.012099
1669	8.3400e-01	-13.3039	-51.579298	0.000253	2.525806	0.855766	0.020165
1670	8.3450e-01	-13.2734	-51.526868	0.000131	1.313419	0.444998	0.010486
1671	8.3500e-01	-13.2269	-51.450239	0.000192	1.919613	0.650382	0.015326
1672	8.3550e-01	-13.1900	-51.345378	0.000263	2.626838	0.889997	0.020972
1673	8.3600e-01	-13.1595	-51.260683	0.000212	2.121677	0.718844	0.016939
1674	8.3650e-01	-13.1002	-51.184054	0.000192	1.919613	0.650382	0.015326
1675	8.3700e-01	-13.0681	-51.180021	0.000010	0.101032	0.034231	0.000807
1676	8.3750e-01	-13.0232	-51.099359	0.000202	2.020645	0.684613	0.016132
1677	8.3800e-01	-12.9815	-51.050962	0.000121	1.212387	0.410768	0.009679
1678	8.3850e-01	-12.9413	-50.929969	0.000303	3.030967	1.026919	0.024199
1679	8.3900e-01	-12.9077	-50.849307	0.000202	2.020645	0.684613	0.016132
1680	8.3950e-01	-12.8692	-50.776711	0.000182	1.818580	0.616152	0.014519
1681	8.4000e-01	-12.8339	-50.736380	0.000101	1.010322	0.342306	0.008066
1682	8.4050e-01	-12.7938	-50.647652	0.000222	2.222709	0.753074	0.017746
1683	8.4100e-01	-12.7408	-50.534725	0.000283	2.828903	0.958458	0.022585
1684	8.4150e-01	-12.7135	-50.478262	0.000141	1.414451	0.479229	0.011293
1685	8.4200e-01	-12.6670	-50.445997	0.000081	0.808258	0.273845	0.006453
1686	8.4250e-01	-12.6285	-50.312905	0.000333	3.334064	1.129611	0.026618
1687	8.4300e-01	-12.5884	-50.103184	0.000525	5.253677	1.779994	0.041944
1688	8.4350e-01	-12.5547	-50.208044	-0.000263	-2.626838	-0.889997	-0.020972
1689	8.4400e-01	-12.5114	-50.078985	0.000323	3.233032	1.095381	0.025812
1690	8.4450e-01	-12.4665	-50.062853	0.000040	0.404129	0.136923	0.003226
1691	8.4500e-01	-12.4264	-49.974125	0.000222	2.222709	0.753074	0.017746
1692	8.4550e-01	-12.3847	-49.845066	0.000323	3.233032	1.095381	0.025812
1693	8.4600e-01	-12.3478	-49.788602	0.000141	1.414451	0.479229	0.011293
1694	8.4650e-01	-12.3125	-49.695841	0.000232	2.323742	0.787305	0.018552
1695	8.4700e-01	-12.2660	-49.611146	0.000212	2.121677	0.718844	0.016939
1696	8.4750e-01	-12.2307	-49.570815	0.000101	1.010322	0.342306	0.008066
1697	8.4800e-01	-12.1922	-49.494186	0.000192	1.919613	0.650382	0.015326
1698	8.4850e-01	-12.1489	-49.405458	0.000222	2.222709	0.753074	0.017746
1699	8.4900e-01	-12.1104	-49.332862	0.000182	1.818580	0.616152	0.014519
1700	8.4950e-01	-12.0767	-49.240101	0.000232	2.323742	0.787305	0.018552
1701	8.5000e-01	-12.0285	-49.171538	0.000172	1.717548	0.581921	0.013713
1702	8.5050e-01	-11.9804	-49.090876	0.000202	2.020645	0.684613	0.016132
1703	8.5100e-01	-11.9499	-49.010214	0.000202	2.020645	0.684613	0.016132
1704	8.5150e-01	-11.9066	-48.925519	0.000212	2.121677	0.718844	0.016939
1705	8.5200e-01	-11.8649	-48.828725	0.000242	2.424774	0.821536	0.019359
1706	8.5250e-01	-11.8296	-48.772261	0.000141	1.414451	0.479229	0.011293
1707	8.5300e-01	-11.7879	-48.711765	0.000152	1.515484	0.513460	0.012099
1708	8.5350e-01	-11.7558	-48.598838	0.000283	2.828903	0.958458	0.022585
1709	8.5400e-01	-11.7029	-48.554474	0.000111	1.111355	0.376537	0.008873
1710	8.5450e-01	-11.6708	-48.437514	0.000293	2.929935	0.992689	0.023392
1711	8.5500e-01	-11.6371	-48.381051	0.000141	1.414451	0.479229	0.011293
1712	8.5550e-01	-11.5858	-48.268124	0.000283	2.828903	0.958458	0.022585
1713	8.5600e-01	-11.5489	-48.155197	0.000283	2.828903	0.958458	0.022585
1714	8.5650e-01	-11.5232	-48.070502	0.000212	2.121677	0.718844	0.016939
1715	8.5700e-01	-11.4703	-48.046304	0.000061	0.606193	0.205384	0.004840
1716	8.5750e-01	-11.4270	-47.989840	0.000141	1.414451	0.479229	0.011293
1717	8.5800e-01	-11.3949	-47.880947	0.000273	2.727871	0.924228	0.021779
1718	8.5850e-01	-11.3483	-47.784152	0.000242	2.424774	0.821536	0.019359
1719	8.5900e-01	-11.3114	-47.727689	0.000141	1.414451	0.479229	0.011293
1720	8.5950e-01	-11.2649	-47.659126	0.000172	1.717548	0.581921	0.013713
1721	8.6000e-01	-11.2312	-47.538133	0.000303	3.030967	1.026919	0.024199
1722	8.6050e-01	-11.1943	-47.405041	0.000333	3.334064	1.129611	0.026618
1723	8.6100e-01	-11.1462	-47.372776	0.000081	0.808258	0.273845	0.006453
1724	8.6150e-01	-11.1109	-47.259849	0.000283	2.828903	0.958458	0.022585
1725	8.6200e-01	-11.0628	-47.247750	0.000030	0.303097	0.102692	0.002420
1726	8.6250e-01	-11.0435	-47.134823	0.000283	2.828903	0.958458	0.022585
1727	8.6300e-01	-10.9986	-47.110625	0.000061	0.606193	0.205384	0.004840
1728	8.6350e-01	-10.9537	-46.985599	0.000313	3.131999	1.061150	0.025005
1729	8.6400e-01	-10.9072	-46.884771	0.000253	2.525806	0.855766	0.020165
1730	8.6450e-01	-10.8783	-46.800076	0.000212	2.121677	0.718844	0.016939
1731	8.6500e-01	-10.8286	-46.703282	0.000242	2.424774	0.821536	0.019359
1732	8.6550e-01	-10.7965	-46.610521	0.000232	2.323742	0.787305	0.018552
1733	8.6600e-01	-10.7419	-46.521792	0.000222	2.222709	0.753074	0.017746
1734	8.6650e-01	-10.7083	-46.429031	0.000232	2.323742	0.787305	0.018552
1735	8.6700e-01	-10.6665	-46.356435	0.000182	1.818580	0.616152	0.014519
1736	8.6750e-01	-10.6313	-46.275773	0.000202	2.020645	0.684613	0.016132
1737	8.6800e-01	-10.5911	-46.195111	0.000202	2.020645	0.684613	0.016132
1738	8.6850e-01	-10.5542	-46.110416	0.000212	2.121677	0.718844	0.016939
1739	8.6900e-01	-10.5093	-46.033787	0.000192	1.919613	0.650382	0.015326
1740	8.6950e-01	-10.4724	-45.957159	0.000192	1.919613	0.650382	0.015326
1741	8.7000e-01	-10.4387	-45.868430	0.000222	2.222709	0.753074	0.017746
1742	8.7050e-01	-10.3842	-45.731305	0.000344	3.435096	1.163842	0.027425
1743	8.7100e-01	-10.3457	-45.658709	0.000182	1.818580	0.616152	0.014519
1744	8.7150e-01	-10.3072	-45.622411	0.000091	0.909290	0.308076	0.007260
1745	8.7200e-01	-10.2703	-45.533683	0.000222	2.222709	0.753074	0.017746
1746	8.7250e-01	-10.2270	-45.400591	0.000333	3.334064	1.129611	0.026618
1747	8.7300e-01	-10.1901	-45.364293	0.000091	0.909290	0.308076	0.007260
1748	8.7350e-01	-10.1564	-45.154572	0.000525	5.253677	1.779994	0.041944
1749	8.7400e-01	-10.1163	-45.098109	0.000141	1.414451	0.479229	0.011293
1750	8.7450e-01	-10.0617	-45.037612	0.000152	1.515484	0.513460	0.012099
1751	8.7500e-01	-10.0377	-44.960983	0.000192	1.919613	0.650382	0.015326
1752	8.7550e-01	-10.0008	-44.860156	0.000253	2.525806	0.855766	0.020165
1753	8.7600e-01	-9.9575	-44.751262	0.000273	2.727871	0.924228	0.021779
1754	8.7650e-01	-9.9045	-44.622203	0.000323	3.233032	1.095381	0.025812
1755	8.7700e-01	-9.8741	-44.638335	-0.000040	-0.404129	-0.136923	-0.003226
1756	8.7750e-01	-9.8275	-44.517342	0.000303	3.030967	1.026919	0.024199
1757	8.7800e-01	-9.7987	-44.448780	0.000172	1.717548	0.581921	0.013713
1758	8.7850e-01	-9.7473	-44.335853	0.000283	2.828903	0.958458	0.022585
1759	8.7900e-01	-9.7200	-44.218893	0.000293	2.929935	0.992689	0.023392
1760	8.7950e-01	-9.6687	-44.142264	0.000192	1.919613	0.650382	0.015326
1761	8.8000e-01	-9.6350	-44.073702	0.000172	1.717548	0.581921	0.013713
1762	8.8050e-01	-9.5965	-43.993040	0.000202	2.020645	0.684613	0.016132
1763	8.8100e-01	-9.5564	-43.880113	0.000283	2.828903	0.958458	0.022585
1764	8.8150e-01	-9.5099	-43.747021	0.000333	3.334064	1.129611	0.026618
1765	8.8200e-01	-9.4730	-43.722822	0.000061	0.606193	0.205384	0.004840
1766	8.8250e-01	-9.4313	-43.617961	0.000263	2.626838	0.889997	0.020972
1767	8.8300e-01	-9.3896	-43.529233	0.000222	2.222709	0.753074	0.017746
1768	8.8350e-01	-9.3431	-43.396141	0.000333	3.334064	1.129611	0.026618
1769	8.8400e-01	-9.3158	-43.351777	0.000111	1.111355	0.376537	0.008873
1770	8.8450e-01	-9.2677	-43.242883	0.000273	2.727871	0.924228	0.021779
1771	8.8500e-01	-9.2275	-43.129956	0.000283	2.828903	0.958458	0.022585
1772	8.8550e-01	-9.1923	-43.041228	0.000222	2.222709	0.753074	0.017746
1773	8.8600e-01	-9.1441	-42.964599	0.000192	1.919613	0.650382	0.015326
1774	8.8650e-01	-9.1104	-42.855706	0.000273	2.727871	0.924228	0.021779
1775	8.8700e-01	-9.0767	-42.843606	0.000030	0.303097	0.102692	0.002420
1776	8.8750e-01	-9.0334	-42.666150	0.000445	4.445419	1.506149	0.035491
1777	8.8800e-01	-8.9981	-42.581455	0.000212	2.121677	0.718844	0.016939
1778	8.8850e-01	-8.9516	-42.460462	0.000303	3.030967	1.026919	0.024199
1779	8.8900e-01	-8.9147	-42.395933	0.000162	1.616516	0.547690	0.012906
1780	8.8950e-01	-8.8714	-42.295105	0.000253	2.525806	0.855766	0.020165
1781	8.9000e-01	-8.8329	-42.182178	0.000283	2.828903	0.958458	0.022585
1782	8.9050e-01	-8.7816	-42.125715	0.000141	1.414451	0.479229	0.011293
1783	8.9100e-01	-8.7495	-42.000689	0.000313	3.131999	1.061150	0.025005
1784	8.9150e-01	-8.7062	-41.952292	0.000121	1.212387	0.410768	0.009679
1785	8.9200e-01	-8.6741	-41.795001	0.000394	3.940257	1.334995	0.031458
1786	8.9250e-01	-8.6292	-41.722405	0.000182	1.818580	0.616152	0.014519
1787	8.9300e-01	-8.5955	-41.633677	0.000222	2.222709	0.753074	0.017746
1788	8.9350e-01	-8.5506	-41.532849	0.000253	2.525806	0.855766	0.020165
1789	8.9400e-01	-8.5072	-41.484452	0.000121	1.212387	0.410768	0.009679
1790	8.9450e-01	-8.4736	-41.335228	0.000374	3.738193	1.266534	0.029845
1791	8.9500e-01	-8.4286	-41.254566	0.000202	2.020645	0.684613	0.016132
1792	8.9550e-01	-8.3869	-41.161804	0.000232	2.323742	0.787305	0.018552
1793	8.9600e-01	-8.3468	-41.069043	0.000232	2.323742	0.787305	0.018552
1794	8.9650e-01	-8.3083	-41.044844	0.000061	0.606193	0.205384	0.004840
1795	8.9700e-01	-8.2586	-40.919818	0.000313	3.131999	1.061150	0.025005
1796	8.9750e-01	-8.2201	-40.738329	0.000455	4.546451	1.540379	0.036298
1797	8.9800e-01	-8.1880	-40.637502	0.000253	2.525806	0.855766	0.020165
1798	8.9850e-01	-8.1399	-40.593137	0.000111	1.111355	0.376537	0.008873
1799	8.9900e-01	-8.1158	-40.439880	0.000384	3.839225	1.300765	0.030652
1800	8.9950e-01	-8.0629	-40.363251	0.000192	1.919613	0.650382	0.015326
1801	9.0000e-01	-8.0276	-40.250324	0.000283	2.828903	0.958458	0.022585
1802	9.0050e-01	-7.9923	-40.133364	0.000293	2.929935	0.992689	0.023392
1803	9.0100e-01	-7.9506	-40.076901	0.000141	1.414451	0.479229	0.011293
1804	9.0150e-01	-7.9041	-39.988173	0.000222	2.222709	0.753074	0.017746
1805	9.0200e-01	-7.8704	-39.883312	0.000263	2.626838	0.889997	0.020972
1806	9.0250e-01	-7.8222	-39.726021	0.000394	3.940257	1.334995	0.031458
1807	9.0300e-01	-7.7950	-39.633260	0.000232	2.323742	0.787305	0.018552
1808	9.0350e-01	-7.7468	-39.584863	0.000121	1.212387	0.410768	0.009679
1809	9.0400e-01	-7.7051	-39.455804	0.000323	3.233032	1.095381	0.025812
1810	9.0450e-01	-7.6730	-39.375142	0.000202	2.020645	0.684613	0.016132
1811	9.0500e-01	-7.6249	-39.282380	0.000232	2.323742	0.787305	0.018552
1812	9.0550e-01	-7.5864	-39.129123	0.000384	3.839225	1.300765	0.030652
1813	9.0600e-01	-7.5463	-39.068626	0.000152	1.515484	0.513460	0.012099
1814	9.0650e-01	-7.5158	-38.979898	0.000222	2.222709	0.753074	0.017746
1815	9.0700e-01	-7.4661	-38.883104	0.000242	2.424774	0.821536	0.019359
1816	9.0750e-01	-7.4276	-38.733879	0.000374	3.738193	1.266534	0.029845
1817	9.0800e-01	-7.3923	-38.645151	0.000222	2.222709	0.753074	0.017746
1818	9.0850e-01	-7.3474	-38.548356	0.000242	2.424774	0.821536	0.019359
1819	9.0900e-01	-7.3073	-38.427363	0.000303	3.030967	1.026919	0.024199
1820	9.0950e-01	-7.2672	-38.322503	0.000263	2.626838	0.889997	0.020972
1821	9.1000e-01	-7.2335	-38.266040	0.000141	1.414451	0.479229	0.011293
1822	9.1050e-01	-7.1773	-38.084550	0.000455	4.546451	1.540379	0.036298
1823	9.1100e-01	-7.1404	-38.020021	0.000162	1.616516	0.547690	0.012906
1824	9.1150e-01	-7.1132	-37.907094	0.000283	2.828903	0.958458	0.022585
1825	9.1200e-01	-7.0666	-37.838531	0.000172	1.717548	0.581921	0.013713
1826	9.1250e-01	-7.0169	-37.705439	0.000333	3.334064	1.129611	0.026618
1827	9.1300e-01	-6.9816	-37.729637	-0.000061	-0.606193	-0.205384	-0.004840
1828	9.1350e-01	-6.9495	-37.511850	0.000546	5.455741	1.848455	0.043557
1829	9.1400e-01	-6.9062	-37.358592	0.000384	3.839225	1.300765	0.030652
1830	9.1450e-01	-6.8725	-37.294063	0.000162	1.616516	0.547690	0.012906
1831	9.1500e-01	-6.8276	-37.156937	0.000344	3.435096	1.163842	0.027425
1832	9.1550e-01	-6.7843	-37.104507	0.000131	1.313419	0.444998	0.010486
1833	9.1600e-01	-6.7586	-37.035944	0.000172	1.717548	0.581921	0.013713
1834	9.1650e-01	-6.7137	-36.882687	0.000384	3.839225	1.300765	0.030652
1835	9.1700e-01	-6.6752	-36.769760	0.000283	2.828903	0.958458	0.022585
1836	9.1750e-01	-6.6351	-36.709263	0.000152	1.515484	0.513460	0.012099
1837	9.1800e-01	-6.5870	-36.620535	0.000222	2.222709	0.753074	0.017746
1838	9.1850e-01	-6.5405	-36.471311	0.000374	3.738193	1.266534	0.029845
1839	9.1900e-01	-6.5084	-36.366450	0.000263	2.626838	0.889997	0.020972
1840	9.1950e-01	-6.4651	-36.273689	0.000232	2.323742	0.787305	0.018552
1841	9.2000e-01	-6.4330	-36.184961	0.000222	2.222709	0.753074	0.017746
1842	9.2050e-01	-6.3848	-36.031703	0.000384	3.839225	1.300765	0.030652
1843	9.2100e-01	-6.3576	-35.947008	0.000212	2.121677	0.718844	0.016939
1844	9.2150e-01	-6.3094	-35.793750	0.000384	3.839225	1.300765	0.030652
1845	9.2200e-01	-6.2726	-35.664691	0.000323	3.233032	1.095381	0.025812
1846	9.2250e-01	-6.2228	-35.632426	0.000081	0.808258	0.273845	0.006453
1847	9.2300e-01	-6.1923	-35.575963	0.000141	1.414451	0.479229	0.011293
1848	9.2350e-01	-6.1554	-35.402540	0.000434	4.344386	1.471918	0.034685
1849	9.2400e-01	-6.1073	-35.285580	0.000293	2.929935	0.992689	0.023392
1850	9.2450e-01	-6.0640	-35.221050	0.000162	1.616516	0.547690	0.012906
1851	9.2500e-01	-6.0367	-35.027461	0.000485	4.849548	1.643071	0.038718
1852	9.2550e-01	-5.9982	-34.999230	0.000071	0.707226	0.239615	0.005646
1853	9.2600e-01	-5.9501	-34.870171	0.000323	3.233032	1.095381	0.025812
1854	9.2650e-01	-5.9132	-34.716913	0.000384	3.839225	1.300765	0.030652
1855	9.2700e-01	-5.8763	-34.632218	0.000212	2.121677	0.718844	0.016939
1856	9.2750e-01	-5.8266	-34.531390	0.000253	2.525806	0.855766	0.020165
1857	9.2800e-01	-5.7945	-34.414430	0.000293	2.929935	0.992689	0.023392
1858	9.2850e-01	-5.7528	-34.289404	0.000313	3.131999	1.061150	0.025005
1859	9.2900e-01	-5.7159	-34.156312	0.000333	3.334064	1.129611	0.026618
1860	9.2950e-01	-5.6742	-34.027253	0.000323	3.233032	1.095381	0.025812
1861	9.3000e-01	-5.6357	-33.954657	0.000182	1.818580	0.616152	0.014519
1862	9.3050e-01	-5.5956	-33.821565	0.000333	3.334064	1.129611	0.026618
1863	9.3100e-01	-5.5474	-33.777201	0.000111	1.111355	0.376537	0.008873
1864	9.3150e-01	-5.5089	-33.587645	0.000475	4.748515	1.608841	0.037911
1865	9.3200e-01	-5.4592	-33.511016	0.000192	1.919613	0.650382	0.015326
1866	9.3250e-01	-5.4319	-33.390023	0.000303	3.030967	1.026919	0.024199
1867	9.3300e-01	-5.3806	-33.305328	0.000212	2.121677	0.718844	0.016939
1868	9.3350e-01	-5.3437	-33.212567	0.000232	2.323742	0.787305	0.018552
1869	9.3400e-01	-5.3036	-33.075442	0.000344	3.435096	1.163842	0.027425
1870	9.3450e-01	-5.2651	-32.986713	0.000222	2.222709	0.753074	0.017746
1871	9.3500e-01	-5.2250	-32.861687	0.000313	3.131999	1.061150	0.025005
1872	9.3550e-01	-5.1865	-32.748761	0.000283	2.828903	0.958458	0.022585
1873	9.3600e-01	-5.1528	-32.591470	0.000394	3.940257	1.334995	0.031458
1874	9.3650e-01	-5.1127	-32.547106	0.000111	1.111355	0.376537	0.008873
1875	9.3700e-01	-5.0774	-32.381749	0.000414	4.142322	1.403457	0.033071
1876	9.3750e-01	-5.0341	-32.272855	0.000273	2.727871	0.924228	0.021779
1877	9.3800e-01	-4.9956	-32.167994	0.000263	2.626838	0.889997	0.020972
1878	9.3850e-01	-4.9475	-32.030869	0.000344	3.435096	1.163842	0.027425
1879	9.3900e-01	-4.9009	-31.954240	0.000192	1.919613	0.650382	0.015326
1880	9.3950e-01	-4.8656	-31.788883	0.000414	4.142322	1.403457	0.033071
1881	9.4000e-01	-4.8416	-31.647725	0.000354	3.536128	1.198073	0.028232
1882	9.4050e-01	-4.7822	-31.558997	0.000222	2.222709	0.753074	0.017746
1883	9.4100e-01	-4.7533	-31.429937	0.000323	3.233032	1.095381	0.025812
1884	9.4150e-01	-4.7084	-31.317011	0.000283	2.828903	0.958458	0.022585
1885	9.4200e-01	-4.6763	-31.272647	0.000111	1.111355	0.376537	0.008873
1886	9.4250e-01	-4.6202	-31.103256	0.000424	4.243354	1.437687	0.033878
1887	9.4300e-01	-4.5961	-30.933866	0.000424	4.243354	1.437687	0.033878
1888	9.4350e-01	-4.5512	-30.885469	0.000121	1.212387	0.410768	0.009679
1889	9.4400e-01	-4.5047	-30.740278	0.000364	3.637161	1.232303	0.029038
1890	9.4450e-01	-4.4758	-30.655582	0.000212	2.121677	0.718844	0.016939
1891	9.4500e-01	-4.4325	-30.554755	0.000253	2.525806	0.855766	0.020165
1892	9.4550e-01	-4.3892	-30.389398	0.000414	4.142322	1.403457	0.033071
1893	9.4600e-01	-4.3555	-30.272438	0.000293	2.929935	0.992689	0.023392
1894	9.4650e-01	-4.3138	-30.300670	-0.000071	-0.707226	-0.239615	-0.005646
1895	9.4700e-01	-4.2689	-29.965923	0.000839	8.385676	2.841144	0.066949
1896	9.4750e-01	-4.2336	-29.982055	-0.000040	-0.404129	-0.136923	-0.003226
1897	9.4800e-01	-4.1919	-29.816698	0.000414	4.142322	1.403457	0.033071
1898	9.4850e-01	-4.1502	-29.667473	0.000374	3.738193	1.266534	0.029845
1899	9.4900e-01	-4.1068	-29.570679	0.000242	2.424774	0.821536	0.019359
1900	9.4950e-01	-4.0667	-29.437587	0.000333	3.334064	1.129611	0.026618
1901	9.5000e-01	-4.0250	-29.316594	0.000303	3.030967	1.026919	0.024199
1902	9.5050e-01	-3.9945	-29.215766	0.000253	2.525806	0.855766	0.020165
1903	9.5100e-01	-3.9480	-29.106873	0.000273	2.727871	0.924228	0.021779
1904	9.5150e-01	-3.9063	-28.941516	0.000414	4.142322	1.403457	0.033071
1905	9.5200e-01	-3.8774	-28.852787	0.000222	2.222709	0.753074	0.017746
1906	9.5250e-01	-3.8357	-28.747927	0.000263	2.626838	0.889997	0.020972
1907	9.5300e-01	-3.7940	-28.594669	0.000384	3.839225	1.300765	0.030652
1908	9.5350e-01	-3.7475	-28.489809	0.000263	2.626838	0.889997	0.020972
1909	9.5400e-01	-3.7154	-28.429312	0.000152	1.515484	0.513460	0.012099
1910	9.5450e-01	-3.6657	-28.276054	0.000384	3.839225	1.300765	0.030652
1911	9.5500e-01	-3.6368	-28.134896	0.000354	3.536128	1.198073	0.028232
1912	9.5550e-01	-3.5935	-28.026002	0.000273	2.727871	0.924228	0.021779
1913	9.5600e-01	-3.5454	-27.884844	0.000354	3.536128	1.198073	0.028232
1914	9.5650e-01	-3.5149	-27.727553	0.000394	3.940257	1.334995	0.031458
1915	9.5700e-01	-3.4651	-27.590428	0.000344	3.435096	1.163842	0.027425
1916	9.5750e-01	-3.4298	-27.485567	0.000263	2.626838	0.889997	0.020972
1917	9.5800e-01	-3.3930	-27.396839	0.000222	2.222709	0.753074	0.017746
1918	9.5850e-01	-3.3528	-27.267780	0.000323	3.233032	1.095381	0.025812
1919	9.5900e-01	-3.3063	-27.106456	0.000404	4.041290	1.369226	0.032265
1920	9.5950e-01	-3.2646	-26.993529	0.000283	2.828903	0.958458	0.022585
1921	9.6000e-01	-3.2325	-26.884635	0.000273	2.727871	0.924228	0.021779
1922	9.6050e-01	-3.1796	-26.755576	0.000323	3.233032	1.095381	0.025812
1923	9.6100e-01	-3.1523	-26.687013	0.000172	1.717548	0.581921	0.013713
1924	9.6150e-01	-3.1138	-26.525690	0.000404	4.041290	1.369226	0.032265
1925	9.6200e-01	-3.0753	-26.404697	0.000303	3.030967	1.026919	0.024199
1926	9.6250e-01	-3.0352	-26.247406	0.000394	3.940257	1.334995	0.031458
1927	9.6300e-01	-2.9887	-26.130446	0.000293	2.929935	0.992689	0.023392
1928	9.6350e-01	-2.9486	-25.973155	0.000394	3.940257	1.334995	0.031458
1929	9.6400e-01	-2.9085	-25.888460	0.000212	2.121677	0.718844	0.016939
1930	9.6450e-01	-2.8700	-25.755368	0.000333	3.334064	1.129611	0.026618
1931	9.6500e-01	-2.8395	-25.614209	0.000354	3.536128	1.198073	0.028232
1932	9.6550e-01	-2.7962	-25.477084	0.000344	3.435096	1.163842	0.027425
1933	9.6600e-01	-2.7432	-25.348025	0.000323	3.233032	1.095381	0.025812
1934	9.6650e-01	-2.7063	-25.295594	0.000131	1.313419	0.444998	0.010486
1935	9.6700e-01	-2.6646	-25.142337	0.000384	3.839225	1.300765	0.030652
1936	9.6750e-01	-2.6309	-25.061675	0.000202	2.020645	0.684613	0.016132
1937	9.6800e-01	-2.5844	-24.839854	0.000556	5.556773	1.882686	0.044364
1938	9.6850e-01	-2.5620	-24.714828	0.000313	3.131999	1.061150	0.025005
1939	9.6900e-01	-2.5058	-24.565604	0.000374	3.738193	1.266534	0.029845
1940	9.6950e-01	-2.4737	-24.505107	0.000152	1.515484	0.513460	0.012099
1941	9.7000e-01	-2.4272	-24.359916	0.000364	3.637161	1.232303	0.029038
1942	9.7050e-01	-2.3951	-24.214724	0.000364	3.637161	1.232303	0.029038
1943	9.7100e-01	-2.3470	-24.101797	0.000283	2.828903	0.958458	0.022585
1944	9.7150e-01	-2.3101	-23.960639	0.000354	3.536128	1.198073	0.028232
1945	9.7200e-01	-2.2732	-23.843679	0.000293	2.929935	0.992689	0.023392
1946	9.7250e-01	-2.2235	-23.714620	0.000323	3.233032	1.095381	0.025812
1947	9.7300e-01	-2.1898	-23.621859	0.000232	2.323742	0.787305	0.018552
1948	9.7350e-01	-2.1593	-23.428270	0.000485	4.849548	1.643071	0.038718
1949	9.7400e-01	-2.0951	-23.351641	0.000192	1.919613	0.650382	0.015326
1950	9.7450e-01	-2.0630	-23.158052	0.000485	4.849548	1.643071	0.038718
1951	9.7500e-01	-2.0374	-23.028993	0.000323	3.233032	1.095381	0.025812
1952	9.7550e-01	-1.9957	-22.903967	0.000313	3.131999	1.061150	0.025005
1953	9.7600e-01	-1.9491	-22.730544	0.000434	4.344386	1.471918	0.034685
1954	9.7650e-01	-1.9090	-22.657948	0.000182	1.818580	0.616152	0.014519
1955	9.7700e-01	-1.8689	-22.512756	0.000364	3.637161	1.232303	0.029038
1956	9.7750e-01	-1.8256	-22.395797	0.000293	2.929935	0.992689	0.023392
1957	9.7800e-01	-1.7983	-22.274804	0.000303	3.030967	1.026919	0.024199
1958	9.7850e-01	-1.7390	-22.113480	0.000404	4.041290	1.369226	0.032265
1959	9.7900e-01	-1.7197	-21.968288	0.000364	3.637161	1.232303	0.029038
1960	9.7950e-01	-1.6748	-21.855361	0.000283	2.828903	0.958458	0.022585
1961	9.8000e-01	-1.6315	-21.722269	0.000333	3.334064	1.129611	0.026618
1962	9.8050e-01	-1.5834	-21.593210	0.000323	3.233032	1.095381	0.025812
1963	9.8100e-01	-1.5545	-21.460118	0.000333	3.334064	1.129611	0.026618
1964	9.8150e-01	-1.5064	-21.335092	0.000313	3.131999	1.061150	0.025005
1965	9.8200e-01	-1.4759	-21.197966	0.000344	3.435096	1.163842	0.027425
1966	9.8250e-01	-1.4310	-21.085039	0.000283	2.828903	0.958458	0.022585
1967	9.8300e-01	-1.4005	-20.935815	0.000374	3.738193	1.266534	0.029845
1968	9.8350e-01	-1.3540	-20.746259	0.000475	4.748515	1.608841	0.037911
1969	9.8400e-01	-1.3107	-20.677697	0.000172	1.717548	0.581921	0.013713
1970	9.8450e-01	-1.2657	-20.455876	0.000556	5.556773	1.882686	0.044364
1971	9.8500e-01	-1.2304	-20.355049	0.000253	2.525806	0.855766	0.020165
1972	9.8550e-01	-1.1887	-20.230023	0.000313	3.131999	1.061150	0.025005
1973	9.8600e-01	-1.1550	-20.137261	0.000232	2.323742	0.787305	0.018552
1974	9.8650e-01	-1.1053	-19.988037	0.000374	3.738193	1.266534	0.029845
1975	9.8700e-01	-1.0700	-19.798481	0.000475	4.748515	1.608841	0.037911
1976	9.8750e-01	-1.0283	-19.693620	0.000263	2.626838	0.889997	0.020972
1977	9.8800e-01	-1.0026	-19.552462	0.000354	3.536128	1.198073	0.028232
1978	9.8850e-01	-0.9497	-19.403237	0.000374	3.738193	1.266534	0.029845
1979	9.8900e-01	-0.9160	-19.237880	0.000414	4.142322	1.403457	0.033071
1980	9.8950e-01	-0.8695	-19.137053	0.000253	2.525806	0.855766	0.020165
1981	9.9000e-01	-0.8438	-19.003961	0.000333	3.334064	1.129611	0.026618
1982	9.9050e-01	-0.7973	-18.834570	0.000424	4.243354	1.437687	0.033878
1983	9.9100e-01	-0.7396	-18.745842	0.000222	2.222709	0.753074	0.017746
1984	9.9150e-01	-0.7139	-18.576452	0.000424	4.243354	1.437687	0.033878
1985	9.9200e-01	-0.6674	-18.439327	0.000344	3.435096	1.163842	0.027425
1986	9.9250e-01	-0.6257	-18.346566	0.000232	2.323742	0.787305	0.018552
1987	9.9300e-01	-0.5871	-18.169109	0.000445	4.445419	1.506149	0.035491
1988	9.9350e-01	-0.5438	-18.068282	0.000253	2.525806	0.855766	0.020165
1989	9.9400e-01	-0.5037	-17.890825	0.000445	4.445419	1.506149	0.035491
1990	9.9450e-01	-0.4652	-17.713369	0.000445	4.445419	1.506149	0.035491
1991	9.9500e-01	-0.4315	-17.592376	0.000303	3.030967	1.026919	0.024199
1992	9.9550e-01	-0.3930	-17.483482	0.000273	2.727871	0.924228	0.021779
1993	9.9600e-01	-0.3513	-17.342324	0.000354	3.536128	1.198073	0.028232
1994	9.9650e-01	-0.3048	-17.181000	0.000404	4.041290	1.369226	0.032265
1995	9.9700e-01	-0.2599	-17.116470	0.000162	1.616516	0.547690	0.012906
1996	9.9750e-01	-0.2246	-16.906749	0.000525	5.253677	1.779994	0.041944
1997	9.9800e-01	-0.1797	-16.769624	0.000344	3.435096	1.163842	0.027425
1998	9.9850e-01	-0.1508	-16.604267	0.000414	4.142322	1.403457	0.033071
1999	9.9900e-01	-0.1203	-16.483274	0.000303	3.030967	1.026919	0.024199
2000	9.9950e-01	-0.0674	-16.317917	0.000414	4.142322	1.403457	0.033071
2001	1.0000e+00	-0.0385	-16.184825	0.000414	4.142322	1.403457	0.026618

Center data before PMax,+/-Pr and +/-Vc Calc.

PMax (uC/cm2):	5.91e+01
Pr (uC/cm2):	1.06e+01
-Pr (uC/cm2):	-1.62e+01
PLoss (uC/cm2):	-1.21e+01
Vc:	1.76e+00
-Vc:	-2.77e+00
C (Max-Eff) (nF):	2.96e-01
K (Eff):	1.00e+03
Vert. (+/-Pr) Shift (uC/cm2):	-2.78e+00
Horiz. Shift (+/-Vc):	-5.08e-01
Offset (uC/cm2):	4.01e+00

A (Loop Area - uC/cm2·Volts):	-2.50e-01



Hysteresis Version: 5.48.1 - Radiant Technologies, Inc., 1999 - 9/12/24

