»»»»»»»»»»»»»»»»»»»»»»»»»»»»»»»»»»»» Hysteresis ««««««««««««««««««««««««««««««««««««
»»»  Executed Version:	5.48.1
»»»  Vision Version:	5.48.4 (R)
»»»  Vision Compiled:	9/18/24
»»»  Driver Version:	5.47.0
»»»  Windows Version:	Windows 8 or 8.1
»»»  Processor Information:	x86 (AMD or Intel) - 32 Processors
»»»  Tester Name:	PMF21124-494 (100V)
»»»  Tester S/N:	PMF21124-494
»»»  Internal Amp Type:	100V RevK 270k
»»»  Internal Amp S/N:	iAB2-596/K     
»»»  Execution Count:	1
»»»»»»»»»»»»»»»»»»»»»»»»»»»»»»»»»»»»»»»»»»««««««««««««««««««««««««««««««««««««««««««

Stored:	6/16/2025 - 15:39:16
Configured:	06/16/25 02:13:38 PM
Executed:	06/16/25 03:38:14 PM

»»»»»»»»»»»»»»»»»»»»»»»»»»»»»»»»»»» Sample Info ««««««««««««««««««««««««««««««««««««
Sample Name:	
Lot Name:	
Wafer Name:	
Die Row/Column:	0/0
Capacitor Number:	0
Sample Area (cm2):	1.00e-04
Sample Thickness (microns):	3.00e-01

Amplifier:	Internal

»»»»»»»»»»»»»»»»»»»»»»»»»»»»»»»»»»» Tester Info «««««««««««««««««««««««««««««««««««
Tester Name:	PMF21124-494 (100V)
Tester Serial Number:	PMF21124-494
Return Signal Amp. Level:	1.9 [Index: 2]

»»»»»»»»»»»»»»»»»»»»»»»»»»»»»»»» Hysteresis Info ««««««««««««««««««««««««««««««««««
Task Name:	Hyst-4
Volts:	20.00
Field:	666.67 (kV/cm)
DCBias:	0.00
DCField:	0.00 (kV/cm)
Hysteresis Period (ms):	2.00e+02
Preset:	Enabled
Preset Delay (ms):	1.00e+03
Profile:	Standard Bipolar

»»»»»»»»»»»»»»»»»»»»»»»»»»»»»»»»»»»»»» Data «««««««««««««««««««««««««««««««««««««««
Points:	2009

Valid Data

Point	Time (ms)	Drive Voltage	Measured Polarization (uC/cm2)	Capacitance (uF)	Normalized Capacitance (uF/cm2)	Dielectric Constant	Instantaneous Current (mA)
   1	0.0000e+00	0.0305	-2.060950	0.000172	1.717838	0.582019	0.000070
   2	9.9500e-02	0.0722	-1.991701	0.000172	1.717838	0.582019	0.000070
   3	1.9900e-01	0.1011	-1.898013	0.000232	2.324134	0.787438	0.000094
   4	2.9850e-01	0.1187	-1.805139	0.000230	2.303924	0.780591	0.000093
   5	3.9800e-01	0.1877	-1.713486	0.000227	2.273610	0.770320	0.000092
   6	4.9750e-01	0.2406	-1.622242	0.000226	2.263505	0.766896	0.000092
   7	5.9700e-01	0.2791	-1.531812	0.000224	2.243295	0.760049	0.000091
   8	6.9650e-01	0.3032	-1.439752	0.000228	2.283714	0.773743	0.000093
   9	7.9600e-01	0.3577	-1.350544	0.000221	2.212980	0.749778	0.000090
  10	8.9550e-01	0.3738	-1.260114	0.000224	2.243295	0.760049	0.000091
  11	9.9500e-01	0.4251	-1.167240	0.000230	2.303924	0.780591	0.000093
  12	1.0945e+00	0.4251	-1.066219	-0.000251	-2.506023	-0.849064	0.000102
  13	1.1940e+00	0.4957	-0.977011	0.000221	2.212980	0.749778	0.000090
  14	1.2935e+00	0.5294	-0.881286	0.000237	2.374659	0.804556	0.000096
  15	1.3930e+00	0.5871	-0.792078	0.000221	2.212980	0.749778	0.000090
  16	1.4925e+00	0.6128	-0.694315	0.000243	2.425183	0.821674	0.000098
  17	1.5920e+00	0.6417	-0.600627	0.000232	2.324134	0.787438	0.000094
  18	1.6915e+00	0.7027	-0.506530	0.000233	2.334239	0.790862	0.000095
  19	1.7910e+00	0.7460	-0.418544	0.000218	2.182665	0.739507	0.000088
  20	1.8905e+00	0.7540	-0.325263	0.000231	2.314029	0.784014	0.000094
  21	1.9900e+00	0.8166	-0.230352	0.000235	2.354449	0.797709	0.000095
  22	2.0895e+00	0.8390	-0.130961	0.000247	2.465603	0.835369	0.000100
  23	2.1890e+00	0.9032	-0.044604	0.000214	2.142245	0.725812	0.000087
  24	2.2885e+00	0.9433	0.050714	0.000236	2.364554	0.801133	0.000096
  25	2.3880e+00	0.9593	0.144403	0.000232	2.324134	0.787438	0.000094
  26	2.4875e+00	1.0235	0.243795	0.000247	2.465603	0.835369	0.000100
  27	2.5870e+00	1.0363	0.333817	0.000223	2.233190	0.756625	0.000090
  28	2.6865e+00	1.0845	0.424655	0.000225	2.253400	0.763472	0.000091
  29	2.7860e+00	1.1470	0.527712	0.000256	2.556548	0.866182	0.000104
  30	2.8855e+00	1.1567	0.620994	0.000231	2.314029	0.784014	0.000094
  31	2.9850e+00	1.1984	0.725681	0.000260	2.596967	0.879876	0.000105
  32	3.0845e+00	1.2609	0.813259	0.000217	2.172560	0.736083	0.000088
  33	3.1840e+00	1.3155	0.914688	0.000252	2.516128	0.852487	0.000102
  34	3.2835e+00	1.3556	1.008376	0.000232	2.324134	0.787438	0.000094
  35	3.3830e+00	1.3828	1.103695	0.000236	2.364554	0.801133	0.000096
  36	3.4825e+00	1.4246	1.201864	0.000244	2.435288	0.825098	0.000099
  37	3.5820e+00	1.4438	1.293516	0.000227	2.273610	0.770320	0.000092
  38	3.6815e+00	1.4951	1.391278	0.000243	2.425183	0.821674	0.000098
  39	3.7810e+00	1.5369	1.487819	0.000239	2.394869	0.811403	0.000097
  40	3.8805e+00	1.5818	1.583544	0.000237	2.374659	0.804556	0.000096
  41	3.9800e+00	1.6219	1.682936	0.000247	2.465603	0.835369	0.000100
  42	4.0795e+00	1.6588	1.777032	0.000233	2.334239	0.790862	0.000095
  43	4.1790e+00	1.6796	1.878053	0.000251	2.506023	0.849064	0.000102
  44	4.2785e+00	1.7486	1.971742	0.000232	2.324134	0.787438	0.000094
  45	4.3780e+00	1.7871	2.072355	0.000250	2.495918	0.845640	0.000101
  46	4.4775e+00	1.8192	2.165229	0.000230	2.303924	0.780591	0.000093
  47	4.5770e+00	1.8481	2.260547	0.000236	2.364554	0.801133	0.000096
  48	4.6765e+00	1.8898	2.364420	0.000258	2.576757	0.873029	0.000104
  49	4.7760e+00	1.9347	2.463811	0.000247	2.465603	0.835369	0.000100
  50	4.8755e+00	1.9636	2.552612	0.000220	2.202875	0.746354	0.000089
  51	4.9750e+00	2.0326	2.652818	0.000249	2.485813	0.842216	0.000101
  52	5.0745e+00	2.0294	2.750173	-0.000242	-2.415079	-0.818251	0.000098
  53	5.1740e+00	2.1064	2.847121	0.000240	2.404974	0.814827	0.000097
  54	5.2735e+00	2.1513	2.939995	0.000230	2.303924	0.780591	0.000093
  55	5.3730e+00	2.1625	3.042238	0.000254	2.536338	0.859334	0.000103
  56	5.4725e+00	2.1898	3.135519	0.000231	2.314029	0.784014	0.000094
  57	5.5720e+00	2.2716	3.230837	0.000236	2.364554	0.801133	0.000096
  58	5.6715e+00	2.2973	3.333488	0.000255	2.546443	0.862758	0.000103
  59	5.7710e+00	2.3454	3.428806	0.000236	2.364554	0.801133	0.000096
  60	5.8705e+00	2.3999	3.527790	0.000246	2.455498	0.831945	0.000099
  61	5.9700e+00	2.4047	3.619850	0.000228	2.283714	0.773743	0.000093
  62	6.0695e+00	2.4384	3.719241	0.000247	2.465603	0.835369	0.000100
  63	6.1690e+00	2.4497	3.812523	0.000231	2.314029	0.784014	0.000094
  64	6.2685e+00	2.5347	3.912322	0.000248	2.475708	0.838793	0.000100
  65	6.3680e+00	2.5507	4.006825	0.000234	2.344344	0.794285	0.000095
  66	6.4675e+00	2.6085	4.106624	0.000248	2.475708	0.838793	0.000100
  67	6.5670e+00	2.6470	4.202349	0.000237	2.374659	0.804556	0.000096
  68	6.6665e+00	2.6775	4.298482	0.000238	2.384764	0.807980	0.000097
  69	6.7660e+00	2.7240	4.390134	0.000227	2.273610	0.770320	0.000092
  70	6.8655e+00	2.7705	4.486675	0.000239	2.394869	0.811403	0.000097
  71	6.9650e+00	2.8090	4.579549	0.000230	2.303924	0.780591	0.000093
  72	7.0645e+00	2.8379	4.679348	0.000248	2.475708	0.838793	0.000100
  73	7.1640e+00	2.9101	4.771000	0.000227	2.273610	0.770320	0.000092
  74	7.2635e+00	2.9390	4.867947	0.000240	2.404974	0.814827	0.000097
  75	7.3630e+00	2.9855	4.958785	0.000225	2.253400	0.763472	0.000091
  76	7.4625e+00	3.0031	5.054917	0.000238	2.384764	0.807980	0.000097
  77	7.5620e+00	3.0400	5.151458	0.000239	2.394869	0.811403	0.000097
  78	7.6615e+00	3.0689	5.248405	0.000240	2.404974	0.814827	0.000097
  79	7.7610e+00	3.1443	5.341687	0.000231	2.314029	0.784014	0.000094
  80	7.8605e+00	3.1812	5.439041	0.000242	2.415079	0.818251	0.000098
  81	7.9600e+00	3.2277	5.532730	0.000232	2.324134	0.787438	0.000094
  82	8.0595e+00	3.2502	5.626419	0.000232	2.324134	0.787438	0.000094
  83	8.1590e+00	3.2999	5.725403	0.000246	2.455498	0.831945	0.000099
  84	8.2585e+00	3.3400	5.814611	0.000221	2.212980	0.749778	0.000090
  85	8.3580e+00	3.3561	5.909522	0.000235	2.354449	0.797709	0.000095
  86	8.4575e+00	3.4042	6.002804	0.000231	2.314029	0.784014	0.000094
  87	8.5570e+00	3.4459	6.100566	0.000243	2.425183	0.821674	0.000098
  88	8.6565e+00	3.4780	6.192625	0.000228	2.283714	0.773743	0.000093
  89	8.7560e+00	3.5277	6.289165	0.000239	2.394869	0.811403	0.000097
  90	8.8555e+00	3.5550	6.381632	0.000229	2.293819	0.777167	0.000093
  91	8.9550e+00	3.5999	6.478172	0.000239	2.394869	0.811403	0.000097
  92	9.0545e+00	3.6368	6.573490	0.000236	2.364554	0.801133	0.000096
  93	9.1540e+00	3.6721	6.670845	0.000242	2.415079	0.818251	0.000098
  94	9.2535e+00	3.7651	6.764534	0.000232	2.324134	0.787438	0.000094
  95	9.3530e+00	3.7603	6.856186	-0.000227	-2.273610	-0.770320	0.000092
  96	9.4525e+00	3.7828	6.951912	0.000237	2.374659	0.804556	0.000096
  97	9.5520e+00	3.8470	7.050081	0.000244	2.435288	0.825098	0.000099
  98	9.6515e+00	3.8951	7.143770	0.000232	2.324134	0.787438	0.000094
  99	9.7510e+00	3.9111	7.233793	0.000223	2.233190	0.756625	0.000090
 100	9.8505e+00	3.9705	7.331148	0.000242	2.415079	0.818251	0.000098
 101	9.9500e+00	4.0058	7.430132	0.000246	2.455498	0.831945	0.000099
 102	1.0050e+01	4.0715	7.520969	0.000225	2.253400	0.763472	0.000091
 103	1.0149e+01	4.1100	7.614658	0.000232	2.324134	0.787438	0.000094
 104	1.0248e+01	4.1020	7.707939	-0.000231	-2.314029	-0.784014	0.000094
 105	1.0348e+01	4.1742	7.806109	0.000244	2.435288	0.825098	0.000099
 106	1.0447e+01	4.1983	7.903464	0.000242	2.415079	0.818251	0.000098
 107	1.0547e+01	4.2095	7.994301	0.000225	2.253400	0.763472	0.000091
 108	1.0646e+01	4.2849	8.091249	0.000240	2.404974	0.814827	0.000097
 109	1.0746e+01	4.3138	8.184123	0.000230	2.303924	0.780591	0.000093
 110	1.0845e+01	4.3651	8.282700	0.000245	2.445393	0.828522	0.000099
 111	1.0945e+01	4.4245	8.376796	0.000233	2.334239	0.790862	0.000095
 112	1.1044e+01	4.4614	8.467633	0.000225	2.253400	0.763472	0.000091
 113	1.1144e+01	4.4902	8.556434	0.000220	2.202875	0.746354	0.000089
 114	1.1243e+01	4.5255	8.655826	0.000247	2.465603	0.835369	0.000100
 115	1.1343e+01	4.5496	8.746256	0.000224	2.243295	0.760049	0.000091
 116	1.1443e+01	4.6041	8.840352	0.000233	2.334239	0.790862	0.000095
 117	1.1542e+01	4.6314	8.934041	0.000232	2.324134	0.787438	0.000094
 118	1.1642e+01	4.6940	9.028544	0.000234	2.344344	0.794285	0.000095
 119	1.1741e+01	4.7389	9.123047	0.000234	2.344344	0.794285	0.000095
 120	1.1841e+01	4.7646	9.215514	0.000229	2.293819	0.777167	0.000093
 121	1.1940e+01	4.8127	9.306759	0.000226	2.263505	0.766896	0.000092
 122	1.2040e+01	4.8672	9.404929	0.000244	2.435288	0.825098	0.000099
 123	1.2139e+01	4.8977	9.496581	0.000227	2.273610	0.770320	0.000092
 124	1.2239e+01	4.8881	9.593121	-0.000239	-2.394869	-0.811403	0.000097
 125	1.2338e+01	4.9458	9.681514	0.000219	2.192770	0.742931	0.000089
 126	1.2438e+01	4.9747	9.775610	0.000233	2.334239	0.790862	0.000095
 127	1.2537e+01	5.0806	9.872150	0.000239	2.394869	0.811403	0.000097
 128	1.2636e+01	5.0902	9.962988	0.000225	2.253400	0.763472	0.000091
 129	1.2736e+01	5.1095	10.053010	0.000223	2.233190	0.756625	0.000090
 130	1.2835e+01	5.1913	10.148736	0.000237	2.374659	0.804556	0.000096
 131	1.2935e+01	5.1897	10.242832	-0.000233	-2.334239	-0.790862	0.000095
 132	1.3034e+01	5.2426	10.334892	0.000228	2.283714	0.773743	0.000093
 133	1.3134e+01	5.2619	10.436727	0.000253	2.526233	0.855911	0.000102
 134	1.3233e+01	5.3084	10.524306	0.000217	2.172560	0.736083	0.000088
 135	1.3333e+01	5.3646	10.615551	0.000226	2.263505	0.766896	0.000092
 136	1.3432e+01	5.4015	10.710461	0.000235	2.354449	0.797709	0.000095
 137	1.3532e+01	5.4496	10.807816	0.000242	2.415079	0.818251	0.000098
 138	1.3632e+01	5.4752	10.899468	0.000227	2.273610	0.770320	0.000092
 139	1.3731e+01	5.5346	10.991935	0.000229	2.293819	0.777167	0.000093
 140	1.3831e+01	5.5763	11.092549	0.000250	2.495918	0.845640	0.000101
 141	1.3930e+01	5.5908	11.185423	0.000230	2.303924	0.780591	0.000093
 142	1.4030e+01	5.6405	11.277890	0.000229	2.293819	0.777167	0.000093
 143	1.4129e+01	5.6678	11.374430	0.000239	2.394869	0.811403	0.000097
 144	1.4229e+01	5.7271	11.463230	0.000220	2.202875	0.746354	0.000089
 145	1.4328e+01	5.7480	11.567103	0.000258	2.576757	0.873029	0.000104
 146	1.4428e+01	5.8153	11.657125	0.000223	2.233190	0.756625	0.000090
 147	1.4527e+01	5.8378	11.751629	0.000234	2.344344	0.794285	0.000095
 148	1.4627e+01	5.8699	11.844503	0.000230	2.303924	0.780591	0.000093
 149	1.4726e+01	5.9084	11.943080	0.000245	2.445393	0.828522	0.000099
 150	1.4825e+01	5.9597	12.040435	0.000242	2.415079	0.818251	0.000098
 151	1.4925e+01	5.9838	12.135753	0.000236	2.364554	0.801133	0.000096
 152	1.5024e+01	6.0367	12.230256	0.000234	2.344344	0.794285	0.000095
 153	1.5124e+01	6.0752	12.326797	0.000239	2.394869	0.811403	0.000097
 154	1.5223e+01	6.1169	12.426188	0.000247	2.465603	0.835369	0.000100
 155	1.5323e+01	6.1474	12.523136	0.000240	2.404974	0.814827	0.000097
 156	1.5422e+01	6.2164	12.617232	0.000233	2.334239	0.790862	0.000095
 157	1.5522e+01	6.2324	12.717031	0.000248	2.475708	0.838793	0.000100
 158	1.5621e+01	6.2758	12.816830	0.000248	2.475708	0.838793	0.000100
 159	1.5721e+01	6.3399	12.912963	0.000238	2.384764	0.807980	0.000097
 160	1.5820e+01	6.3496	13.004615	0.000227	2.273610	0.770320	0.000092
 161	1.5920e+01	6.3929	13.099118	0.000234	2.344344	0.794285	0.000095
 162	1.6020e+01	6.4330	13.204212	0.000261	2.607072	0.883300	0.000106
 163	1.6119e+01	6.4939	13.295865	0.000227	2.273610	0.770320	0.000092
 164	1.6218e+01	6.5004	13.390775	0.000235	2.354449	0.797709	0.000095
 165	1.6318e+01	6.5244	13.490167	0.000247	2.465603	0.835369	0.000100
 166	1.6418e+01	6.6014	13.589559	0.000247	2.465603	0.835369	0.000100
 167	1.6517e+01	6.6415	13.689357	0.000248	2.475708	0.838793	0.000100
 168	1.6616e+01	6.6929	13.787120	0.000243	2.425183	0.821674	0.000098
 169	1.6716e+01	6.7217	13.880808	0.000232	2.324134	0.787438	0.000094
 170	1.6816e+01	6.7233	13.979385	0.000245	2.445393	0.828522	0.000099
 171	1.6915e+01	6.7667	14.075926	0.000239	2.394869	0.811403	0.000097
 172	1.7015e+01	6.8613	14.183057	0.000266	2.657597	0.900418	0.000108
 173	1.7114e+01	6.8677	14.273079	0.000223	2.233190	0.756625	0.000090
 174	1.7213e+01	6.9223	14.377766	0.000260	2.596967	0.879876	0.000105
 175	1.7313e+01	6.9527	14.467382	0.000222	2.223085	0.753202	0.000090
 176	1.7413e+01	7.0073	14.567995	0.000250	2.495918	0.845640	0.000101
 177	1.7512e+01	7.0201	14.671053	0.000256	2.556548	0.866182	0.000104
 178	1.7611e+01	7.0522	14.763927	0.000230	2.303924	0.780591	0.000093
 179	1.7711e+01	7.1100	14.860875	0.000240	2.404974	0.814827	0.000097
 180	1.7811e+01	7.1517	14.959859	0.000246	2.455498	0.831945	0.000099
 181	1.7910e+01	7.1918	15.061695	0.000253	2.526233	0.855911	0.000102
 182	1.8009e+01	7.2158	15.159457	0.000243	2.425183	0.821674	0.000098
 183	1.8109e+01	7.2961	15.253960	0.000234	2.344344	0.794285	0.000095
 184	1.8209e+01	7.3089	15.359869	0.000263	2.627282	0.890147	0.000106
 185	1.8308e+01	7.3554	15.458854	0.000246	2.455498	0.831945	0.000099
 186	1.8407e+01	7.3843	15.552135	0.000231	2.314029	0.784014	0.000094
 187	1.8507e+01	7.4372	15.654785	0.000255	2.546443	0.862758	0.000103
 188	1.8607e+01	7.4854	15.754584	0.000248	2.475708	0.838793	0.000100
 189	1.8706e+01	7.5335	15.852754	0.000244	2.435288	0.825098	0.000099
 190	1.8805e+01	7.5463	15.950516	0.000243	2.425183	0.821674	0.000098
 191	1.8905e+01	7.5976	16.047871	0.000242	2.415079	0.818251	0.000098
 192	1.9005e+01	7.6378	16.144411	0.000239	2.394869	0.811403	0.000097
 193	1.9104e+01	7.6490	16.245839	0.000252	2.516128	0.852487	0.000102
 194	1.9203e+01	7.7260	16.347675	0.000253	2.526233	0.855911	0.000102
 195	1.9303e+01	7.7629	16.444622	0.000240	2.404974	0.814827	0.000097
 196	1.9402e+01	7.7982	16.539533	0.000235	2.354449	0.797709	0.000095
 197	1.9502e+01	7.8046	16.643813	0.000259	2.586862	0.876453	0.000105
 198	1.9602e+01	7.8784	16.743205	0.000247	2.465603	0.835369	0.000100
 199	1.9701e+01	7.8816	16.848706	0.000262	2.617177	0.886724	0.000106
 200	1.9800e+01	7.9522	16.940766	0.000228	2.283714	0.773743	0.000093
 201	1.9900e+01	7.9955	17.045045	0.000259	2.586862	0.876453	0.000105
 202	2.0000e+01	8.0212	17.143622	0.000245	2.445393	0.828522	0.000099
 203	2.0099e+01	8.0693	17.245051	0.000252	2.516128	0.852487	0.000102
 204	2.0198e+01	8.1062	17.340776	0.000237	2.374659	0.804556	0.000096
 205	2.0298e+01	8.1752	17.444241	0.000257	2.566653	0.869605	0.000104
 206	2.0398e+01	8.2024	17.542411	0.000244	2.435288	0.825098	0.000099
 207	2.0497e+01	8.2506	17.640580	0.000244	2.435288	0.825098	0.000099
 208	2.0596e+01	8.2762	17.740786	0.000249	2.485813	0.842216	0.000101
 209	2.0696e+01	8.3035	17.845066	0.000259	2.586862	0.876453	0.000105
 210	2.0796e+01	8.3276	17.945680	0.000250	2.495918	0.845640	0.000101
 211	2.0895e+01	8.3885	18.044664	0.000246	2.455498	0.831945	0.000099
 212	2.0994e+01	8.4399	18.148129	0.000257	2.566653	0.869605	0.000104
 213	2.1094e+01	8.4655	18.244262	0.000238	2.384764	0.807980	0.000097
 214	2.1194e+01	8.4912	18.348949	0.000260	2.596967	0.879876	0.000105
 215	2.1293e+01	8.5554	18.447118	0.000244	2.435288	0.825098	0.000099
 216	2.1392e+01	8.5955	18.548954	0.000253	2.526233	0.855911	0.000102
 217	2.1492e+01	8.6276	18.649160	0.000249	2.485813	0.842216	0.000101
 218	2.1591e+01	8.6885	18.746923	0.000243	2.425183	0.821674	0.000098
 219	2.1691e+01	8.7078	18.844685	0.000243	2.425183	0.821674	0.000098
 220	2.1791e+01	8.7559	18.948150	0.000257	2.566653	0.869605	0.000104
 221	2.1890e+01	8.7880	19.046319	0.000244	2.435288	0.825098	0.000099
 222	2.1989e+01	8.8233	19.143674	0.000242	2.415079	0.818251	0.000098
 223	2.2089e+01	8.8778	19.238992	0.000236	2.364554	0.801133	0.000096
 224	2.2189e+01	8.9115	19.344087	0.000261	2.607072	0.883300	0.000106
 225	2.2288e+01	8.9356	19.442256	0.000244	2.435288	0.825098	0.000099
 226	2.2387e+01	8.9853	19.542870	0.000250	2.495918	0.845640	0.000101
 227	2.2487e+01	9.0350	19.641447	0.000245	2.445393	0.828522	0.000099
 228	2.2587e+01	9.0880	19.743282	0.000253	2.526233	0.855911	0.000102
 229	2.2686e+01	9.1249	19.837786	0.000234	2.344344	0.794285	0.000095
 230	2.2785e+01	9.1313	19.938400	0.000250	2.495918	0.845640	0.000101
 231	2.2885e+01	9.1906	20.037791	0.000247	2.465603	0.835369	0.000100
 232	2.2985e+01	9.2388	20.135553	0.000243	2.425183	0.821674	0.000098
 233	2.3084e+01	9.2612	20.228835	0.000231	2.314029	0.784014	0.000094
 234	2.3183e+01	9.3046	20.332300	0.000257	2.566653	0.869605	0.000104
 235	2.3283e+01	9.3190	20.429247	0.000240	2.404974	0.814827	0.000097
 236	2.3383e+01	9.3880	20.523751	0.000234	2.344344	0.794285	0.000095
 237	2.3482e+01	9.4457	20.623550	0.000248	2.475708	0.838793	0.000100
 238	2.3581e+01	9.4698	20.720497	0.000240	2.404974	0.814827	0.000097
 239	2.3681e+01	9.5083	20.818259	0.000243	2.425183	0.821674	0.000098
 240	2.3780e+01	9.5307	20.912763	0.000234	2.344344	0.794285	0.000095
 241	2.3880e+01	9.5805	21.011340	0.000245	2.445393	0.828522	0.000099
 242	2.3980e+01	9.6190	21.101770	0.000224	2.243295	0.760049	0.000091
 243	2.4079e+01	9.6735	21.204420	0.000255	2.546443	0.862758	0.000103
 244	2.4178e+01	9.6992	21.298109	0.000232	2.324134	0.787438	0.000094
 245	2.4278e+01	9.7152	21.394242	0.000238	2.384764	0.807980	0.000097
 246	2.4378e+01	9.7730	21.490782	0.000239	2.394869	0.811403	0.000097
 247	2.4477e+01	9.8083	21.586915	0.000238	2.384764	0.807980	0.000097
 248	2.4576e+01	9.8596	21.681418	0.000234	2.344344	0.794285	0.000095
 249	2.4676e+01	9.8933	21.779995	0.000245	2.445393	0.828522	0.000099
 250	2.4776e+01	9.9462	21.872055	0.000228	2.283714	0.773743	0.000093
 251	2.4875e+01	9.9751	21.971039	0.000246	2.455498	0.831945	0.000099
 252	2.4974e+01	10.0265	22.063098	0.000228	2.283714	0.773743	0.000093
 253	2.5074e+01	10.0441	22.160046	0.000240	2.404974	0.814827	0.000097
 254	2.5174e+01	10.0938	22.250883	0.000225	2.253400	0.763472	0.000091
 255	2.5273e+01	10.1548	22.348238	0.000242	2.415079	0.818251	0.000098
 256	2.5372e+01	10.1532	22.446000	-0.000243	-2.425183	-0.821674	0.000098
 257	2.5472e+01	10.2109	22.540096	0.000233	2.334239	0.790862	0.000095
 258	2.5572e+01	10.2703	22.632971	0.000230	2.303924	0.780591	0.000093
 259	2.5671e+01	10.2928	22.733584	0.000250	2.495918	0.845640	0.000101
 260	2.5770e+01	10.3585	22.827680	0.000233	2.334239	0.790862	0.000095
 261	2.5870e+01	10.3553	22.925850	-0.000244	-2.435288	-0.825098	0.000099
 262	2.5970e+01	10.4291	23.018317	0.000229	2.293819	0.777167	0.000093
 263	2.6069e+01	10.4452	23.111598	0.000231	2.314029	0.784014	0.000094
 264	2.6169e+01	10.4708	23.211804	0.000249	2.485813	0.842216	0.000101
 265	2.6268e+01	10.5478	23.304271	0.000229	2.293819	0.777167	0.000093
 266	2.6367e+01	10.5927	23.397960	0.000232	2.324134	0.787438	0.000094
 267	2.6467e+01	10.6120	23.493278	0.000236	2.364554	0.801133	0.000096
 268	2.6567e+01	10.6489	23.585745	0.000229	2.293819	0.777167	0.000093
 269	2.6666e+01	10.6954	23.682692	0.000240	2.404974	0.814827	0.000097
 270	2.6765e+01	10.7628	23.778825	0.000238	2.384764	0.807980	0.000097
 271	2.6865e+01	10.8029	23.865182	0.000214	2.142245	0.725812	0.000087
 272	2.6965e+01	10.8254	23.963351	0.000244	2.435288	0.825098	0.000099
 273	2.7064e+01	10.8671	24.059077	0.000237	2.374659	0.804556	0.000096
 274	2.7163e+01	10.8992	24.154395	0.000236	2.364554	0.801133	0.000096
 275	2.7263e+01	10.9441	24.245232	0.000225	2.253400	0.763472	0.000091
 276	2.7363e+01	10.9730	24.342180	0.000240	2.404974	0.814827	0.000097
 277	2.7462e+01	11.0307	24.434647	0.000229	2.293819	0.777167	0.000093
 278	2.7561e+01	11.0275	24.534038	-0.000247	-2.465603	-0.835369	0.000100
 279	2.7661e+01	11.0901	24.620395	0.000214	2.142245	0.725812	0.000087
 280	2.7761e+01	11.1366	24.714084	0.000232	2.324134	0.787438	0.000094
 281	2.7860e+01	11.1783	24.808994	0.000235	2.354449	0.797709	0.000095
 282	2.7959e+01	11.1863	24.905535	0.000239	2.394869	0.811403	0.000097
 283	2.8059e+01	11.2296	24.991077	0.000212	2.122036	0.718965	0.000086
 284	2.8159e+01	11.3147	25.084358	0.000231	2.314029	0.784014	0.000094
 285	2.8258e+01	11.3387	25.178454	0.000233	2.334239	0.790862	0.000095
 286	2.8358e+01	11.3820	25.271736	0.000231	2.314029	0.784014	0.000094
 287	2.8457e+01	11.4077	25.369498	0.000243	2.425183	0.821674	0.000098
 288	2.8556e+01	11.4542	25.454632	0.000211	2.111931	0.715541	0.000086
 289	2.8656e+01	11.4863	25.549543	0.000235	2.354449	0.797709	0.000095
 290	2.8756e+01	11.5457	25.646491	0.000240	2.404974	0.814827	0.000097
 291	2.8855e+01	11.5826	25.739772	0.000231	2.314029	0.784014	0.000094
 292	2.8954e+01	11.5906	25.824907	0.000211	2.111931	0.715541	0.000086
 293	2.9054e+01	11.6387	25.918596	0.000232	2.324134	0.787438	0.000094
 294	2.9154e+01	11.7077	26.011470	0.000230	2.303924	0.780591	0.000093
 295	2.9253e+01	11.7462	26.105973	0.000234	2.344344	0.794285	0.000095
 296	2.9352e+01	11.7847	26.197218	0.000226	2.263505	0.766896	0.000092
 297	2.9452e+01	11.8200	26.291314	0.000233	2.334239	0.790862	0.000095
 298	2.9552e+01	11.8521	26.383781	0.000229	2.293819	0.777167	0.000093
 299	2.9651e+01	11.8745	26.477470	0.000232	2.324134	0.787438	0.000094
 300	2.9750e+01	11.9339	26.569936	0.000229	2.293819	0.777167	0.000093
 301	2.9850e+01	11.9740	26.656293	0.000214	2.142245	0.725812	0.000087
 302	2.9950e+01	12.0285	26.744279	0.000218	2.182665	0.739507	0.000088
 303	3.0049e+01	12.0622	26.842856	0.000245	2.445393	0.828522	0.000099
 304	3.0148e+01	12.0927	26.938989	0.000238	2.384764	0.807980	0.000097
 305	3.0248e+01	12.1617	27.032677	0.000232	2.324134	0.787438	0.000094
 306	3.0348e+01	12.1681	27.123515	0.000225	2.253400	0.763472	0.000091
 307	3.0447e+01	12.2275	27.217611	0.000233	2.334239	0.790862	0.000095
 308	3.0547e+01	12.2371	27.305190	0.000217	2.172560	0.736083	0.000088
 309	3.0646e+01	12.2932	27.408655	0.000257	2.566653	0.869605	0.000104
 310	3.0745e+01	12.3285	27.492160	0.000207	2.071511	0.701847	0.000084
 311	3.0845e+01	12.3783	27.582997	0.000225	2.253400	0.763472	0.000091
 312	3.0945e+01	12.4312	27.679537	0.000239	2.394869	0.811403	0.000097
 313	3.1044e+01	12.4505	27.774448	0.000235	2.354449	0.797709	0.000095
 314	3.1143e+01	12.4906	27.865693	0.000226	2.263505	0.766896	0.000092
 315	3.1243e+01	12.5291	27.956938	0.000226	2.263505	0.766896	0.000092
 316	3.1343e+01	12.5852	28.047775	0.000225	2.253400	0.763472	0.000091
 317	3.1442e+01	12.6077	28.145130	0.000242	2.415079	0.818251	0.000098
 318	3.1541e+01	12.6478	28.238004	0.000230	2.303924	0.780591	0.000093
 319	3.1641e+01	12.6815	28.328434	0.000224	2.243295	0.760049	0.000091
 320	3.1741e+01	12.7440	28.427826	0.000247	2.465603	0.835369	0.000100
 321	3.1840e+01	12.7761	28.521922	0.000233	2.334239	0.790862	0.000095
 322	3.1939e+01	12.8114	28.613981	0.000228	2.283714	0.773743	0.000093
 323	3.2039e+01	12.8547	28.710114	0.000238	2.384764	0.807980	0.000097
 324	3.2139e+01	12.9189	28.805840	0.000237	2.374659	0.804556	0.000096
 325	3.2238e+01	12.9446	28.901158	0.000236	2.364554	0.801133	0.000096
 326	3.2337e+01	12.9638	28.991180	0.000223	2.233190	0.756625	0.000090
 327	3.2437e+01	12.9991	29.079166	0.000218	2.182665	0.739507	0.000088
 328	3.2536e+01	13.0456	29.181002	0.000253	2.526233	0.855911	0.000102
 329	3.2636e+01	13.0697	29.272247	0.000226	2.263505	0.766896	0.000092
 330	3.2736e+01	13.1322	29.368787	0.000239	2.394869	0.811403	0.000097
 331	3.2835e+01	13.1627	29.467771	0.000246	2.455498	0.831945	0.000099
 332	3.2934e+01	13.2173	29.561867	0.000233	2.334239	0.790862	0.000095
 333	3.3034e+01	13.2189	29.648631	0.000215	2.152350	0.729236	0.000087
 334	3.3133e+01	13.2847	29.749652	0.000251	2.506023	0.849064	0.000102
 335	3.3233e+01	13.3167	29.845378	0.000237	2.374659	0.804556	0.000096
 336	3.3333e+01	13.3520	29.940289	0.000235	2.354449	0.797709	0.000095
 337	3.3432e+01	13.4226	30.040495	0.000249	2.485813	0.842216	0.000101
 338	3.3532e+01	13.4274	30.132962	0.000229	2.293819	0.777167	0.000093
 339	3.3631e+01	13.4643	30.233983	0.000251	2.506023	0.849064	0.000102
 340	3.3730e+01	13.5205	30.323598	0.000222	2.223085	0.753202	0.000090
 341	3.3830e+01	13.5590	30.420545	0.000240	2.404974	0.814827	0.000097
 342	3.3929e+01	13.5959	30.509346	0.000220	2.202875	0.746354	0.000089
 343	3.4029e+01	13.6568	30.612811	0.000257	2.566653	0.869605	0.000104
 344	3.4129e+01	13.6633	30.706093	0.000231	2.314029	0.784014	0.000094
 345	3.4228e+01	13.7162	30.796115	0.000223	2.233190	0.756625	0.000090
 346	3.4328e+01	13.7691	30.890619	0.000234	2.344344	0.794285	0.000095
 347	3.4427e+01	13.7996	30.992047	0.000252	2.516128	0.852487	0.000102
 348	3.4526e+01	13.8445	31.083699	0.000227	2.273610	0.770320	0.000092
 349	3.4626e+01	13.9023	31.182683	0.000246	2.455498	0.831945	0.000099
 350	3.4725e+01	13.9552	31.278816	0.000238	2.384764	0.807980	0.000097
 351	3.4825e+01	13.9360	31.374134	-0.000236	-2.364554	-0.801133	0.000096
 352	3.4925e+01	14.0098	31.467416	0.000231	2.314029	0.784014	0.000094
 353	3.5024e+01	14.0499	31.570881	0.000257	2.566653	0.869605	0.000104
 354	3.5123e+01	14.1221	31.655608	0.000210	2.101826	0.712118	0.000085
 355	3.5223e+01	14.1060	31.756222	-0.000250	-2.495918	-0.845640	0.000101
 356	3.5322e+01	14.1766	31.847874	0.000227	2.273610	0.770320	0.000092
 357	3.5422e+01	14.2023	31.946858	0.000246	2.455498	0.831945	0.000099
 358	3.5522e+01	14.2520	32.033622	0.000215	2.152350	0.729236	0.000087
 359	3.5621e+01	14.2953	32.137087	0.000257	2.566653	0.869605	0.000104
 360	3.5721e+01	14.3258	32.231590	0.000234	2.344344	0.794285	0.000095
 361	3.5820e+01	14.3595	32.328945	0.000242	2.415079	0.818251	0.000098
 362	3.5919e+01	14.3996	32.421412	0.000229	2.293819	0.777167	0.000093
 363	3.6019e+01	14.4686	32.522026	0.000250	2.495918	0.845640	0.000101
 364	3.6118e+01	14.4782	32.617344	0.000236	2.364554	0.801133	0.000096
 365	3.6218e+01	14.5087	32.712255	0.000235	2.354449	0.797709	0.000095
 366	3.6318e+01	14.5552	32.813276	0.000251	2.506023	0.849064	0.000102
 367	3.6417e+01	14.5969	32.907372	0.000233	2.334239	0.790862	0.000095
 368	3.6517e+01	14.6434	33.004727	0.000242	2.415079	0.818251	0.000098
 369	3.6616e+01	14.6884	33.100859	0.000238	2.384764	0.807980	0.000097
 370	3.6715e+01	14.7269	33.199436	0.000245	2.445393	0.828522	0.000099
 371	3.6815e+01	14.7589	33.293532	0.000233	2.334239	0.790862	0.000095
 372	3.6914e+01	14.8071	33.389258	0.000237	2.374659	0.804556	0.000096
 373	3.7014e+01	14.8375	33.486613	0.000242	2.415079	0.818251	0.000098
 374	3.7114e+01	14.8600	33.586412	0.000248	2.475708	0.838793	0.000100
 375	3.7213e+01	14.9194	33.680508	0.000233	2.334239	0.790862	0.000095
 376	3.7313e+01	14.9514	33.779085	0.000245	2.445393	0.828522	0.000099
 377	3.7412e+01	15.0012	33.873181	0.000233	2.334239	0.790862	0.000095
 378	3.7511e+01	15.0493	33.972572	0.000247	2.465603	0.835369	0.000100
 379	3.7611e+01	15.0750	34.069520	0.000240	2.404974	0.814827	0.000097
 380	3.7711e+01	15.1343	34.157099	0.000217	2.172560	0.736083	0.000088
 381	3.7810e+01	15.1391	34.254454	0.000242	2.415079	0.818251	0.000098
 382	3.7910e+01	15.2097	34.355474	0.000251	2.506023	0.849064	0.000102
 383	3.8009e+01	15.2161	34.449978	0.000234	2.344344	0.794285	0.000095
 384	3.8108e+01	15.2980	34.547333	0.000242	2.415079	0.818251	0.000098
 385	3.8208e+01	15.3044	34.645502	0.000244	2.435288	0.825098	0.000099
 386	3.8307e+01	15.3605	34.745709	0.000249	2.485813	0.842216	0.000101
 387	3.8407e+01	15.4103	34.843878	0.000244	2.435288	0.825098	0.000099
 388	3.8507e+01	15.4359	34.933494	0.000222	2.223085	0.753202	0.000090
 389	3.8606e+01	15.4792	35.031256	0.000243	2.425183	0.821674	0.000098
 390	3.8706e+01	15.4953	35.120871	0.000222	2.223085	0.753202	0.000090
 391	3.8805e+01	15.5578	35.217819	0.000240	2.404974	0.814827	0.000097
 392	3.8904e+01	15.5931	35.313951	0.000238	2.384764	0.807980	0.000097
 393	3.9004e+01	15.6172	35.408862	0.000235	2.354449	0.797709	0.000095
 394	3.9103e+01	15.6846	35.502958	0.000233	2.334239	0.790862	0.000095
 395	3.9203e+01	15.7327	35.603979	0.000251	2.506023	0.849064	0.000102
 396	3.9303e+01	15.7536	35.698076	0.000233	2.334239	0.790862	0.000095
 397	3.9402e+01	15.7937	35.793801	0.000237	2.374659	0.804556	0.000096
 398	3.9502e+01	15.8161	35.888712	0.000235	2.354449	0.797709	0.000095
 399	3.9601e+01	15.8899	35.979957	0.000226	2.263505	0.766896	0.000092
 400	3.9700e+01	15.9172	36.076089	0.000238	2.384764	0.807980	0.000097
 401	3.9800e+01	15.9381	36.170186	0.000233	2.334239	0.790862	0.000095
 402	3.9900e+01	16.0199	36.263467	0.000231	2.314029	0.784014	0.000094
 403	3.9999e+01	16.0407	36.355526	0.000228	2.283714	0.773743	0.000093
 404	4.0099e+01	16.0696	36.445549	0.000223	2.233190	0.756625	0.000090
 405	4.0198e+01	16.0792	36.542089	0.000239	2.394869	0.811403	0.000097
 406	4.0297e+01	16.1498	36.628039	0.000213	2.132140	0.722389	0.000086
 407	4.0397e+01	16.1771	36.727023	0.000246	2.455498	0.831945	0.000099
 408	4.0496e+01	16.2348	36.815416	0.000219	2.192770	0.742931	0.000089
 409	4.0596e+01	16.2637	36.910327	0.000235	2.354449	0.797709	0.000095
 410	4.0696e+01	16.3054	37.000757	0.000224	2.243295	0.760049	0.000091
 411	4.0795e+01	16.3327	37.093224	0.000229	2.293819	0.777167	0.000093
 412	4.0895e+01	16.3921	37.182839	0.000222	2.223085	0.753202	0.000090
 413	4.0994e+01	16.4322	37.278565	0.000237	2.374659	0.804556	0.000096
 414	4.1093e+01	16.4819	37.373883	0.000236	2.364554	0.801133	0.000096
 415	4.1193e+01	16.5011	37.461869	0.000218	2.182665	0.739507	0.000088
 416	4.1292e+01	16.5380	37.553928	0.000228	2.283714	0.773743	0.000093
 417	4.1392e+01	16.6118	37.645580	0.000227	2.273610	0.770320	0.000092
 418	4.1492e+01	16.6182	37.735196	0.000222	2.223085	0.753202	0.000090
 419	4.1591e+01	16.6953	37.824811	0.000222	2.223085	0.753202	0.000090
 420	4.1691e+01	16.7161	37.920536	0.000237	2.374659	0.804556	0.000096
 421	4.1790e+01	16.7803	38.007708	0.000216	2.162455	0.732660	0.000088
 422	4.1889e+01	16.8059	38.098545	0.000225	2.253400	0.763472	0.000091
 423	4.1989e+01	16.8525	38.194271	0.000237	2.374659	0.804556	0.000096
 424	4.2089e+01	16.8669	38.282664	0.000219	2.192770	0.742931	0.000089
 425	4.2188e+01	16.9182	38.373909	0.000226	2.263505	0.766896	0.000092
 426	4.2288e+01	16.9616	38.466783	0.000230	2.303924	0.780591	0.000093
 427	4.2387e+01	16.9840	38.559657	0.000230	2.303924	0.780591	0.000093
 428	4.2486e+01	17.0305	38.647236	0.000217	2.172560	0.736083	0.000088
 429	4.2586e+01	17.0979	38.735222	0.000218	2.182665	0.739507	0.000088
 430	4.2685e+01	17.1236	38.830540	0.000236	2.364554	0.801133	0.000096
 431	4.2785e+01	17.1557	38.922599	0.000228	2.283714	0.773743	0.000093
 432	4.2885e+01	17.1829	39.008956	0.000214	2.142245	0.725812	0.000087
 433	4.2984e+01	17.2134	39.100201	0.000226	2.263505	0.766896	0.000092
 434	4.3084e+01	17.2888	39.191853	0.000227	2.273610	0.770320	0.000092
 435	4.3183e+01	17.3177	39.279024	0.000216	2.162455	0.732660	0.000088
 436	4.3282e+01	17.3562	39.372713	0.000232	2.324134	0.787438	0.000094
 437	4.3382e+01	17.3883	39.458662	0.000213	2.132140	0.722389	0.000086
 438	4.3481e+01	17.4348	39.550314	0.000227	2.273610	0.770320	0.000092
 439	4.3581e+01	17.4733	39.644817	0.000234	2.344344	0.794285	0.000095
 440	4.3681e+01	17.5086	39.730767	0.000213	2.132140	0.722389	0.000086
 441	4.3780e+01	17.5487	39.825270	0.000234	2.344344	0.794285	0.000095
 442	4.3880e+01	17.5952	39.913664	0.000219	2.192770	0.742931	0.000089
 443	4.3979e+01	17.6225	40.003686	0.000223	2.233190	0.756625	0.000090
 444	4.4078e+01	17.6658	40.090450	0.000215	2.152350	0.729236	0.000087
 445	4.4178e+01	17.7252	40.185361	0.000235	2.354449	0.797709	0.000095
 446	4.4278e+01	17.7589	40.266422	0.000201	2.010881	0.681305	0.000081
 447	4.4377e+01	17.7621	40.358889	0.000229	2.293819	0.777167	0.000093
 448	4.4477e+01	17.8391	40.444838	0.000213	2.132140	0.722389	0.000086
 449	4.4576e+01	17.8824	40.535676	0.000225	2.253400	0.763472	0.000091
 450	4.4675e+01	17.8952	40.617959	0.000204	2.041196	0.691576	0.000083
 451	4.4775e+01	17.9401	40.710833	0.000230	2.303924	0.780591	0.000093
 452	4.4874e+01	17.9947	40.795153	0.000209	2.091721	0.708694	0.000085
 453	4.4974e+01	18.0268	40.885583	0.000224	2.243295	0.760049	0.000091
 454	4.5074e+01	18.0893	40.976013	0.000224	2.243295	0.760049	0.000091
 455	4.5173e+01	18.1054	41.061148	0.000211	2.111931	0.715541	0.000086
 456	4.5273e+01	18.1519	41.150763	0.000222	2.223085	0.753202	0.000090
 457	4.5372e+01	18.1695	41.236712	0.000213	2.132140	0.722389	0.000086
 458	4.5471e+01	18.2305	41.327142	0.000224	2.243295	0.760049	0.000091
 459	4.5571e+01	18.2530	41.414721	0.000217	2.172560	0.736083	0.000088
 460	4.5670e+01	18.3075	41.499041	0.000209	2.091721	0.708694	0.000085
 461	4.5770e+01	18.3653	41.590693	0.000227	2.273610	0.770320	0.000092
 462	4.5870e+01	18.3845	41.679494	0.000220	2.202875	0.746354	0.000089
 463	4.5969e+01	18.4262	41.771960	0.000229	2.293819	0.777167	0.000093
 464	4.6069e+01	18.4663	41.853021	0.000201	2.010881	0.681305	0.000081
 465	4.6168e+01	18.5401	41.945896	0.000230	2.303924	0.780591	0.000093
 466	4.6267e+01	18.5578	42.031845	0.000213	2.132140	0.722389	0.000086
 467	4.6367e+01	18.5898	42.118609	0.000215	2.152350	0.729236	0.000087
 468	4.6467e+01	18.6267	42.205780	0.000216	2.162455	0.732660	0.000088
 469	4.6566e+01	18.6685	42.290100	0.000209	2.091721	0.708694	0.000085
 470	4.6666e+01	18.7118	42.383381	0.000231	2.314029	0.784014	0.000094
 471	4.6765e+01	18.7775	42.468516	0.000211	2.111931	0.715541	0.000086
 472	4.6864e+01	18.7952	42.553651	0.000211	2.111931	0.715541	0.000086
 473	4.6964e+01	18.8048	42.643673	0.000223	2.233190	0.756625	0.000090
 474	4.7063e+01	18.8562	42.739399	0.000237	2.374659	0.804556	0.000096
 475	4.7163e+01	18.9011	42.823311	0.000208	2.081616	0.705271	0.000084
 476	4.7263e+01	18.9348	42.912519	0.000221	2.212980	0.749778	0.000090
 477	4.7362e+01	18.9588	43.000913	0.000219	2.192770	0.742931	0.000089
 478	4.7462e+01	19.0455	43.084825	0.000208	2.081616	0.705271	0.000084
 479	4.7561e+01	19.0840	43.172811	0.000218	2.182665	0.739507	0.000088
 480	4.7660e+01	19.1000	43.267722	0.000235	2.354449	0.797709	0.000095
 481	4.7760e+01	19.1369	43.346747	0.000196	1.960357	0.664187	0.000079
 482	4.7859e+01	19.1898	43.442879	0.000238	2.384764	0.807980	0.000097
 483	4.7959e+01	19.2123	43.524755	0.000203	2.031091	0.688152	0.000082
 484	4.8059e+01	19.2556	43.617222	0.000229	2.293819	0.777167	0.000093
 485	4.8158e+01	19.3053	43.708059	0.000225	2.253400	0.763472	0.000091
 486	4.8258e+01	19.3454	43.796860	0.000220	2.202875	0.746354	0.000089
 487	4.8357e+01	19.3695	43.881995	0.000211	2.111931	0.715541	0.000086
 488	4.8456e+01	19.4224	43.977313	0.000236	2.364554	0.801133	0.000096
 489	4.8556e+01	19.4674	44.071002	0.000232	2.324134	0.787438	0.000094
 490	4.8656e+01	19.5027	44.155322	0.000209	2.091721	0.708694	0.000085
 491	4.8755e+01	19.5460	44.247788	0.000229	2.293819	0.777167	0.000093
 492	4.8855e+01	19.5460	44.337404	-0.000222	-2.223085	-0.753202	0.000090
 493	4.8954e+01	19.5989	44.429056	0.000227	2.273610	0.770320	0.000092
 494	4.9053e+01	19.6406	44.510524	0.000202	2.020986	0.684729	0.000082
 495	4.9153e+01	19.6807	44.602584	0.000228	2.283714	0.773743	0.000093
 496	4.9252e+01	19.7096	44.694643	0.000228	2.283714	0.773743	0.000093
 497	4.9352e+01	19.7786	44.792813	0.000244	2.435288	0.825098	0.000099
 498	4.9452e+01	19.8395	44.879984	0.000216	2.162455	0.732660	0.000088
 499	4.9551e+01	19.8764	44.968377	0.000219	2.192770	0.742931	0.000089
 500	4.9651e+01	19.8845	45.059622	0.000226	2.263505	0.766896	0.000092
 501	4.9750e+01	19.9342	45.156570	0.000240	2.404974	0.814827	0.000097
 502	4.9849e+01	19.9775	45.244963	0.000219	2.192770	0.742931	0.000089
 503	4.9949e+01	20.0208	45.332542	0.000217	2.172560	0.736083	0.000088
 504	5.0048e+01	19.9968	45.264108	0.000170	1.697628	0.575172	-0.000069
 505	5.0148e+01	19.9326	45.189972	0.000184	1.839097	0.623103	-0.000075
 506	5.0248e+01	19.8957	45.104837	0.000211	2.111931	0.715541	-0.000086
 507	5.0347e+01	19.8604	45.023369	0.000202	2.020986	0.684729	-0.000082
 508	5.0447e+01	19.8235	44.951269	0.000179	1.788573	0.605985	-0.000072
 509	5.0546e+01	19.7802	44.874281	0.000191	1.909832	0.647069	-0.000077
 510	5.0645e+01	19.7256	44.789554	0.000210	2.101826	0.712118	-0.000085
 511	5.0745e+01	19.7192	44.712159	0.000192	1.919937	0.650492	-0.000078
 512	5.0844e+01	19.6358	44.628654	0.000207	2.071511	0.701847	-0.000084
 513	5.0944e+01	19.6246	44.556554	0.000179	1.788573	0.605985	-0.000072
 514	5.1044e+01	19.5716	44.474271	0.000204	2.041196	0.691576	-0.000083
 515	5.1143e+01	19.5187	44.391580	0.000205	2.051301	0.695000	-0.000083
 516	5.1242e+01	19.4818	44.311334	0.000199	1.990671	0.674458	-0.000081
 517	5.1342e+01	19.4754	44.233531	0.000193	1.930042	0.653916	-0.000078
 518	5.1441e+01	19.4369	44.150433	0.000206	2.061406	0.698423	-0.000084
 519	5.1541e+01	19.3839	44.065299	0.000211	2.111931	0.715541	-0.000086
 520	5.1641e+01	19.3246	43.989940	0.000187	1.869412	0.633374	-0.000076
 521	5.1740e+01	19.2941	43.913767	0.000189	1.889622	0.640221	-0.000077
 522	5.1840e+01	19.2877	43.831077	0.000205	2.051301	0.695000	-0.000083
 523	5.1939e+01	19.2412	43.747572	0.000207	2.071511	0.701847	-0.000084
 524	5.2038e+01	19.1786	43.662437	0.000211	2.111931	0.715541	-0.000086
 525	5.2138e+01	19.1529	43.581783	0.000200	2.000776	0.677881	-0.000081
 526	5.2237e+01	19.1144	43.503166	0.000195	1.950252	0.660763	-0.000079
 527	5.2337e+01	19.0503	43.418846	0.000209	2.091721	0.708694	-0.000085
 528	5.2437e+01	19.0455	43.338600	0.000199	1.990671	0.674458	-0.000081
 529	5.2536e+01	18.9845	43.255909	0.000205	2.051301	0.695000	-0.000083
 530	5.2636e+01	18.9620	43.176885	0.000196	1.960357	0.664187	-0.000079
 531	5.2735e+01	18.8818	43.095824	0.000201	2.010881	0.681305	-0.000081
 532	5.2834e+01	18.8754	43.013948	0.000203	2.031091	0.688152	-0.000082
 533	5.2934e+01	18.8080	42.932479	0.000202	2.020986	0.684729	-0.000082
 534	5.3033e+01	18.7968	42.851011	0.000202	2.020986	0.684729	-0.000082
 535	5.3133e+01	18.7567	42.773208	0.000193	1.930042	0.653916	-0.000078
 536	5.3233e+01	18.6989	42.689296	0.000208	2.081616	0.705271	-0.000084
 537	5.3332e+01	18.6861	42.608235	0.000201	2.010881	0.681305	-0.000081
 538	5.3431e+01	18.6267	42.531654	0.000190	1.899727	0.643645	-0.000077
 539	5.3531e+01	18.5947	42.448964	0.000205	2.051301	0.695000	-0.000083
 540	5.3630e+01	18.5337	42.367495	0.000202	2.020986	0.684729	-0.000082
 541	5.3730e+01	18.4888	42.286434	0.000201	2.010881	0.681305	-0.000081
 542	5.3830e+01	18.4808	42.199670	0.000215	2.152350	0.729236	-0.000087
 543	5.3929e+01	18.4407	42.119831	0.000198	1.980567	0.671034	-0.000080
 544	5.4029e+01	18.3861	42.036733	0.000206	2.061406	0.698423	-0.000084
 545	5.4128e+01	18.3412	41.952820	0.000208	2.081616	0.705271	-0.000084
 546	5.4227e+01	18.3043	41.871759	0.000201	2.010881	0.681305	-0.000081
 547	5.4327e+01	18.2626	41.791513	0.000199	1.990671	0.674458	-0.000081
 548	5.4426e+01	18.2385	41.709637	0.000203	2.031091	0.688152	-0.000082
 549	5.4526e+01	18.1968	41.631834	0.000193	1.930042	0.653916	-0.000078
 550	5.4626e+01	18.1503	41.546293	0.000212	2.122036	0.718965	-0.000086
 551	5.4725e+01	18.0974	41.462380	0.000208	2.081616	0.705271	-0.000084
 552	5.4825e+01	18.0476	41.384578	0.000193	1.930042	0.653916	-0.000078
 553	5.4924e+01	18.0444	41.302294	0.000204	2.041196	0.691576	-0.000083
 554	5.5023e+01	17.9786	41.216345	0.000213	2.132140	0.722389	-0.000086
 555	5.5123e+01	17.9482	41.136913	0.000197	1.970462	0.667610	-0.000080
 556	5.5222e+01	17.9257	41.048113	0.000220	2.202875	0.746354	-0.000089
 557	5.5322e+01	17.8679	40.969088	0.000196	1.960357	0.664187	-0.000079
 558	5.5422e+01	17.8391	40.882732	0.000214	2.142245	0.725812	-0.000087
 559	5.5521e+01	17.7958	40.804114	0.000195	1.950252	0.660763	-0.000079
 560	5.5620e+01	17.7364	40.717350	0.000215	2.152350	0.729236	-0.000087
 561	5.5720e+01	17.7123	40.638733	0.000195	1.950252	0.660763	-0.000079
 562	5.5819e+01	17.6722	40.549933	0.000220	2.202875	0.746354	-0.000089
 563	5.5919e+01	17.6353	40.469686	0.000199	1.990671	0.674458	-0.000081
 564	5.6019e+01	17.6000	40.381700	0.000218	2.182665	0.739507	-0.000088
 565	5.6118e+01	17.5680	40.304305	0.000192	1.919937	0.650492	-0.000078
 566	5.6218e+01	17.5182	40.217541	0.000215	2.152350	0.729236	-0.000087
 567	5.6317e+01	17.4701	40.134851	0.000205	2.051301	0.695000	-0.000083
 568	5.6416e+01	17.4075	40.048087	0.000215	2.152350	0.729236	-0.000087
 569	5.6516e+01	17.3899	39.960915	0.000216	2.162455	0.732660	-0.000088
 570	5.6615e+01	17.3514	39.875373	0.000212	2.122036	0.718965	-0.000086
 571	5.6715e+01	17.3257	39.789831	0.000212	2.122036	0.718965	-0.000086
 572	5.6815e+01	17.2567	39.704290	0.000212	2.122036	0.718965	-0.000086
 573	5.6914e+01	17.2279	39.614267	0.000223	2.233190	0.756625	-0.000090
 574	5.7014e+01	17.2102	39.530762	0.000207	2.071511	0.701847	-0.000084
 575	5.7113e+01	17.1364	39.441146	0.000222	2.223085	0.753202	-0.000090
 576	5.7212e+01	17.1252	39.358863	0.000204	2.041196	0.691576	-0.000083
 577	5.7312e+01	17.0562	39.268433	0.000224	2.243295	0.760049	-0.000091
 578	5.7411e+01	17.0225	39.183298	0.000211	2.111931	0.715541	-0.000086
 579	5.7511e+01	16.9920	39.098164	0.000211	2.111931	0.715541	-0.000086
 580	5.7611e+01	16.9487	39.010585	0.000217	2.172560	0.736083	-0.000088
 581	5.7710e+01	16.9134	38.917711	0.000230	2.303924	0.780591	-0.000093
 582	5.7809e+01	16.8829	38.836650	0.000201	2.010881	0.681305	-0.000081
 583	5.7909e+01	16.8316	38.750293	0.000214	2.142245	0.725812	-0.000087
 584	5.8008e+01	16.7851	38.659456	0.000225	2.253400	0.763472	-0.000091
 585	5.8108e+01	16.7305	38.571063	0.000219	2.192770	0.742931	-0.000089
 586	5.8208e+01	16.6904	38.477781	0.000231	2.314029	0.784014	-0.000094
 587	5.8307e+01	16.6920	38.395091	-0.000205	-2.051301	-0.695000	-0.000083
 588	5.8407e+01	16.6327	38.303031	0.000228	2.283714	0.773743	-0.000093
 589	5.8506e+01	16.5974	38.216267	0.000215	2.152350	0.729236	-0.000087
 590	5.8605e+01	16.5445	38.130318	0.000213	2.132140	0.722389	-0.000086
 591	5.8705e+01	16.5124	38.035814	0.000234	2.344344	0.794285	-0.000095
 592	5.8804e+01	16.4819	37.950272	0.000212	2.122036	0.718965	-0.000086
 593	5.8904e+01	16.4322	37.864731	0.000212	2.122036	0.718965	-0.000086
 594	5.9004e+01	16.3969	37.767376	0.000242	2.415079	0.818251	-0.000098
 595	5.9103e+01	16.3455	37.686722	0.000200	2.000776	0.677881	-0.000081
 596	5.9203e+01	16.2926	37.595070	0.000227	2.273610	0.770320	-0.000092
 597	5.9302e+01	16.2733	37.505047	0.000223	2.233190	0.756625	-0.000090
 598	5.9401e+01	16.2348	37.417876	0.000216	2.162455	0.732660	-0.000088
 599	5.9501e+01	16.2092	37.331112	0.000215	2.152350	0.729236	-0.000087
 600	5.9600e+01	16.1771	37.239460	0.000227	2.273610	0.770320	-0.000092
 601	5.9700e+01	16.1241	37.153918	0.000212	2.122036	0.718965	-0.000086
 602	5.9800e+01	16.0696	37.064710	0.000221	2.212980	0.749778	-0.000090
 603	5.9899e+01	16.0295	36.975094	0.000222	2.223085	0.753202	-0.000090
 604	5.9998e+01	16.0183	36.878962	0.000238	2.384764	0.807980	-0.000097
 605	6.0098e+01	15.9445	36.797493	0.000202	2.020986	0.684729	-0.000082
 606	6.0197e+01	15.9060	36.703397	0.000233	2.334239	0.790862	-0.000095
 607	6.0297e+01	15.8819	36.614596	0.000220	2.202875	0.746354	-0.000089
 608	6.0397e+01	15.8306	36.522944	0.000227	2.273610	0.770320	-0.000092
 609	6.0496e+01	15.7905	36.439439	0.000207	2.071511	0.701847	-0.000084
 610	6.0596e+01	15.7391	36.344121	0.000236	2.364554	0.801133	-0.000096
 611	6.0695e+01	15.7167	36.251654	0.000229	2.293819	0.777167	-0.000093
 612	6.0794e+01	15.6557	36.162853	0.000220	2.202875	0.746354	-0.000089
 613	6.0894e+01	15.6445	36.074867	0.000218	2.182665	0.739507	-0.000088
 614	6.0993e+01	15.6060	35.985659	0.000221	2.212980	0.749778	-0.000090
 615	6.1093e+01	15.5402	35.895229	0.000224	2.243295	0.760049	-0.000091
 616	6.1193e+01	15.5161	35.794208	0.000251	2.506023	0.849064	-0.000102
 617	6.1292e+01	15.4889	35.706630	0.000217	2.172560	0.736083	-0.000088
 618	6.1392e+01	15.4263	35.617422	0.000221	2.212980	0.749778	-0.000090
 619	6.1491e+01	15.3990	35.528214	0.000221	2.212980	0.749778	-0.000090
 620	6.1590e+01	15.3573	35.430859	0.000242	2.415079	0.818251	-0.000098
 621	6.1690e+01	15.3060	35.337577	0.000231	2.314029	0.784014	-0.000094
 622	6.1789e+01	15.2755	35.252850	0.000210	2.101826	0.712118	-0.000085
 623	6.1889e+01	15.2563	35.156310	0.000239	2.394869	0.811403	-0.000097
 624	6.1989e+01	15.2161	35.064658	0.000227	2.273610	0.770320	-0.000092
 625	6.2088e+01	15.1680	34.973006	0.000227	2.273610	0.770320	-0.000092
 626	6.2188e+01	15.1279	34.882576	0.000224	2.243295	0.760049	-0.000091
 627	6.2287e+01	15.0782	34.790109	0.000229	2.293819	0.777167	-0.000093
 628	6.2386e+01	15.0317	34.694791	0.000236	2.364554	0.801133	-0.000096
 629	6.2486e+01	15.0124	34.606805	0.000218	2.182665	0.739507	-0.000088
 630	6.2586e+01	14.9514	34.511487	0.000236	2.364554	0.801133	-0.000096
 631	6.2685e+01	14.9113	34.421871	0.000222	2.223085	0.753202	-0.000090
 632	6.2785e+01	14.9001	34.326146	0.000237	2.374659	0.804556	-0.000096
 633	6.2884e+01	14.8440	34.239382	0.000215	2.152350	0.729236	-0.000087
 634	6.2983e+01	14.7798	34.141620	0.000243	2.425183	0.821674	-0.000098
 635	6.3083e+01	14.7638	34.048746	0.000230	2.303924	0.780591	-0.000093
 636	6.3182e+01	14.7397	33.956279	0.000229	2.293819	0.777167	-0.000093
 637	6.3282e+01	14.6948	33.864219	0.000228	2.283714	0.773743	-0.000093
 638	6.3382e+01	14.6354	33.766457	0.000243	2.425183	0.821674	-0.000098
 639	6.3481e+01	14.6049	33.674398	0.000228	2.283714	0.773743	-0.000093
 640	6.3581e+01	14.5616	33.586819	0.000217	2.172560	0.736083	-0.000088
 641	6.3680e+01	14.5247	33.495167	0.000227	2.273610	0.770320	-0.000092
 642	6.3779e+01	14.4702	33.406366	0.000220	2.202875	0.746354	-0.000089
 643	6.3879e+01	14.4156	33.311048	0.000236	2.364554	0.801133	-0.000096
 644	6.3978e+01	14.4221	33.220618	-0.000224	-2.243295	-0.760049	-0.000091
 645	6.4078e+01	14.3755	33.128151	0.000229	2.293819	0.777167	-0.000093
 646	6.4177e+01	14.3274	33.030389	0.000243	2.425183	0.821674	-0.000098
 647	6.4277e+01	14.2825	32.944033	0.000214	2.142245	0.725812	-0.000087
 648	6.4376e+01	14.2600	32.844234	0.000248	2.475708	0.838793	-0.000100
 649	6.4476e+01	14.2199	32.757062	0.000216	2.162455	0.732660	-0.000088
 650	6.4576e+01	14.1509	32.665003	0.000228	2.283714	0.773743	-0.000093
 651	6.4675e+01	14.1205	32.574980	0.000223	2.233190	0.756625	-0.000090
 652	6.4775e+01	14.0771	32.480069	0.000235	2.354449	0.797709	-0.000095
 653	6.4874e+01	14.0595	32.390047	0.000223	2.233190	0.756625	-0.000090
 654	6.4974e+01	14.0001	32.303283	0.000215	2.152350	0.729236	-0.000087
 655	6.5073e+01	13.9568	32.212038	0.000226	2.263505	0.766896	-0.000092
 656	6.5172e+01	13.9103	32.121608	0.000224	2.243295	0.760049	-0.000091
 657	6.5272e+01	13.8927	32.027919	0.000232	2.324134	0.787438	-0.000094
 658	6.5371e+01	13.8558	31.935860	0.000228	2.283714	0.773743	-0.000093
 659	6.5471e+01	13.7980	31.847874	0.000218	2.182665	0.739507	-0.000088
 660	6.5570e+01	13.7579	31.758258	0.000222	2.223085	0.753202	-0.000090
 661	6.5670e+01	13.7178	31.667421	0.000225	2.253400	0.763472	-0.000091
 662	6.5769e+01	13.6825	31.575769	0.000227	2.273610	0.770320	-0.000092
 663	6.5869e+01	13.6504	31.489005	0.000215	2.152350	0.729236	-0.000087
 664	6.5969e+01	13.6183	31.397353	0.000227	2.273610	0.770320	-0.000092
 665	6.6068e+01	13.5574	31.307330	0.000223	2.233190	0.756625	-0.000090
 666	6.6168e+01	13.5221	31.211605	0.000237	2.374659	0.804556	-0.000096
 667	6.6267e+01	13.5044	31.128099	0.000207	2.071511	0.701847	-0.000084
 668	6.6367e+01	13.4435	31.032781	0.000236	2.364554	0.801133	-0.000096
 669	6.6466e+01	13.4114	30.945610	0.000216	2.162455	0.732660	-0.000088
 670	6.6566e+01	13.3777	30.856809	0.000220	2.202875	0.746354	-0.000089
 671	6.6665e+01	13.3199	30.763935	0.000230	2.303924	0.780591	-0.000093
 672	6.6764e+01	13.2927	30.674727	0.000221	2.212980	0.749778	-0.000090
 673	6.6864e+01	13.2445	30.588778	0.000213	2.132140	0.722389	-0.000086
 674	6.6963e+01	13.2333	30.500385	0.000219	2.192770	0.742931	-0.000089
 675	6.7063e+01	13.1611	30.407918	0.000229	2.293819	0.777167	-0.000093
 676	6.7162e+01	13.1290	30.313414	0.000234	2.344344	0.794285	-0.000095
 677	6.7262e+01	13.0825	30.228687	0.000210	2.101826	0.712118	-0.000085
 678	6.7362e+01	13.0488	30.137850	0.000225	2.253400	0.763472	-0.000091
 679	6.7461e+01	12.9975	30.040495	0.000242	2.415079	0.818251	-0.000098
 680	6.7561e+01	12.9782	29.957397	0.000206	2.061406	0.698423	-0.000084
 681	6.7660e+01	12.9462	29.875114	0.000204	2.041196	0.691576	-0.000083
 682	6.7760e+01	12.8996	29.782647	0.000229	2.293819	0.777167	-0.000093
 683	6.7859e+01	12.8627	29.688958	0.000232	2.324134	0.787438	-0.000094
 684	6.7959e+01	12.7970	29.602602	0.000214	2.142245	0.725812	-0.000087
 685	6.8058e+01	12.7697	29.512172	0.000224	2.243295	0.760049	-0.000091
 686	6.8157e+01	12.7055	29.425408	0.000215	2.152350	0.729236	-0.000087
 687	6.8257e+01	12.6686	29.331719	0.000232	2.324134	0.787438	-0.000094
 688	6.8356e+01	12.6365	29.243733	0.000218	2.182665	0.739507	-0.000088
 689	6.8456e+01	12.6173	29.152488	0.000226	2.263505	0.766896	-0.000092
 690	6.8555e+01	12.5708	29.068168	0.000209	2.091721	0.708694	-0.000085
 691	6.8655e+01	12.5307	28.975701	0.000229	2.293819	0.777167	-0.000093
 692	6.8754e+01	12.5066	28.881605	0.000233	2.334239	0.790862	-0.000095
 693	6.8854e+01	12.4665	28.790768	0.000225	2.253400	0.763472	-0.000091
 694	6.8954e+01	12.4087	28.704004	0.000215	2.152350	0.729236	-0.000087
 695	6.9053e+01	12.3815	28.613167	0.000225	2.253400	0.763472	-0.000091
 696	6.9153e+01	12.3366	28.523144	0.000223	2.233190	0.756625	-0.000090
 697	6.9252e+01	12.3013	28.438824	0.000209	2.091721	0.708694	-0.000085
 698	6.9352e+01	12.2756	28.341876	0.000240	2.404974	0.814827	-0.000097
 699	6.9451e+01	12.1890	28.256334	0.000212	2.122036	0.718965	-0.000086
 700	6.9550e+01	12.1729	28.167534	0.000220	2.202875	0.746354	-0.000089
 701	6.9650e+01	12.1280	28.077918	0.000222	2.223085	0.753202	-0.000090
 702	6.9749e+01	12.0879	27.992784	0.000211	2.111931	0.715541	-0.000086
 703	6.9849e+01	12.0526	27.898688	0.000233	2.334239	0.790862	-0.000095
 704	6.9948e+01	12.0173	27.810294	0.000219	2.192770	0.742931	-0.000089
 705	7.0048e+01	11.9820	27.724752	0.000212	2.122036	0.718965	-0.000086
 706	7.0147e+01	11.9259	27.633915	0.000225	2.253400	0.763472	-0.000091
 707	7.0247e+01	11.8874	27.547966	0.000213	2.132140	0.722389	-0.000086
 708	7.0347e+01	11.8713	27.457943	0.000223	2.233190	0.756625	-0.000090
 709	7.0446e+01	11.7991	27.364662	0.000231	2.314029	0.784014	-0.000094
 710	7.0546e+01	11.7670	27.275454	0.000221	2.212980	0.749778	-0.000090
 711	7.0645e+01	11.7350	27.196429	0.000196	1.960357	0.664187	-0.000079
 712	7.0745e+01	11.6949	27.099074	0.000242	2.415079	0.818251	-0.000098
 713	7.0844e+01	11.6644	27.007015	0.000228	2.283714	0.773743	-0.000093
 714	7.0944e+01	11.6179	26.921473	0.000212	2.122036	0.718965	-0.000086
 715	7.1043e+01	11.5569	26.837153	0.000209	2.091721	0.708694	-0.000085
 716	7.1142e+01	11.5296	26.743464	0.000232	2.324134	0.787438	-0.000094
 717	7.1242e+01	11.4959	26.654256	0.000221	2.212980	0.749778	-0.000090
 718	7.1341e+01	11.4735	26.565048	0.000221	2.212980	0.749778	-0.000090
 719	7.1441e+01	11.4221	26.477877	0.000216	2.162455	0.732660	-0.000088
 720	7.1540e+01	11.4045	26.387039	0.000225	2.253400	0.763472	-0.000091
 721	7.1640e+01	11.3499	26.298239	0.000220	2.202875	0.746354	-0.000089
 722	7.1740e+01	11.3066	26.207401	0.000225	2.253400	0.763472	-0.000091
 723	7.1839e+01	11.2601	26.114527	0.000230	2.303924	0.780591	-0.000093
 724	7.1939e+01	11.2120	26.027356	0.000216	2.162455	0.732660	-0.000088
 725	7.2038e+01	11.1510	25.937741	0.000222	2.223085	0.753202	-0.000090
 726	7.2138e+01	11.1398	25.842422	0.000236	2.364554	0.801133	-0.000096
 727	7.2237e+01	11.1013	25.751178	0.000226	2.263505	0.766896	-0.000092
 728	7.2337e+01	11.0756	25.664821	0.000214	2.142245	0.725812	-0.000087
 729	7.2436e+01	11.0163	25.574391	0.000224	2.243295	0.760049	-0.000091
 730	7.2535e+01	10.9762	25.484776	0.000222	2.223085	0.753202	-0.000090
 731	7.2635e+01	10.9425	25.394753	0.000223	2.233190	0.756625	-0.000090
 732	7.2734e+01	10.8687	25.304730	0.000223	2.233190	0.756625	-0.000090
 733	7.2834e+01	10.8831	25.211449	-0.000231	-2.314029	-0.784014	-0.000094
 734	7.2933e+01	10.8270	25.120611	0.000225	2.253400	0.763472	-0.000091
 735	7.3033e+01	10.7788	25.026515	0.000233	2.334239	0.790862	-0.000095
 736	7.3132e+01	10.7291	24.937715	0.000220	2.202875	0.746354	-0.000089
 737	7.3232e+01	10.7034	24.844026	0.000232	2.324134	0.787438	-0.000094
 738	7.3332e+01	10.6730	24.755225	0.000220	2.202875	0.746354	-0.000089
 739	7.3431e+01	10.6024	24.661536	0.000232	2.324134	0.787438	-0.000094
 740	7.3531e+01	10.5831	24.567440	0.000233	2.334239	0.790862	-0.000095
 741	7.3630e+01	10.5494	24.476603	0.000225	2.253400	0.763472	-0.000091
 742	7.3730e+01	10.4676	24.379655	0.000240	2.404974	0.814827	-0.000097
 743	7.3829e+01	10.4516	24.288411	0.000226	2.263505	0.766896	-0.000092
 744	7.3928e+01	10.4371	24.192685	0.000237	2.374659	0.804556	-0.000096
 745	7.4028e+01	10.3826	24.096960	0.000237	2.374659	0.804556	-0.000096
 746	7.4127e+01	10.3264	24.012232	0.000210	2.101826	0.712118	-0.000085
 747	7.4227e+01	10.3024	23.914063	0.000244	2.435288	0.825098	-0.000099
 748	7.4326e+01	10.2671	23.811005	0.000256	2.556548	0.866182	-0.000104
 749	7.4426e+01	10.2029	23.722204	0.000220	2.202875	0.746354	-0.000089
 750	7.4525e+01	10.1564	23.629738	0.000229	2.293819	0.777167	-0.000093
 751	7.4625e+01	10.1420	23.538900	0.000225	2.253400	0.763472	-0.000091
 752	7.4725e+01	10.0970	23.441138	0.000243	2.425183	0.821674	-0.000098
 753	7.4824e+01	10.0617	23.343783	0.000242	2.415079	0.818251	-0.000098
 754	7.4924e+01	10.0216	23.248058	0.000237	2.374659	0.804556	-0.000096
 755	7.5023e+01	9.9719	23.160479	0.000217	2.172560	0.736083	-0.000088
 756	7.5123e+01	9.9206	23.057014	0.000257	2.566653	0.869605	-0.000104
 757	7.5222e+01	9.9045	22.967399	0.000222	2.223085	0.753202	-0.000090
 758	7.5322e+01	9.8532	22.872488	0.000235	2.354449	0.797709	-0.000095
 759	7.5421e+01	9.8163	22.780021	0.000229	2.293819	0.777167	-0.000093
 760	7.5520e+01	9.7842	22.684703	0.000236	2.364554	0.801133	-0.000096
 761	7.5620e+01	9.7553	22.589385	0.000236	2.364554	0.801133	-0.000096
 762	7.5719e+01	9.6880	22.492030	0.000242	2.415079	0.818251	-0.000098
 763	7.5819e+01	9.6430	22.400785	0.000226	2.263505	0.766896	-0.000092
 764	7.5918e+01	9.6158	22.308726	0.000228	2.283714	0.773743	-0.000093
 765	7.6018e+01	9.5917	22.212593	0.000238	2.384764	0.807980	-0.000097
 766	7.6118e+01	9.5372	22.114016	0.000245	2.445393	0.828522	-0.000099
 767	7.6217e+01	9.5083	22.018698	0.000236	2.364554	0.801133	-0.000096
 768	7.6317e+01	9.4650	21.922972	0.000237	2.374659	0.804556	-0.000096
 769	7.6416e+01	9.4168	21.826840	0.000238	2.384764	0.807980	-0.000097
 770	7.6516e+01	9.4024	21.730299	0.000239	2.394869	0.811403	-0.000097
 771	7.6615e+01	9.3527	21.637833	0.000229	2.293819	0.777167	-0.000093
 772	7.6715e+01	9.3094	21.540885	0.000240	2.404974	0.814827	-0.000097
 773	7.6814e+01	9.2709	21.441086	0.000248	2.475708	0.838793	-0.000100
 774	7.6913e+01	9.2115	21.347397	0.000232	2.324134	0.787438	-0.000094
 775	7.7013e+01	9.1698	21.250857	0.000239	2.394869	0.811403	-0.000097
 776	7.7112e+01	9.1457	21.157168	0.000232	2.324134	0.787438	-0.000094
 777	7.7212e+01	9.1040	21.063072	0.000233	2.334239	0.790862	-0.000095
 778	7.7311e+01	9.0735	20.965717	0.000242	2.415079	0.818251	-0.000098
 779	7.7411e+01	9.0158	20.866326	0.000247	2.465603	0.835369	-0.000100
 780	7.7510e+01	8.9885	20.771822	0.000234	2.344344	0.794285	-0.000095
 781	7.7610e+01	8.9548	20.676912	0.000235	2.354449	0.797709	-0.000095
 782	7.7710e+01	8.8794	20.578335	0.000245	2.445393	0.828522	-0.000099
 783	7.7809e+01	8.8762	20.476499	0.000253	2.526233	0.855911	-0.000102
 784	7.7909e+01	8.8040	20.379144	0.000242	2.415079	0.818251	-0.000098
 785	7.8008e+01	8.7816	20.284641	0.000234	2.344344	0.794285	-0.000095
 786	7.8108e+01	8.7254	20.184434	0.000249	2.485813	0.842216	-0.000101
 787	7.8207e+01	8.7094	20.086265	0.000244	2.435288	0.825098	-0.000099
 788	7.8306e+01	8.6837	19.991761	0.000234	2.344344	0.794285	-0.000095
 789	7.8406e+01	8.6228	19.891962	0.000248	2.475708	0.838793	-0.000100
 790	7.8505e+01	8.5875	19.794200	0.000243	2.425183	0.821674	-0.000098
 791	7.8605e+01	8.5602	19.695216	0.000246	2.455498	0.831945	-0.000099
 792	7.8704e+01	8.5457	19.602749	0.000229	2.293819	0.777167	-0.000093
 793	7.8804e+01	8.4623	19.503358	0.000247	2.465603	0.835369	-0.000100
 794	7.8903e+01	8.4206	19.406003	0.000242	2.415079	0.818251	-0.000098
 795	7.9003e+01	8.3789	19.304575	0.000252	2.516128	0.852487	-0.000102
 796	7.9103e+01	8.3244	19.206812	0.000243	2.425183	0.821674	-0.000098
 797	7.9202e+01	8.3244	19.108235	0.000245	2.445393	0.828522	-0.000099
 798	7.9302e+01	8.2506	19.008029	0.000249	2.485813	0.842216	-0.000101
 799	7.9401e+01	8.2361	18.911896	0.000238	2.384764	0.807980	-0.000097
 800	7.9501e+01	8.1912	18.811283	0.000250	2.495918	0.845640	-0.000101
 801	7.9600e+01	8.1351	18.718409	0.000230	2.303924	0.780591	-0.000093
 802	7.9700e+01	8.1110	18.611278	0.000266	2.657597	0.900418	-0.000108
 803	7.9799e+01	8.0484	18.518403	0.000230	2.303924	0.780591	-0.000093
 804	7.9898e+01	8.0292	18.419419	0.000246	2.455498	0.831945	-0.000099
 805	7.9998e+01	7.9939	18.322879	0.000239	2.394869	0.811403	-0.000097
 806	8.0097e+01	7.9410	18.215341	0.000267	2.667702	0.903842	-0.000108
 807	8.0197e+01	7.9057	18.126947	0.000219	2.192770	0.742931	-0.000089
 808	8.0296e+01	7.8447	18.028370	0.000245	2.445393	0.828522	-0.000099
 809	8.0396e+01	7.8174	17.933867	0.000234	2.344344	0.794285	-0.000095
 810	8.0496e+01	7.7869	17.829994	0.000258	2.576757	0.873029	-0.000104
 811	8.0595e+01	7.7372	17.735898	0.000233	2.334239	0.790862	-0.000095
 812	8.0695e+01	7.6875	17.644246	0.000227	2.273610	0.770320	-0.000092
 813	8.0794e+01	7.6682	17.535893	0.000269	2.687912	0.910689	-0.000109
 814	8.0894e+01	7.6522	17.440168	0.000237	2.374659	0.804556	-0.000096
 815	8.0993e+01	7.5704	17.345664	0.000234	2.344344	0.794285	-0.000095
 816	8.1093e+01	7.5287	17.245458	0.000249	2.485813	0.842216	-0.000101
 817	8.1192e+01	7.5174	17.148103	0.000242	2.415079	0.818251	-0.000098
 818	8.1291e+01	7.4821	17.047897	0.000249	2.485813	0.842216	-0.000101
 819	8.1391e+01	7.4388	16.952579	0.000236	2.364554	0.801133	-0.000096
 820	8.1490e+01	7.3795	16.854002	0.000245	2.445393	0.828522	-0.000099
 821	8.1590e+01	7.3570	16.759498	0.000234	2.344344	0.794285	-0.000095
 822	8.1689e+01	7.3410	16.666217	0.000231	2.314029	0.784014	-0.000094
 823	8.1789e+01	7.2800	16.565196	0.000251	2.506023	0.849064	-0.000102
 824	8.1888e+01	7.2223	16.467434	0.000243	2.425183	0.821674	-0.000098
 825	8.1988e+01	7.1581	16.373338	0.000233	2.334239	0.790862	-0.000095
 826	8.2088e+01	7.1501	16.277612	0.000237	2.374659	0.804556	-0.000096
 827	8.2187e+01	7.1164	16.181479	0.000238	2.384764	0.807980	-0.000097
 828	8.2287e+01	7.0779	16.088198	0.000231	2.314029	0.784014	-0.000094
 829	8.2386e+01	7.0137	15.992065	0.000238	2.384764	0.807980	-0.000097
 830	8.2486e+01	6.9912	15.897561	0.000234	2.344344	0.794285	-0.000095
 831	8.2585e+01	6.9479	15.797763	0.000248	2.475708	0.838793	-0.000100
 832	8.2684e+01	6.9175	15.702852	0.000235	2.354449	0.797709	-0.000095
 833	8.2784e+01	6.8806	15.608756	0.000233	2.334239	0.790862	-0.000095
 834	8.2883e+01	6.8340	15.515067	0.000232	2.324134	0.787438	-0.000094
 835	8.2983e+01	6.8132	15.416897	0.000244	2.435288	0.825098	-0.000099
 836	8.3082e+01	6.7538	15.326875	0.000223	2.233190	0.756625	-0.000090
 837	8.3182e+01	6.7233	15.225446	0.000252	2.516128	0.852487	-0.000102
 838	8.3281e+01	6.6768	15.135424	0.000223	2.233190	0.756625	-0.000090
 839	8.3381e+01	6.6110	15.039291	0.000238	2.384764	0.807980	-0.000097
 840	8.3481e+01	6.6191	14.943973	-0.000236	-2.364554	-0.801133	-0.000096
 841	8.3580e+01	6.5180	14.842544	0.000252	2.516128	0.852487	-0.000102
 842	8.3680e+01	6.5052	14.752929	0.000222	2.223085	0.753202	-0.000090
 843	8.3779e+01	6.4554	14.664128	0.000220	2.202875	0.746354	-0.000089
 844	8.3879e+01	6.4041	14.566366	0.000243	2.425183	0.821674	-0.000098
 845	8.3978e+01	6.4073	14.468604	-0.000243	-2.425183	-0.821674	-0.000098
 846	8.4078e+01	6.3479	14.376137	0.000229	2.293819	0.777167	-0.000093
 847	8.4177e+01	6.3175	14.284892	0.000226	2.263505	0.766896	-0.000092
 848	8.4276e+01	6.2774	14.185908	0.000246	2.455498	0.831945	-0.000099
 849	8.4376e+01	6.2517	14.089368	0.000239	2.394869	0.811403	-0.000097
 850	8.4475e+01	6.1955	13.994050	0.000236	2.364554	0.801133	-0.000096
 851	8.4575e+01	6.1490	13.904434	0.000222	2.223085	0.753202	-0.000090
 852	8.4674e+01	6.1153	13.808301	0.000238	2.384764	0.807980	-0.000097
 853	8.4774e+01	6.0977	13.709725	0.000245	2.445393	0.828522	-0.000099
 854	8.4874e+01	6.0223	13.613592	0.000238	2.384764	0.807980	-0.000097
 855	8.4973e+01	5.9790	13.524791	0.000220	2.202875	0.746354	-0.000089
 856	8.5073e+01	5.9517	13.427029	0.000243	2.425183	0.821674	-0.000098
 857	8.5172e+01	5.9308	13.335784	0.000226	2.263505	0.766896	-0.000092
 858	8.5272e+01	5.8843	13.231504	0.000259	2.586862	0.876453	-0.000105
 859	8.5371e+01	5.8137	13.142704	0.000220	2.202875	0.746354	-0.000089
 860	8.5471e+01	5.8041	13.042905	0.000248	2.475708	0.838793	-0.000100
 861	8.5570e+01	5.7480	12.950031	0.000230	2.303924	0.780591	-0.000093
 862	8.5669e+01	5.6950	12.857157	0.000230	2.303924	0.780591	-0.000093
 863	8.5769e+01	5.6774	12.763060	0.000233	2.334239	0.790862	-0.000095
 864	8.5868e+01	5.6196	12.663669	0.000247	2.465603	0.835369	-0.000100
 865	8.5968e+01	5.6148	12.574054	0.000222	2.223085	0.753202	-0.000090
 866	8.6067e+01	5.5571	12.483216	0.000225	2.253400	0.763472	-0.000091
 867	8.6167e+01	5.5234	12.387898	0.000236	2.364554	0.801133	-0.000096
 868	8.6266e+01	5.4849	12.288914	0.000246	2.455498	0.831945	-0.000099
 869	8.6366e+01	5.4223	12.200520	0.000219	2.192770	0.742931	-0.000089
 870	8.6466e+01	5.3950	12.109683	0.000225	2.253400	0.763472	-0.000091
 871	8.6565e+01	5.3533	12.012328	0.000242	2.415079	0.818251	-0.000098
 872	8.6665e+01	5.3004	11.920269	0.000228	2.283714	0.773743	-0.000093
 873	8.6764e+01	5.2956	11.828617	0.000227	2.273610	0.770320	-0.000092
 874	8.6864e+01	5.2218	11.732484	0.000238	2.384764	0.807980	-0.000097
 875	8.6963e+01	5.1977	11.639610	0.000230	2.303924	0.780591	-0.000093
 876	8.7063e+01	5.1704	11.545921	0.000232	2.324134	0.787438	-0.000094
 877	8.7162e+01	5.1528	11.444900	0.000251	2.506023	0.849064	-0.000102
 878	8.7261e+01	5.0790	11.358136	0.000215	2.152350	0.729236	-0.000087
 879	8.7361e+01	5.0774	11.260781	0.000242	2.415079	0.818251	-0.000098
 880	8.7460e+01	5.0245	11.167907	0.000230	2.303924	0.780591	-0.000093
 881	8.7560e+01	4.9699	11.070960	0.000240	2.404974	0.814827	-0.000097
 882	8.7659e+01	4.9170	10.984196	0.000215	2.152350	0.729236	-0.000087
 883	8.7759e+01	4.8849	10.888063	0.000238	2.384764	0.807980	-0.000097
 884	8.7859e+01	4.8384	10.792337	0.000237	2.374659	0.804556	-0.000096
 885	8.7958e+01	4.8063	10.699870	0.000229	2.293819	0.777167	-0.000093
 886	8.8058e+01	4.7662	10.606589	0.000231	2.314029	0.784014	-0.000094
 887	8.8157e+01	4.7293	10.516974	0.000222	2.223085	0.753202	-0.000090
 888	8.8257e+01	4.6956	10.420433	0.000239	2.394869	0.811403	-0.000097
 889	8.8356e+01	4.6346	10.325115	0.000236	2.364554	0.801133	-0.000096
 890	8.8456e+01	4.6074	10.233056	0.000228	2.283714	0.773743	-0.000093
 891	8.8555e+01	4.5576	10.141404	0.000227	2.273610	0.770320	-0.000092
 892	8.8654e+01	4.5223	10.046900	0.000234	2.344344	0.794285	-0.000095
 893	8.8754e+01	4.4774	9.944250	0.000255	2.546443	0.862758	-0.000103
 894	8.8853e+01	4.4309	9.855449	0.000220	2.202875	0.746354	-0.000089
 895	8.8953e+01	4.4277	9.762575	0.000230	2.303924	0.780591	-0.000093
 896	8.9052e+01	4.3651	9.666035	0.000239	2.394869	0.811403	-0.000097
 897	8.9152e+01	4.3378	9.573568	0.000229	2.293819	0.777167	-0.000093
 898	8.9251e+01	4.2624	9.482731	0.000225	2.253400	0.763472	-0.000091
 899	8.9351e+01	4.2576	9.382117	0.000250	2.495918	0.845640	-0.000101
 900	8.9451e+01	4.1935	9.288429	0.000232	2.324134	0.787438	-0.000094
 901	8.9550e+01	4.1614	9.193518	0.000235	2.354449	0.797709	-0.000095
 902	8.9650e+01	4.1213	9.099014	0.000234	2.344344	0.794285	-0.000095
 903	8.9749e+01	4.0844	9.004918	0.000233	2.334239	0.790862	-0.000095
 904	8.9849e+01	4.0443	8.906749	0.000244	2.435288	0.825098	-0.000099
 905	8.9948e+01	3.9913	8.809801	0.000240	2.404974	0.814827	-0.000097
 906	9.0047e+01	3.9641	8.713261	0.000239	2.394869	0.811403	-0.000097
 907	9.0147e+01	3.9159	8.615499	0.000243	2.425183	0.821674	-0.000098
 908	9.0246e+01	3.8903	8.515700	0.000248	2.475708	0.838793	-0.000100
 909	9.0346e+01	3.8566	8.423233	0.000229	2.293819	0.777167	-0.000093
 910	9.0445e+01	3.8245	8.327507	0.000237	2.374659	0.804556	-0.000096
 911	9.0545e+01	3.7571	8.229338	0.000244	2.435288	0.825098	-0.000099
 912	9.0644e+01	3.7379	8.129946	0.000247	2.465603	0.835369	-0.000100
 913	9.0744e+01	3.6881	8.036665	0.000231	2.314029	0.784014	-0.000094
 914	9.0844e+01	3.6368	7.941754	0.000235	2.354449	0.797709	-0.000095
 915	9.0943e+01	3.6111	7.843585	0.000244	2.435288	0.825098	-0.000099
 916	9.1043e+01	3.5614	7.740527	0.000256	2.556548	0.866182	-0.000104
 917	9.1142e+01	3.5454	7.652134	0.000219	2.192770	0.742931	-0.000089
 918	9.1242e+01	3.5004	7.551520	0.000250	2.495918	0.845640	-0.000101
 919	9.1341e+01	3.4315	7.453350	0.000244	2.435288	0.825098	-0.000099
 920	9.1441e+01	3.4266	7.354366	0.000246	2.455498	0.831945	-0.000099
 921	9.1540e+01	3.3545	7.256197	0.000244	2.435288	0.825098	-0.000099
 922	9.1639e+01	3.3577	7.156398	-0.000248	-2.475708	-0.838793	-0.000100
 923	9.1739e+01	3.2742	7.061079	0.000236	2.364554	0.801133	-0.000096
 924	9.1838e+01	3.2245	6.965354	0.000237	2.374659	0.804556	-0.000096
 925	9.1938e+01	3.2181	6.865962	0.000247	2.465603	0.835369	-0.000100
 926	9.2037e+01	3.1539	6.768200	0.000243	2.425183	0.821674	-0.000098
 927	9.2137e+01	3.1138	6.661884	0.000264	2.637387	0.893571	-0.000107
 928	9.2237e+01	3.0769	6.570232	0.000227	2.273610	0.770320	-0.000092
 929	9.2336e+01	3.0625	6.465952	0.000259	2.586862	0.876453	-0.000105
 930	9.2436e+01	3.0031	6.371856	0.000233	2.334239	0.790862	-0.000095
 931	9.2535e+01	2.9646	6.276538	0.000236	2.364554	0.801133	-0.000096
 932	9.2635e+01	2.8956	6.181627	0.000235	2.354449	0.797709	-0.000095
 933	9.2734e+01	2.8860	6.075310	0.000264	2.637387	0.893571	-0.000107
 934	9.2834e+01	2.8668	5.982844	0.000229	2.293819	0.777167	-0.000093
 935	9.2933e+01	2.8234	5.886711	0.000238	2.384764	0.807980	-0.000097
 936	9.3032e+01	2.7721	5.785690	0.000251	2.506023	0.849064	-0.000102
 937	9.3132e+01	2.7304	5.681818	0.000258	2.576757	0.873029	-0.000104
 938	9.3231e+01	2.7128	5.588129	0.000232	2.324134	0.787438	-0.000094
 939	9.3331e+01	2.6438	5.490367	0.000243	2.425183	0.821674	-0.000098
 940	9.3430e+01	2.5973	5.391790	0.000245	2.445393	0.828522	-0.000099
 941	9.3530e+01	2.5588	5.289547	0.000254	2.536338	0.859334	-0.000103
 942	9.3629e+01	2.5283	5.193414	0.000238	2.384764	0.807980	-0.000097
 943	9.3729e+01	2.4834	5.095244	0.000244	2.435288	0.825098	-0.000099
 944	9.3829e+01	2.4561	5.001148	0.000233	2.334239	0.790862	-0.000095
 945	9.3928e+01	2.4031	4.892388	0.000270	2.698017	0.914113	-0.000109
 946	9.4028e+01	2.3823	4.805624	0.000215	2.152350	0.729236	-0.000087
 947	9.4127e+01	2.3149	4.699715	0.000263	2.627282	0.890147	-0.000106
 948	9.4227e+01	2.2892	4.603582	0.000238	2.384764	0.807980	-0.000097
 949	9.4326e+01	2.2636	4.502968	0.000250	2.495918	0.845640	-0.000101
 950	9.4425e+01	2.2331	4.408465	0.000234	2.344344	0.794285	-0.000095
 951	9.4525e+01	2.1737	4.297260	0.000276	2.758646	0.934655	-0.000112
 952	9.4624e+01	2.1128	4.195832	0.000252	2.516128	0.852487	-0.000102
 953	9.4724e+01	2.0919	4.098884	0.000240	2.404974	0.814827	-0.000097
 954	9.4823e+01	2.0085	4.001937	0.000240	2.404974	0.814827	-0.000097
 955	9.4923e+01	2.0133	3.897657	-0.000259	-2.586862	-0.876453	-0.000105
 956	9.5022e+01	1.9892	3.797858	0.000248	2.475708	0.838793	-0.000100
 957	9.5122e+01	1.9347	3.705392	0.000229	2.293819	0.777167	-0.000093
 958	9.5222e+01	1.8898	3.597853	0.000267	2.667702	0.903842	-0.000108
 959	9.5321e+01	1.8481	3.504164	0.000232	2.324134	0.787438	-0.000094
 960	9.5421e+01	1.7839	3.402736	0.000252	2.516128	0.852487	-0.000102
 961	9.5520e+01	1.7919	3.303752	-0.000246	-2.455498	-0.831945	-0.000099
 962	9.5620e+01	1.7278	3.200694	0.000256	2.556548	0.866182	-0.000104
 963	9.5719e+01	1.6909	3.102117	0.000245	2.445393	0.828522	-0.000099
 964	9.5819e+01	1.6283	3.001096	0.000251	2.506023	0.849064	-0.000102
 965	9.5918e+01	1.6123	2.900483	0.000250	2.495918	0.845640	-0.000101
 966	9.6017e+01	1.5657	2.801906	0.000245	2.445393	0.828522	-0.000099
 967	9.6117e+01	1.5385	2.702922	0.000246	2.455498	0.831945	-0.000099
 968	9.6216e+01	1.4759	2.599864	0.000256	2.556548	0.866182	-0.000104
 969	9.6316e+01	1.4518	2.502102	0.000243	2.425183	0.821674	-0.000098
 970	9.6415e+01	1.4117	2.401081	0.000251	2.506023	0.849064	-0.000102
 971	9.6515e+01	1.3700	2.308207	0.000230	2.303924	0.780591	-0.000093
 972	9.6615e+01	1.3203	2.202705	0.000262	2.617177	0.886724	-0.000106
 973	9.6714e+01	1.2898	2.102906	0.000248	2.475708	0.838793	-0.000100
 974	9.6814e+01	1.2625	2.000663	0.000254	2.536338	0.859334	-0.000103
 975	9.6913e+01	1.2112	1.899235	0.000252	2.516128	0.852487	-0.000102
 976	9.7013e+01	1.1984	1.809619	0.000222	2.223085	0.753202	-0.000090
 977	9.7112e+01	1.1342	1.701266	0.000269	2.687912	0.910689	-0.000109
 978	9.7212e+01	1.1101	1.605541	0.000237	2.374659	0.804556	-0.000096
 979	9.7311e+01	1.0604	1.509815	0.000237	2.374659	0.804556	-0.000096
 980	9.7410e+01	1.0123	1.411238	0.000245	2.445393	0.828522	-0.000099
 981	9.7510e+01	0.9802	1.304515	0.000265	2.647492	0.896995	-0.000107
 982	9.7609e+01	0.9353	1.206752	0.000243	2.425183	0.821674	-0.000098
 983	9.7709e+01	0.8807	1.106546	0.000249	2.485813	0.842216	-0.000101
 984	9.7808e+01	0.8535	1.013672	0.000230	2.303924	0.780591	-0.000093
 985	9.7908e+01	0.7957	0.910207	0.000257	2.566653	0.869605	-0.000104
 986	9.8007e+01	0.7684	0.814889	0.000236	2.364554	0.801133	-0.000096
 987	9.8107e+01	0.7460	0.714275	0.000250	2.495918	0.845640	-0.000101
 988	9.8207e+01	0.6930	0.619364	0.000235	2.354449	0.797709	-0.000095
 989	9.8306e+01	0.6625	0.517936	0.000252	2.516128	0.852487	-0.000102
 990	9.8406e+01	0.6192	0.424247	0.000232	2.324134	0.787438	-0.000094
 991	9.8505e+01	0.5823	0.326485	0.000243	2.425183	0.821674	-0.000098
 992	9.8605e+01	0.5486	0.233204	0.000231	2.314029	0.784014	-0.000094
 993	9.8704e+01	0.4861	0.131368	0.000253	2.526233	0.855911	-0.000102
 994	9.8803e+01	0.4781	0.034420	0.000240	2.404974	0.814827	-0.000097
 995	9.8903e+01	0.4251	-0.055602	0.000223	2.233190	0.756625	-0.000090
 996	9.9002e+01	0.3930	-0.154179	0.000245	2.445393	0.828522	-0.000099
 997	9.9102e+01	0.3433	-0.249090	0.000235	2.354449	0.797709	-0.000095
 998	9.9201e+01	0.3096	-0.346037	0.000240	2.404974	0.814827	-0.000097
 999	9.9301e+01	0.2503	-0.447873	0.000253	2.526233	0.855911	-0.000102
1000	9.9400e+01	0.2214	-0.537081	0.000221	2.212980	0.749778	-0.000090
1001	9.9500e+01	0.1813	-0.636880	0.000248	2.475708	0.838793	-0.000100
1002	9.9600e+01	0.1364	-0.730162	0.000231	2.314029	0.784014	-0.000094
1003	9.9699e+01	0.0834	-0.824665	0.000234	2.344344	0.794285	-0.000095
1004	9.9799e+01	0.0449	-0.924057	0.000247	2.465603	0.835369	-0.000100
1005	9.9898e+01	0.0401	-0.999822	0.000188	1.879517	0.636798	-0.000076
1006	9.9998e+01	-0.0337	-1.087808	0.000218	2.182665	0.739507	-0.000088
1007	1.0010e+02	-0.0594	-1.188015	0.000249	2.485813	0.842216	-0.000101
1008	1.0020e+02	-0.0898	-1.281703	0.000232	2.324134	0.787438	-0.000094
1009	1.0030e+02	-0.1380	-1.381095	0.000247	2.465603	0.835369	-0.000100
1010	1.0040e+02	-0.1749	-1.471525	0.000224	2.243295	0.760049	-0.000091
1011	1.0050e+02	-0.1845	-1.562770	0.000226	2.263505	0.766896	-0.000092
1012	1.0059e+02	-0.2631	-1.661754	0.000246	2.455498	0.831945	-0.000099
1013	1.0069e+02	-0.2759	-1.760331	0.000245	2.445393	0.828522	-0.000099
1014	1.0079e+02	-0.3048	-1.851168	0.000225	2.253400	0.763472	-0.000091
1015	1.0089e+02	-0.3626	-1.943228	0.000228	2.283714	0.773743	-0.000093
1016	1.0099e+02	-0.4251	-2.041805	0.000245	2.445393	0.828522	-0.000099
1017	1.0109e+02	-0.4412	-2.138752	0.000240	2.404974	0.814827	-0.000097
1018	1.0119e+02	-0.5053	-2.232034	0.000231	2.314029	0.784014	-0.000094
1019	1.0129e+02	-0.5519	-2.323278	0.000226	2.263505	0.766896	-0.000092
1020	1.0139e+02	-0.5759	-2.424299	0.000251	2.506023	0.849064	-0.000102
1021	1.0149e+02	-0.6128	-2.513507	0.000221	2.212980	0.749778	-0.000090
1022	1.0159e+02	-0.6642	-2.608825	0.000236	2.364554	0.801133	-0.000096
1023	1.0169e+02	-0.7091	-2.700070	0.000226	2.263505	0.766896	-0.000092
1024	1.0179e+02	-0.7668	-2.798240	0.000244	2.435288	0.825098	-0.000099
1025	1.0189e+02	-0.7620	-2.887040	-0.000220	-2.202875	-0.746354	-0.000089
1026	1.0199e+02	-0.8101	-2.988469	0.000252	2.516128	0.852487	-0.000102
1027	1.0209e+02	-0.8342	-3.079306	0.000225	2.253400	0.763472	-0.000091
1028	1.0219e+02	-0.8952	-3.177476	0.000244	2.435288	0.825098	-0.000099
1029	1.0229e+02	-0.9369	-3.273608	0.000238	2.384764	0.807980	-0.000097
1030	1.0239e+02	-0.9433	-3.368112	0.000234	2.344344	0.794285	-0.000095
1031	1.0248e+02	-1.0139	-3.456913	0.000220	2.202875	0.746354	-0.000089
1032	1.0258e+02	-1.0492	-3.547750	0.000225	2.253400	0.763472	-0.000091
1033	1.0268e+02	-1.1021	-3.644697	0.000240	2.404974	0.814827	-0.000097
1034	1.0278e+02	-1.1021	-3.738386	0.000232	2.324134	0.787438	-0.000094
1035	1.0288e+02	-1.1887	-3.828816	0.000224	2.243295	0.760049	-0.000091
1036	1.0298e+02	-1.2080	-3.919654	0.000225	2.253400	0.763472	-0.000091
1037	1.0308e+02	-1.2754	-4.015379	0.000237	2.374659	0.804556	-0.000096
1038	1.0318e+02	-1.3074	-4.104995	0.000222	2.223085	0.753202	-0.000090
1039	1.0328e+02	-1.3540	-4.198683	0.000232	2.324134	0.787438	-0.000094
1040	1.0338e+02	-1.3748	-4.287891	0.000221	2.212980	0.749778	-0.000090
1041	1.0348e+02	-1.4117	-4.382395	0.000234	2.344344	0.794285	-0.000095
1042	1.0358e+02	-1.4438	-4.474454	0.000228	2.283714	0.773743	-0.000093
1043	1.0368e+02	-1.4566	-4.568143	0.000232	2.324134	0.787438	-0.000094
1044	1.0378e+02	-1.5369	-4.663054	0.000235	2.354449	0.797709	-0.000095
1045	1.0388e+02	-1.5898	-4.750225	0.000216	2.162455	0.732660	-0.000088
1046	1.0398e+02	-1.5866	-4.843099	-0.000230	-2.303924	-0.780591	-0.000093
1047	1.0408e+02	-1.6123	-4.933937	0.000225	2.253400	0.763472	-0.000091
1048	1.0418e+02	-1.6925	-5.025996	0.000228	2.283714	0.773743	-0.000093
1049	1.0428e+02	-1.7310	-5.119278	0.000231	2.314029	0.784014	-0.000094
1050	1.0438e+02	-1.7695	-5.213781	0.000234	2.344344	0.794285	-0.000095
1051	1.0447e+02	-1.7967	-5.299730	0.000213	2.132140	0.722389	-0.000086
1052	1.0457e+02	-1.8320	-5.389753	0.000223	2.233190	0.756625	-0.000090
1053	1.0467e+02	-1.8673	-5.484664	0.000235	2.354449	0.797709	-0.000095
1054	1.0477e+02	-1.9155	-5.577538	0.000230	2.303924	0.780591	-0.000093
1055	1.0487e+02	-1.9652	-5.670819	0.000231	2.314029	0.784014	-0.000094
1056	1.0497e+02	-2.0005	-5.762064	0.000226	2.263505	0.766896	-0.000092
1057	1.0507e+02	-2.0390	-5.853716	0.000227	2.273610	0.770320	-0.000092
1058	1.0517e+02	-2.0967	-5.950664	0.000240	2.404974	0.814827	-0.000097
1059	1.0527e+02	-2.0855	-6.038650	-0.000218	-2.182665	-0.739507	-0.000088
1060	1.0537e+02	-2.1802	-6.128265	0.000222	2.223085	0.753202	-0.000090
1061	1.0547e+02	-2.1978	-6.223583	0.000236	2.364554	0.801133	-0.000096
1062	1.0557e+02	-2.2764	-6.320123	0.000239	2.394869	0.811403	-0.000097
1063	1.0567e+02	-2.2764	-6.404443	0.000209	2.091721	0.708694	-0.000085
1064	1.0577e+02	-2.3245	-6.500576	0.000238	2.384764	0.807980	-0.000097
1065	1.0587e+02	-2.3486	-6.595080	0.000234	2.344344	0.794285	-0.000095
1066	1.0597e+02	-2.4256	-6.686732	0.000227	2.273610	0.770320	-0.000092
1067	1.0607e+02	-2.4240	-6.776754	-0.000223	-2.233190	-0.756625	-0.000090
1068	1.0617e+02	-2.4850	-6.870850	0.000233	2.334239	0.790862	-0.000095
1069	1.0627e+02	-2.5122	-6.960873	0.000223	2.233190	0.756625	-0.000090
1070	1.0637e+02	-2.5555	-7.058228	0.000242	2.415079	0.818251	-0.000098
1071	1.0647e+02	-2.5956	-7.148251	0.000223	2.233190	0.756625	-0.000090
1072	1.0656e+02	-2.6422	-7.241125	0.000230	2.303924	0.780591	-0.000093
1073	1.0666e+02	-2.6727	-7.336036	0.000235	2.354449	0.797709	-0.000095
1074	1.0676e+02	-2.7144	-7.429317	0.000231	2.314029	0.784014	-0.000094
1075	1.0686e+02	-2.7689	-7.524635	0.000236	2.364554	0.801133	-0.000096
1076	1.0696e+02	-2.7849	-7.620768	0.000238	2.384764	0.807980	-0.000097
1077	1.0706e+02	-2.8379	-7.711198	0.000224	2.243295	0.760049	-0.000091
1078	1.0716e+02	-2.8860	-7.804887	0.000232	2.324134	0.787438	-0.000094
1079	1.0726e+02	-2.9374	-7.904686	0.000248	2.475708	0.838793	-0.000100
1080	1.0736e+02	-2.9582	-7.995116	0.000224	2.243295	0.760049	-0.000091
1081	1.0746e+02	-2.9999	-8.094915	0.000248	2.475708	0.838793	-0.000100
1082	1.0756e+02	-3.0288	-8.185345	0.000224	2.243295	0.760049	-0.000091
1083	1.0766e+02	-3.0978	-8.282700	0.000242	2.415079	0.818251	-0.000098
1084	1.0776e+02	-3.1475	-8.373130	0.000224	2.243295	0.760049	-0.000091
1085	1.0786e+02	-3.1619	-8.468041	0.000235	2.354449	0.797709	-0.000095
1086	1.0796e+02	-3.1860	-8.563359	0.000236	2.364554	0.801133	-0.000096
1087	1.0806e+02	-3.2422	-8.659899	0.000239	2.394869	0.811403	-0.000097
1088	1.0816e+02	-3.2742	-8.750329	0.000224	2.243295	0.760049	-0.000091
1089	1.0826e+02	-3.3159	-8.848091	0.000243	2.425183	0.821674	-0.000098
1090	1.0836e+02	-3.3545	-8.940151	0.000228	2.283714	0.773743	-0.000093
1091	1.0845e+02	-3.3946	-9.040764	0.000250	2.495918	0.845640	-0.000101
1092	1.0855e+02	-3.4395	-9.129972	0.000221	2.212980	0.749778	-0.000090
1093	1.0865e+02	-3.4812	-9.222032	0.000228	2.283714	0.773743	-0.000093
1094	1.0875e+02	-3.5149	-9.316943	0.000235	2.354449	0.797709	-0.000095
1095	1.0885e+02	-3.5518	-9.414297	0.000242	2.415079	0.818251	-0.000098
1096	1.0895e+02	-3.6031	-9.513689	0.000247	2.465603	0.835369	-0.000100
1097	1.0905e+02	-3.6480	-9.609414	0.000237	2.374659	0.804556	-0.000096
1098	1.0915e+02	-3.6625	-9.695364	0.000213	2.132140	0.722389	-0.000086
1099	1.0925e+02	-3.7202	-9.791089	0.000237	2.374659	0.804556	-0.000096
1100	1.0935e+02	-3.7619	-9.889666	0.000245	2.445393	0.828522	-0.000099
1101	1.0945e+02	-3.7972	-9.985799	0.000238	2.384764	0.807980	-0.000097
1102	1.0955e+02	-3.8582	-10.070526	0.000210	2.101826	0.712118	-0.000085
1103	1.0965e+02	-3.8935	-10.175621	0.000261	2.607072	0.883300	-0.000106
1104	1.0975e+02	-3.9207	-10.265236	0.000222	2.223085	0.753202	-0.000090
1105	1.0985e+02	-3.9480	-10.362183	0.000240	2.404974	0.814827	-0.000097
1106	1.0995e+02	-3.9945	-10.454650	0.000229	2.293819	0.777167	-0.000093
1107	1.1005e+02	-4.0379	-10.550376	0.000237	2.374659	0.804556	-0.000096
1108	1.1015e+02	-4.0635	-10.648545	0.000244	2.435288	0.825098	-0.000099
1109	1.1025e+02	-4.0956	-10.742641	0.000233	2.334239	0.790862	-0.000095
1110	1.1035e+02	-4.1502	-10.842033	0.000247	2.465603	0.835369	-0.000100
1111	1.1044e+02	-4.1919	-10.929204	0.000216	2.162455	0.732660	-0.000088
1112	1.1054e+02	-4.2352	-11.031040	0.000253	2.526233	0.855911	-0.000102
1113	1.1064e+02	-4.2785	-11.122692	0.000227	2.273610	0.770320	-0.000092
1114	1.1074e+02	-4.3058	-11.217196	0.000234	2.344344	0.794285	-0.000095
1115	1.1084e+02	-4.3362	-11.307626	0.000224	2.243295	0.760049	-0.000091
1116	1.1094e+02	-4.3988	-11.404980	0.000242	2.415079	0.818251	-0.000098
1117	1.1104e+02	-4.4485	-11.501928	0.000240	2.404974	0.814827	-0.000097
1118	1.1114e+02	-4.4630	-11.595209	0.000231	2.314029	0.784014	-0.000094
1119	1.1124e+02	-4.5095	-11.696638	0.000252	2.516128	0.852487	-0.000102
1120	1.1134e+02	-4.5320	-11.788290	0.000227	2.273610	0.770320	-0.000092
1121	1.1144e+02	-4.6009	-11.879942	0.000227	2.273610	0.770320	-0.000092
1122	1.1154e+02	-4.6410	-11.980148	0.000249	2.485813	0.842216	-0.000101
1123	1.1164e+02	-4.6763	-12.077910	0.000243	2.425183	0.821674	-0.000098
1124	1.1174e+02	-4.7229	-12.174858	0.000240	2.404974	0.814827	-0.000097
1125	1.1184e+02	-4.7566	-12.264473	0.000222	2.223085	0.753202	-0.000090
1126	1.1194e+02	-4.7870	-12.366309	0.000253	2.526233	0.855911	-0.000102
1127	1.1204e+02	-4.8448	-12.459998	0.000232	2.324134	0.787438	-0.000094
1128	1.1214e+02	-4.8721	-12.558575	0.000245	2.445393	0.828522	-0.000099
1129	1.1224e+02	-4.9170	-12.648190	0.000222	2.223085	0.753202	-0.000090
1130	1.1234e+02	-4.9667	-12.747174	0.000246	2.455498	0.831945	-0.000099
1131	1.1244e+02	-4.9988	-12.843714	0.000239	2.394869	0.811403	-0.000097
1132	1.1253e+02	-5.0196	-12.935774	0.000228	2.283714	0.773743	-0.000093
1133	1.1263e+02	-5.0806	-13.033129	0.000242	2.415079	0.818251	-0.000098
1134	1.1273e+02	-5.1095	-13.123151	0.000223	2.233190	0.756625	-0.000090
1135	1.1283e+02	-5.1592	-13.226209	0.000256	2.556548	0.866182	-0.000104
1136	1.1293e+02	-5.1753	-13.321527	0.000236	2.364554	0.801133	-0.000096
1137	1.1303e+02	-5.2683	-13.411550	0.000223	2.233190	0.756625	-0.000090
1138	1.1313e+02	-5.2908	-13.505646	0.000233	2.334239	0.790862	-0.000095
1139	1.1323e+02	-5.3020	-13.611148	0.000262	2.617177	0.886724	-0.000106
1140	1.1333e+02	-5.3517	-13.699541	0.000219	2.192770	0.742931	-0.000089
1141	1.1343e+02	-5.3774	-13.796896	0.000242	2.415079	0.818251	-0.000098
1142	1.1353e+02	-5.4480	-13.890585	0.000232	2.324134	0.787438	-0.000094
1143	1.1363e+02	-5.4592	-13.981015	0.000224	2.243295	0.760049	-0.000091
1144	1.1373e+02	-5.5057	-14.077962	0.000240	2.404974	0.814827	-0.000097
1145	1.1383e+02	-5.5539	-14.172466	0.000234	2.344344	0.794285	-0.000095
1146	1.1393e+02	-5.6084	-14.264525	0.000228	2.283714	0.773743	-0.000093
1147	1.1403e+02	-5.6196	-14.362287	0.000243	2.425183	0.821674	-0.000098
1148	1.1413e+02	-5.6838	-14.453125	0.000225	2.253400	0.763472	-0.000091
1149	1.1423e+02	-5.6934	-14.549665	0.000239	2.394869	0.811403	-0.000097
1150	1.1433e+02	-5.7399	-14.649057	0.000247	2.465603	0.835369	-0.000100
1151	1.1442e+02	-5.7720	-14.739894	0.000225	2.253400	0.763472	-0.000091
1152	1.1452e+02	-5.8314	-14.833990	0.000233	2.334239	0.790862	-0.000095
1153	1.1462e+02	-5.8891	-14.924420	0.000224	2.243295	0.760049	-0.000091
1154	1.1472e+02	-5.8779	-15.018924	-0.000234	-2.344344	-0.794285	-0.000095
1155	1.1482e+02	-5.9694	-15.113427	0.000234	2.344344	0.794285	-0.000095
1156	1.1492e+02	-5.9758	-15.205079	0.000227	2.273610	0.770320	-0.000092
1157	1.1502e+02	-6.0207	-15.295102	0.000223	2.233190	0.756625	-0.000090
1158	1.1512e+02	-6.0592	-15.390420	0.000236	2.364554	0.801133	-0.000096
1159	1.1522e+02	-6.1234	-15.475962	0.000212	2.122036	0.718965	-0.000086
1160	1.1532e+02	-6.1811	-15.569651	0.000232	2.324134	0.787438	-0.000094
1161	1.1542e+02	-6.1907	-15.663339	0.000232	2.324134	0.787438	-0.000094
1162	1.1552e+02	-6.2340	-15.754177	0.000225	2.253400	0.763472	-0.000091
1163	1.1562e+02	-6.2661	-15.845829	0.000227	2.273610	0.770320	-0.000092
1164	1.1572e+02	-6.3335	-15.935852	0.000223	2.233190	0.756625	-0.000090
1165	1.1582e+02	-6.3544	-16.025060	0.000221	2.212980	0.749778	-0.000090
1166	1.1592e+02	-6.3736	-16.114268	0.000221	2.212980	0.749778	-0.000090
1167	1.1602e+02	-6.4250	-16.196958	0.000205	2.051301	0.695000	-0.000083
1168	1.1612e+02	-6.4779	-16.285352	0.000219	2.192770	0.742931	-0.000089
1169	1.1622e+02	-6.5036	-16.379448	0.000233	2.334239	0.790862	-0.000095
1170	1.1632e+02	-6.5164	-16.470285	0.000225	2.253400	0.763472	-0.000091
1171	1.1642e+02	-6.5790	-16.556642	0.000214	2.142245	0.725812	-0.000087
1172	1.1651e+02	-6.6078	-16.649516	0.000230	2.303924	0.780591	-0.000093
1173	1.1661e+02	-6.6672	-16.734243	0.000210	2.101826	0.712118	-0.000085
1174	1.1671e+02	-6.6897	-16.828747	0.000234	2.344344	0.794285	-0.000095
1175	1.1681e+02	-6.7314	-16.915918	0.000216	2.162455	0.732660	-0.000088
1176	1.1691e+02	-6.7939	-17.012865	0.000240	2.404974	0.814827	-0.000097
1177	1.1701e+02	-6.8196	-17.098000	0.000211	2.111931	0.715541	-0.000086
1178	1.1711e+02	-6.8661	-17.183135	0.000211	2.111931	0.715541	-0.000086
1179	1.1721e+02	-6.9094	-17.275601	0.000229	2.293819	0.777167	-0.000093
1180	1.1731e+02	-6.9592	-17.366439	0.000225	2.253400	0.763472	-0.000091
1181	1.1741e+02	-6.9848	-17.449944	0.000207	2.071511	0.701847	-0.000084
1182	1.1751e+02	-7.0185	-17.540374	0.000224	2.243295	0.760049	-0.000091
1183	1.1761e+02	-7.0715	-17.634063	0.000232	2.324134	0.787438	-0.000094
1184	1.1771e+02	-7.0827	-17.725307	0.000226	2.263505	0.766896	-0.000092
1185	1.1781e+02	-7.1581	-17.812886	0.000217	2.172560	0.736083	-0.000088
1186	1.1791e+02	-7.1613	-17.900465	0.000217	2.172560	0.736083	-0.000088
1187	1.1801e+02	-7.2110	-17.988451	0.000218	2.182665	0.739507	-0.000088
1188	1.1811e+02	-7.2656	-18.080510	0.000228	2.283714	0.773743	-0.000093
1189	1.1821e+02	-7.3009	-18.170533	0.000223	2.233190	0.756625	-0.000090
1190	1.1831e+02	-7.3586	-18.254445	0.000208	2.081616	0.705271	-0.000084
1191	1.1841e+02	-7.3811	-18.341617	0.000216	2.162455	0.732660	-0.000088
1192	1.1850e+02	-7.4324	-18.429195	0.000217	2.172560	0.736083	-0.000088
1193	1.1860e+02	-7.4613	-18.519625	0.000224	2.243295	0.760049	-0.000091
1194	1.1870e+02	-7.5030	-18.609648	0.000223	2.233190	0.756625	-0.000090
1195	1.1880e+02	-7.5383	-18.698856	0.000221	2.212980	0.749778	-0.000090
1196	1.1890e+02	-7.5993	-18.784398	0.000212	2.122036	0.718965	-0.000086
1197	1.1900e+02	-7.6378	-18.874013	0.000222	2.223085	0.753202	-0.000090
1198	1.1910e+02	-7.6714	-18.960777	0.000215	2.152350	0.729236	-0.000087
1199	1.1920e+02	-7.6939	-19.045097	0.000209	2.091721	0.708694	-0.000085
1200	1.1930e+02	-7.7356	-19.134713	0.000222	2.223085	0.753202	-0.000090
1201	1.1940e+02	-7.7789	-19.223106	0.000219	2.192770	0.742931	-0.000089
1202	1.1950e+02	-7.8158	-19.308241	0.000211	2.111931	0.715541	-0.000086
1203	1.1960e+02	-7.8688	-19.390524	0.000204	2.041196	0.691576	-0.000083
1204	1.1970e+02	-7.8880	-19.477288	0.000215	2.152350	0.729236	-0.000087
1205	1.1980e+02	-7.9458	-19.565274	0.000218	2.182665	0.739507	-0.000088
1206	1.1990e+02	-7.9746	-19.654482	0.000221	2.212980	0.749778	-0.000090
1207	1.2000e+02	-7.9891	-19.738802	0.000209	2.091721	0.708694	-0.000085
1208	1.2010e+02	-8.0484	-19.820678	0.000203	2.031091	0.688152	-0.000082
1209	1.2020e+02	-8.1126	-19.908664	0.000218	2.182665	0.739507	-0.000088
1210	1.2030e+02	-8.1383	-19.992576	0.000208	2.081616	0.705271	-0.000084
1211	1.2039e+02	-8.1992	-20.084228	0.000227	2.273610	0.770320	-0.000092
1212	1.2049e+02	-8.2089	-20.166511	0.000204	2.041196	0.691576	-0.000083
1213	1.2059e+02	-8.2377	-20.247165	0.000200	2.000776	0.677881	-0.000081
1214	1.2069e+02	-8.2859	-20.339225	0.000228	2.283714	0.773743	-0.000093
1215	1.2079e+02	-8.3115	-20.423952	0.000210	2.101826	0.712118	-0.000085
1216	1.2089e+02	-8.4014	-20.514789	0.000225	2.253400	0.763472	-0.000091
1217	1.2099e+02	-8.3885	-20.594628	-0.000198	-1.980567	-0.671034	-0.000080
1218	1.2109e+02	-8.4527	-20.679356	0.000210	2.101826	0.712118	-0.000085
1219	1.2119e+02	-8.4896	-20.767749	0.000219	2.192770	0.742931	-0.000089
1220	1.2129e+02	-8.5361	-20.852476	0.000210	2.101826	0.712118	-0.000085
1221	1.2139e+02	-8.5762	-20.933537	0.000201	2.010881	0.681305	-0.000081
1222	1.2149e+02	-8.6211	-21.023560	0.000223	2.233190	0.756625	-0.000090
1223	1.2159e+02	-8.6436	-21.107065	0.000207	2.071511	0.701847	-0.000084
1224	1.2169e+02	-8.6869	-21.192607	0.000212	2.122036	0.718965	-0.000086
1225	1.2179e+02	-8.7383	-21.269188	0.000190	1.899727	0.643645	-0.000077
1226	1.2189e+02	-8.8024	-21.357581	0.000219	2.192770	0.742931	-0.000089
1227	1.2199e+02	-8.8121	-21.449640	0.000228	2.283714	0.773743	-0.000093
1228	1.2209e+02	-8.8666	-21.537626	0.000218	2.182665	0.739507	-0.000088
1229	1.2219e+02	-8.9147	-21.617873	0.000199	1.990671	0.674458	-0.000081
1230	1.2229e+02	-8.9276	-21.704637	0.000215	2.152350	0.729236	-0.000087
1231	1.2239e+02	-8.9805	-21.796289	0.000227	2.273610	0.770320	-0.000092
1232	1.2248e+02	-9.0206	-21.874499	0.000194	1.940147	0.657340	-0.000079
1233	1.2258e+02	-9.0559	-21.964929	0.000224	2.243295	0.760049	-0.000091
1234	1.2268e+02	-9.1072	-22.046805	0.000203	2.031091	0.688152	-0.000082
1235	1.2278e+02	-9.1153	-22.132754	0.000213	2.132140	0.722389	-0.000086
1236	1.2288e+02	-9.1955	-22.215444	0.000205	2.051301	0.695000	-0.000083
1237	1.2298e+02	-9.2035	-22.305874	0.000224	2.243295	0.760049	-0.000091
1238	1.2308e+02	-9.2644	-22.389380	0.000207	2.071511	0.701847	-0.000084
1239	1.2318e+02	-9.2901	-22.478180	0.000220	2.202875	0.746354	-0.000089
1240	1.2328e+02	-9.2965	-22.566166	0.000218	2.182665	0.739507	-0.000088
1241	1.2338e+02	-9.3864	-22.655782	0.000222	2.223085	0.753202	-0.000090
1242	1.2348e+02	-9.4024	-22.738880	0.000206	2.061406	0.698423	-0.000084
1243	1.2358e+02	-9.4553	-22.824829	0.000213	2.132140	0.722389	-0.000086
1244	1.2368e+02	-9.4971	-22.916074	0.000226	2.263505	0.766896	-0.000092
1245	1.2378e+02	-9.5484	-22.997949	0.000203	2.031091	0.688152	-0.000082
1246	1.2388e+02	-9.5548	-23.089194	0.000226	2.263505	0.766896	-0.000092
1247	1.2398e+02	-9.6398	-23.174736	0.000212	2.122036	0.718965	-0.000086
1248	1.2408e+02	-9.6495	-23.257427	0.000205	2.051301	0.695000	-0.000083
1249	1.2418e+02	-9.6896	-23.349079	0.000227	2.273610	0.770320	-0.000092
1250	1.2428e+02	-9.7393	-23.434621	0.000212	2.122036	0.718965	-0.000086
1251	1.2438e+02	-9.7682	-23.528309	0.000232	2.324134	0.787438	-0.000094
1252	1.2447e+02	-9.8195	-23.612222	0.000208	2.081616	0.705271	-0.000084
1253	1.2457e+02	-9.8612	-23.696949	0.000210	2.101826	0.712118	-0.000085
1254	1.2467e+02	-9.8917	-23.782491	0.000212	2.122036	0.718965	-0.000086
1255	1.2477e+02	-9.9222	-23.874143	0.000227	2.273610	0.770320	-0.000092
1256	1.2487e+02	-9.9687	-23.961315	0.000216	2.162455	0.732660	-0.000088
1257	1.2497e+02	-10.0040	-24.051745	0.000224	2.243295	0.760049	-0.000091
1258	1.2507e+02	-10.0521	-24.138509	0.000215	2.152350	0.729236	-0.000087
1259	1.2517e+02	-10.0938	-24.225680	0.000216	2.162455	0.732660	-0.000088
1260	1.2527e+02	-10.1211	-24.313259	0.000217	2.172560	0.736083	-0.000088
1261	1.2537e+02	-10.1949	-24.395949	0.000205	2.051301	0.695000	-0.000083
1262	1.2547e+02	-10.2222	-24.487194	0.000226	2.263505	0.766896	-0.000092
1263	1.2557e+02	-10.2543	-24.573958	0.000215	2.152350	0.729236	-0.000087
1264	1.2567e+02	-10.2783	-24.664388	0.000224	2.243295	0.760049	-0.000091
1265	1.2577e+02	-10.3329	-24.749930	0.000212	2.122036	0.718965	-0.000086
1266	1.2587e+02	-10.3617	-24.837101	0.000216	2.162455	0.732660	-0.000088
1267	1.2597e+02	-10.4275	-24.922643	0.000212	2.122036	0.718965	-0.000086
1268	1.2607e+02	-10.4323	-25.015924	0.000231	2.314029	0.784014	-0.000094
1269	1.2617e+02	-10.4869	-25.098208	0.000204	2.041196	0.691576	-0.000083
1270	1.2627e+02	-10.5398	-25.185379	0.000216	2.162455	0.732660	-0.000088
1271	1.2636e+02	-10.5446	-25.272550	0.000216	2.162455	0.732660	-0.000088
1272	1.2646e+02	-10.6040	-25.369090	0.000239	2.394869	0.811403	-0.000097
1273	1.2656e+02	-10.6409	-25.448522	0.000197	1.970462	0.667610	-0.000080
1274	1.2666e+02	-10.6842	-25.534472	0.000213	2.132140	0.722389	-0.000086
1275	1.2676e+02	-10.7291	-25.620828	0.000214	2.142245	0.725812	-0.000087
1276	1.2686e+02	-10.7596	-25.711666	0.000225	2.253400	0.763472	-0.000091
1277	1.2696e+02	-10.8141	-25.802096	0.000224	2.243295	0.760049	-0.000091
1278	1.2706e+02	-10.8591	-25.884786	0.000205	2.051301	0.695000	-0.000083
1279	1.2716e+02	-10.8976	-25.969921	0.000211	2.111931	0.715541	-0.000086
1280	1.2726e+02	-10.9361	-26.064424	0.000234	2.344344	0.794285	-0.000095
1281	1.2736e+02	-10.9649	-26.148744	0.000209	2.091721	0.708694	-0.000085
1282	1.2746e+02	-11.0034	-26.238767	0.000223	2.233190	0.756625	-0.000090
1283	1.2756e+02	-11.0082	-26.323087	0.000209	2.091721	0.708694	-0.000085
1284	1.2766e+02	-11.0708	-26.408221	0.000211	2.111931	0.715541	-0.000086
1285	1.2776e+02	-11.1189	-26.497022	0.000220	2.202875	0.746354	-0.000089
1286	1.2786e+02	-11.1735	-26.590303	0.000231	2.314029	0.784014	-0.000094
1287	1.2796e+02	-11.2152	-26.676253	0.000213	2.132140	0.722389	-0.000086
1288	1.2806e+02	-11.2216	-26.760165	0.000208	2.081616	0.705271	-0.000084
1289	1.2816e+02	-11.2826	-26.857520	0.000242	2.415079	0.818251	-0.000098
1290	1.2826e+02	-11.3243	-26.945913	0.000219	2.192770	0.742931	-0.000089
1291	1.2835e+02	-11.3628	-27.028604	0.000205	2.051301	0.695000	-0.000083
1292	1.2845e+02	-11.3884	-27.111702	0.000206	2.061406	0.698423	-0.000084
1293	1.2855e+02	-11.4382	-27.209464	0.000243	2.425183	0.821674	-0.000098
1294	1.2865e+02	-11.4879	-27.299079	0.000222	2.223085	0.753202	-0.000090
1295	1.2875e+02	-11.5457	-27.387065	0.000218	2.182665	0.739507	-0.000088
1296	1.2885e+02	-11.5473	-27.465683	0.000195	1.950252	0.660763	-0.000079
1297	1.2895e+02	-11.6082	-27.558149	0.000229	2.293819	0.777167	-0.000093
1298	1.2905e+02	-11.6740	-27.642469	0.000209	2.091721	0.708694	-0.000085
1299	1.2915e+02	-11.6804	-27.734936	0.000229	2.293819	0.777167	-0.000093
1300	1.2925e+02	-11.7237	-27.820071	0.000211	2.111931	0.715541	-0.000086
1301	1.2935e+02	-11.7622	-27.911723	0.000227	2.273610	0.770320	-0.000092
1302	1.2945e+02	-11.8072	-27.998487	0.000215	2.152350	0.729236	-0.000087
1303	1.2955e+02	-11.8505	-28.088509	0.000223	2.233190	0.756625	-0.000090
1304	1.2965e+02	-11.8954	-28.178125	0.000222	2.223085	0.753202	-0.000090
1305	1.2975e+02	-11.9371	-28.260001	0.000203	2.031091	0.688152	-0.000082
1306	1.2985e+02	-11.9788	-28.353282	0.000231	2.314029	0.784014	-0.000094
1307	1.2995e+02	-12.0077	-28.434750	0.000202	2.020986	0.684729	-0.000082
1308	1.3005e+02	-12.0526	-28.529661	0.000235	2.354449	0.797709	-0.000095
1309	1.3015e+02	-12.0783	-28.611944	0.000204	2.041196	0.691576	-0.000083
1310	1.3025e+02	-12.1505	-28.704004	0.000228	2.283714	0.773743	-0.000093
1311	1.3034e+02	-12.1537	-28.787102	0.000206	2.061406	0.698423	-0.000084
1312	1.3044e+02	-12.1970	-28.875902	0.000220	2.202875	0.746354	-0.000089
1313	1.3054e+02	-12.2323	-28.956964	0.000201	2.010881	0.681305	-0.000081
1314	1.3064e+02	-12.2692	-29.043320	0.000214	2.142245	0.725812	-0.000087
1315	1.3074e+02	-12.2980	-29.130492	0.000216	2.162455	0.732660	-0.000088
1316	1.3084e+02	-12.3526	-29.224588	0.000233	2.334239	0.790862	-0.000095
1317	1.3094e+02	-12.4168	-29.304019	0.000197	1.970462	0.667610	-0.000080
1318	1.3104e+02	-12.4264	-29.393228	0.000221	2.212980	0.749778	-0.000090
1319	1.3114e+02	-12.4906	-29.476733	0.000207	2.071511	0.701847	-0.000084
1320	1.3124e+02	-12.5082	-29.567977	0.000226	2.263505	0.766896	-0.000092
1321	1.3134e+02	-12.5627	-29.651075	0.000206	2.061406	0.698423	-0.000084
1322	1.3144e+02	-12.5820	-29.738247	0.000216	2.162455	0.732660	-0.000088
1323	1.3154e+02	-12.6510	-29.819308	0.000201	2.010881	0.681305	-0.000081
1324	1.3164e+02	-12.6879	-29.904850	0.000212	2.122036	0.718965	-0.000086
1325	1.3174e+02	-12.7200	-29.992021	0.000216	2.162455	0.732660	-0.000088
1326	1.3184e+02	-12.7777	-30.077156	0.000211	2.111931	0.715541	-0.000086
1327	1.3194e+02	-12.7745	-30.156180	-0.000196	-1.960357	-0.664187	-0.000079
1328	1.3204e+02	-12.8162	-30.234390	0.000194	1.940147	0.657340	-0.000079
1329	1.3214e+02	-12.8900	-30.322376	0.000218	2.182665	0.739507	-0.000088
1330	1.3224e+02	-12.9141	-30.409955	0.000217	2.172560	0.736083	-0.000088
1331	1.3234e+02	-12.9381	-30.486128	0.000189	1.889622	0.640221	-0.000077
1332	1.3243e+02	-13.0087	-30.570855	0.000210	2.101826	0.712118	-0.000085
1333	1.3253e+02	-13.0200	-30.655989	0.000211	2.111931	0.715541	-0.000086
1334	1.3263e+02	-13.0729	-30.743161	0.000216	2.162455	0.732660	-0.000088
1335	1.3273e+02	-13.1210	-30.818926	0.000188	1.879517	0.636798	-0.000076
1336	1.3283e+02	-13.1659	-30.902024	0.000206	2.061406	0.698423	-0.000084
1337	1.3293e+02	-13.2093	-30.986752	0.000210	2.101826	0.712118	-0.000085
1338	1.3303e+02	-13.2365	-31.072701	0.000213	2.132140	0.722389	-0.000086
1339	1.3313e+02	-13.2847	-31.151725	0.000196	1.960357	0.664187	-0.000079
1340	1.3323e+02	-13.3215	-31.233601	0.000203	2.031091	0.688152	-0.000082
1341	1.3333e+02	-13.3697	-31.319143	0.000212	2.122036	0.718965	-0.000086
1342	1.3343e+02	-13.3857	-31.396946	0.000193	1.930042	0.653916	-0.000078
1343	1.3353e+02	-13.4387	-31.482895	0.000213	2.132140	0.722389	-0.000086
1344	1.3363e+02	-13.4836	-31.557031	0.000184	1.839097	0.623103	-0.000075
1345	1.3373e+02	-13.5141	-31.641351	0.000209	2.091721	0.708694	-0.000085
1346	1.3383e+02	-13.5317	-31.727708	0.000214	2.142245	0.725812	-0.000087
1347	1.3393e+02	-13.6215	-31.805103	0.000192	1.919937	0.650492	-0.000078
1348	1.3403e+02	-13.6247	-31.884942	0.000198	1.980567	0.671034	-0.000080
1349	1.3413e+02	-13.6616	-31.972521	0.000217	2.172560	0.736083	-0.000088
1350	1.3423e+02	-13.7018	-32.054396	0.000203	2.031091	0.688152	-0.000082
1351	1.3432e+02	-13.7338	-32.133421	0.000196	1.960357	0.664187	-0.000079
1352	1.3442e+02	-13.7948	-32.220999	0.000217	2.172560	0.736083	-0.000088
1353	1.3452e+02	-13.8365	-32.297987	0.000191	1.909832	0.647069	-0.000077
1354	1.3462e+02	-13.8413	-32.377012	0.000196	1.960357	0.664187	-0.000079
1355	1.3472e+02	-13.9007	-32.457666	0.000200	2.000776	0.677881	-0.000081
1356	1.3482e+02	-13.9328	-32.542393	0.000210	2.101826	0.712118	-0.000085
1357	1.3492e+02	-14.0017	-32.620603	0.000194	1.940147	0.657340	-0.000079
1358	1.3502e+02	-14.0418	-32.702071	0.000202	2.020986	0.684729	-0.000082
1359	1.3512e+02	-14.0739	-32.783132	0.000201	2.010881	0.681305	-0.000081
1360	1.3522e+02	-14.1076	-32.870711	0.000217	2.172560	0.736083	-0.000088
1361	1.3532e+02	-14.1558	-32.945255	0.000185	1.849202	0.626527	-0.000075
1362	1.3542e+02	-14.1878	-33.026723	0.000202	2.020986	0.684729	-0.000082
1363	1.3552e+02	-14.2263	-33.107784	0.000201	2.010881	0.681305	-0.000081
1364	1.3562e+02	-14.2697	-33.187216	0.000197	1.970462	0.667610	-0.000080
1365	1.3572e+02	-14.3242	-33.267463	0.000199	1.990671	0.674458	-0.000081
1366	1.3582e+02	-14.3418	-33.348116	0.000200	2.000776	0.677881	-0.000081
1367	1.3592e+02	-14.3916	-33.427955	0.000198	1.980567	0.671034	-0.000080
1368	1.3602e+02	-14.4445	-33.508609	0.000200	2.000776	0.677881	-0.000081
1369	1.3612e+02	-14.4365	-33.588856	-0.000199	-1.990671	-0.674458	-0.000081
1370	1.3622e+02	-14.4862	-33.665029	0.000189	1.889622	0.640221	-0.000077
1371	1.3631e+02	-14.5552	-33.738758	0.000183	1.828993	0.619679	-0.000074
1372	1.3641e+02	-14.6146	-33.823485	0.000210	2.101826	0.712118	-0.000085
1373	1.3651e+02	-14.6210	-33.902510	0.000196	1.960357	0.664187	-0.000079
1374	1.3661e+02	-14.6627	-33.983571	0.000201	2.010881	0.681305	-0.000081
1375	1.3671e+02	-14.7220	-34.057707	0.000184	1.839097	0.623103	-0.000075
1376	1.3681e+02	-14.7333	-34.137139	0.000197	1.970462	0.667610	-0.000080
1377	1.3691e+02	-14.7878	-34.218607	0.000202	2.020986	0.684729	-0.000082
1378	1.3701e+02	-14.8375	-34.293966	0.000187	1.869412	0.633374	-0.000076
1379	1.3711e+02	-14.8600	-34.368102	0.000184	1.839097	0.623103	-0.000075
1380	1.3721e+02	-14.9210	-34.449978	0.000203	2.031091	0.688152	-0.000082
1381	1.3731e+02	-14.9627	-34.526558	0.000190	1.899727	0.643645	-0.000077
1382	1.3741e+02	-15.0188	-34.611693	0.000211	2.111931	0.715541	-0.000086
1383	1.3751e+02	-14.9932	-34.686237	-0.000185	-1.849202	-0.626527	-0.000075
1384	1.3761e+02	-15.0750	-34.765261	0.000196	1.960357	0.664187	-0.000079
1385	1.3771e+02	-15.0958	-34.842656	0.000192	1.919937	0.650492	-0.000078
1386	1.3781e+02	-15.1520	-34.920051	0.000192	1.919937	0.650492	-0.000078
1387	1.3791e+02	-15.1937	-35.004371	0.000209	2.091721	0.708694	-0.000085
1388	1.3801e+02	-15.2097	-35.079322	0.000186	1.859307	0.629950	-0.000075
1389	1.3811e+02	-15.2867	-35.153866	0.000185	1.849202	0.626527	-0.000075
1390	1.3821e+02	-15.2932	-35.235742	0.000203	2.031091	0.688152	-0.000082
1391	1.3831e+02	-15.3509	-35.314359	0.000195	1.950252	0.660763	-0.000079
1392	1.3840e+02	-15.3750	-35.395013	0.000200	2.000776	0.677881	-0.000081
1393	1.3850e+02	-15.4247	-35.468742	0.000183	1.828993	0.619679	-0.000074
1394	1.3860e+02	-15.4728	-35.546137	0.000192	1.919937	0.650492	-0.000078
1395	1.3870e+02	-15.4841	-35.631679	0.000212	2.122036	0.718965	-0.000086
1396	1.3880e+02	-15.5611	-35.703371	0.000178	1.778468	0.602561	-0.000072
1397	1.3890e+02	-15.5996	-35.785654	0.000204	2.041196	0.691576	-0.000083
1398	1.3900e+02	-15.6188	-35.861013	0.000187	1.869412	0.633374	-0.000076
1399	1.3910e+02	-15.6750	-35.944925	0.000208	2.081616	0.705271	-0.000084
1400	1.3920e+02	-15.6974	-36.018654	0.000183	1.828993	0.619679	-0.000074
1401	1.3930e+02	-15.7552	-36.096864	0.000194	1.940147	0.657340	-0.000079
1402	1.3940e+02	-15.7905	-36.179554	0.000205	2.051301	0.695000	-0.000083
1403	1.3950e+02	-15.8274	-36.261023	0.000202	2.020986	0.684729	-0.000082
1404	1.3960e+02	-15.8578	-36.336789	0.000188	1.879517	0.636798	-0.000076
1405	1.3970e+02	-15.8947	-36.418664	0.000203	2.031091	0.688152	-0.000082
1406	1.3980e+02	-15.9525	-36.497282	0.000195	1.950252	0.660763	-0.000079
1407	1.3990e+02	-15.9637	-36.573455	0.000189	1.889622	0.640221	-0.000077
1408	1.4000e+02	-15.9974	-36.654108	0.000200	2.000776	0.677881	-0.000081
1409	1.4010e+02	-16.0616	-36.738428	0.000209	2.091721	0.708694	-0.000085
1410	1.4020e+02	-16.1161	-36.811343	0.000181	1.808783	0.612832	-0.000073
1411	1.4029e+02	-16.1354	-36.894033	0.000205	2.051301	0.695000	-0.000083
1412	1.4039e+02	-16.2011	-36.977538	0.000207	2.071511	0.701847	-0.000084
1413	1.4049e+02	-16.2236	-37.061451	0.000208	2.081616	0.705271	-0.000084
1414	1.4059e+02	-16.2685	-37.142105	0.000200	2.000776	0.677881	-0.000081
1415	1.4069e+02	-16.3263	-37.219907	0.000193	1.930042	0.653916	-0.000078
1416	1.4079e+02	-16.3407	-37.302190	0.000204	2.041196	0.691576	-0.000083
1417	1.4089e+02	-16.3888	-37.385288	0.000206	2.061406	0.698423	-0.000084
1418	1.4099e+02	-16.4434	-37.464313	0.000196	1.960357	0.664187	-0.000079
1419	1.4109e+02	-16.4466	-37.543337	0.000196	1.960357	0.664187	-0.000079
1420	1.4119e+02	-16.5124	-37.628879	0.000212	2.122036	0.718965	-0.000086
1421	1.4129e+02	-16.5461	-37.712384	0.000207	2.071511	0.701847	-0.000084
1422	1.4139e+02	-16.5878	-37.787743	0.000187	1.869412	0.633374	-0.000076
1423	1.4149e+02	-16.6118	-37.868804	0.000201	2.010881	0.681305	-0.000081
1424	1.4159e+02	-16.6503	-37.952717	0.000208	2.081616	0.705271	-0.000084
1425	1.4169e+02	-16.6856	-38.035407	0.000205	2.051301	0.695000	-0.000083
1426	1.4179e+02	-16.7370	-38.116876	0.000202	2.020986	0.684729	-0.000082
1427	1.4189e+02	-16.7450	-38.203640	0.000215	2.152350	0.729236	-0.000087
1428	1.4199e+02	-16.8188	-38.281442	0.000193	1.930042	0.653916	-0.000078
1429	1.4209e+02	-16.8781	-38.362503	0.000201	2.010881	0.681305	-0.000081
1430	1.4219e+02	-16.9038	-38.449267	0.000215	2.152350	0.729236	-0.000087
1431	1.4228e+02	-16.9311	-38.529514	0.000199	1.990671	0.674458	-0.000081
1432	1.4238e+02	-16.9888	-38.611797	0.000204	2.041196	0.691576	-0.000083
1433	1.4248e+02	-17.0482	-38.698153	0.000214	2.142245	0.725812	-0.000087
1434	1.4258e+02	-17.0803	-38.773919	0.000188	1.879517	0.636798	-0.000076
1435	1.4268e+02	-17.1124	-38.851722	0.000193	1.930042	0.653916	-0.000078
1436	1.4278e+02	-17.1476	-38.941744	0.000223	2.233190	0.756625	-0.000090
1437	1.4288e+02	-17.1878	-39.026879	0.000211	2.111931	0.715541	-0.000086
1438	1.4298e+02	-17.2343	-39.105089	0.000194	1.940147	0.657340	-0.000079
1439	1.4308e+02	-17.2615	-39.191038	0.000213	2.132140	0.722389	-0.000086
1440	1.4318e+02	-17.2696	-39.270877	0.000198	1.980567	0.671034	-0.000080
1441	1.4328e+02	-17.3289	-39.356012	0.000211	2.111931	0.715541	-0.000086
1442	1.4338e+02	-17.3722	-39.438295	0.000204	2.041196	0.691576	-0.000083
1443	1.4348e+02	-17.4075	-39.515690	0.000192	1.919937	0.650492	-0.000078
1444	1.4358e+02	-17.4589	-39.608157	0.000229	2.293819	0.777167	-0.000093
1445	1.4368e+02	-17.5006	-39.683922	0.000188	1.879517	0.636798	-0.000076
1446	1.4378e+02	-17.5327	-39.770686	0.000215	2.152350	0.729236	-0.000087
1447	1.4388e+02	-17.5936	-39.858672	0.000218	2.182665	0.739507	-0.000088
1448	1.4398e+02	-17.6113	-39.940141	0.000202	2.020986	0.684729	-0.000082
1449	1.4408e+02	-17.6321	-40.018758	0.000195	1.950252	0.660763	-0.000079
1450	1.4418e+02	-17.7188	-40.104300	0.000212	2.122036	0.718965	-0.000086
1451	1.4428e+02	-17.7605	-40.191064	0.000215	2.152350	0.729236	-0.000087
1452	1.4437e+02	-17.7942	-40.274162	0.000206	2.061406	0.698423	-0.000084
1453	1.4447e+02	-17.8583	-40.362962	0.000220	2.202875	0.746354	-0.000089
1454	1.4457e+02	-17.8776	-40.445653	0.000205	2.051301	0.695000	-0.000083
1455	1.4467e+02	-17.8968	-40.532824	0.000216	2.162455	0.732660	-0.000088
1456	1.4477e+02	-17.9433	-40.618774	0.000213	2.132140	0.722389	-0.000086
1457	1.4487e+02	-17.9802	-40.710833	0.000228	2.283714	0.773743	-0.000093
1458	1.4497e+02	-18.0059	-40.791894	0.000201	2.010881	0.681305	-0.000081
1459	1.4507e+02	-18.0653	-40.874585	0.000205	2.051301	0.695000	-0.000083
1460	1.4517e+02	-18.0685	-40.965015	0.000224	2.243295	0.760049	-0.000091
1461	1.4527e+02	-18.1262	-41.055037	0.000223	2.233190	0.756625	-0.000090
1462	1.4537e+02	-18.1968	-41.145467	0.000224	2.243295	0.760049	-0.000091
1463	1.4547e+02	-18.2177	-41.228158	0.000205	2.051301	0.695000	-0.000083
1464	1.4557e+02	-18.2610	-41.314107	0.000213	2.132140	0.722389	-0.000086
1465	1.4567e+02	-18.3268	-41.404945	0.000225	2.253400	0.763472	-0.000091
1466	1.4577e+02	-18.3540	-41.493745	0.000220	2.202875	0.746354	-0.000089
1467	1.4587e+02	-18.3797	-41.575214	0.000202	2.020986	0.684729	-0.000082
1468	1.4597e+02	-18.4150	-41.670125	0.000235	2.354449	0.797709	-0.000095
1469	1.4607e+02	-18.4391	-41.762999	0.000230	2.303924	0.780591	-0.000093
1470	1.4617e+02	-18.4952	-41.848133	0.000211	2.111931	0.715541	-0.000086
1471	1.4626e+02	-18.5337	-41.934897	0.000215	2.152350	0.729236	-0.000087
1472	1.4636e+02	-18.5562	-42.026549	0.000227	2.273610	0.770320	-0.000092
1473	1.4646e+02	-18.5898	-42.116572	0.000223	2.233190	0.756625	-0.000090
1474	1.4656e+02	-18.6620	-42.207817	0.000226	2.263505	0.766896	-0.000092
1475	1.4666e+02	-18.6765	-42.297025	0.000221	2.212980	0.749778	-0.000090
1476	1.4676e+02	-18.7583	-42.386640	0.000222	2.223085	0.753202	-0.000090
1477	1.4686e+02	-18.7759	-42.475848	0.000221	2.212980	0.749778	-0.000090
1478	1.4696e+02	-18.8064	-42.570352	0.000234	2.344344	0.794285	-0.000095
1479	1.4706e+02	-18.8594	-42.662411	0.000228	2.283714	0.773743	-0.000093
1480	1.4716e+02	-18.8979	-42.749582	0.000216	2.162455	0.732660	-0.000088
1481	1.4726e+02	-18.9299	-42.837568	0.000218	2.182665	0.739507	-0.000088
1482	1.4736e+02	-18.9668	-42.933294	0.000237	2.374659	0.804556	-0.000096
1483	1.4746e+02	-19.0262	-43.029019	0.000237	2.374659	0.804556	-0.000096
1484	1.4756e+02	-19.0807	-43.121486	0.000229	2.293819	0.777167	-0.000093
1485	1.4766e+02	-19.0775	-43.211916	-0.000224	-2.243295	-0.760049	-0.000091
1486	1.4776e+02	-19.1257	-43.312122	0.000249	2.485813	0.842216	-0.000101
1487	1.4786e+02	-19.1882	-43.400516	0.000219	2.192770	0.742931	-0.000089
1488	1.4796e+02	-19.2155	-43.497463	0.000240	2.404974	0.814827	-0.000097
1489	1.4806e+02	-19.2668	-43.589115	0.000227	2.273610	0.770320	-0.000092
1490	1.4816e+02	-19.2941	-43.684026	0.000235	2.354449	0.797709	-0.000095
1491	1.4825e+02	-19.3326	-43.777715	0.000232	2.324134	0.787438	-0.000094
1492	1.4835e+02	-19.3839	-43.865701	0.000218	2.182665	0.739507	-0.000088
1493	1.4845e+02	-19.4080	-43.964278	0.000245	2.445393	0.828522	-0.000099
1494	1.4855e+02	-19.4626	-44.057967	0.000232	2.324134	0.787438	-0.000094
1495	1.4865e+02	-19.5043	-44.156136	0.000244	2.435288	0.825098	-0.000099
1496	1.4875e+02	-19.5123	-44.248196	0.000228	2.283714	0.773743	-0.000093
1497	1.4885e+02	-19.5588	-44.343106	0.000235	2.354449	0.797709	-0.000095
1498	1.4895e+02	-19.6101	-44.441276	0.000244	2.435288	0.825098	-0.000099
1499	1.4905e+02	-19.6502	-44.543112	0.000253	2.526233	0.855911	-0.000102
1500	1.4915e+02	-19.6807	-44.637615	0.000234	2.344344	0.794285	-0.000095
1501	1.4925e+02	-19.7369	-44.741080	0.000257	2.566653	0.869605	-0.000104
1502	1.4935e+02	-19.8026	-44.835176	0.000233	2.334239	0.790862	-0.000095
1503	1.4945e+02	-19.8155	-44.930494	0.000236	2.364554	0.801133	-0.000096
1504	1.4955e+02	-19.8460	-45.031923	0.000252	2.516128	0.852487	-0.000102
1505	1.4965e+02	-19.8748	-45.130907	0.000246	2.455498	0.831945	-0.000099
1506	1.4975e+02	-19.9198	-45.229484	0.000245	2.445393	0.828522	-0.000099
1507	1.4985e+02	-19.9807	-45.332542	0.000256	2.556548	0.866182	-0.000104
1508	1.4995e+02	-19.9069	-45.295473	0.000092	0.919549	0.311552	0.000037
1509	1.5005e+02	-19.8748	-45.253924	0.000103	1.030703	0.349212	0.000042
1510	1.5015e+02	-19.8732	-45.205451	0.000120	1.202487	0.407414	0.000049
1511	1.5025e+02	-19.7898	-45.162272	0.000107	1.071123	0.362906	0.000043
1512	1.5034e+02	-19.7529	-45.114613	0.000118	1.182277	0.400566	0.000048
1513	1.5044e+02	-19.7337	-45.065732	0.000121	1.212592	0.410837	0.000049
1514	1.5054e+02	-19.6695	-45.010741	0.000136	1.364166	0.462192	0.000055
1515	1.5064e+02	-19.6422	-44.963489	0.000117	1.172172	0.397143	0.000047
1516	1.5074e+02	-19.5941	-44.906054	0.000142	1.424795	0.482734	0.000058
1517	1.5084e+02	-19.5941	-44.859209	-0.000116	-1.162067	-0.393719	0.000047
1518	1.5094e+02	-19.4978	-44.799330	0.000149	1.485425	0.503276	0.000060
1519	1.5104e+02	-19.4658	-44.744746	0.000135	1.354061	0.458768	0.000055
1520	1.5114e+02	-19.4642	-44.684867	0.000149	1.485425	0.503276	0.000060
1521	1.5124e+02	-19.4144	-44.632320	0.000130	1.303536	0.441650	0.000053
1522	1.5134e+02	-19.3567	-44.567552	0.000161	1.606684	0.544359	0.000065
1523	1.5144e+02	-19.3342	-44.508488	0.000147	1.465215	0.496428	0.000059
1524	1.5154e+02	-19.2829	-44.449830	0.000146	1.455110	0.493005	0.000059
1525	1.5164e+02	-19.2652	-44.391580	0.000145	1.445005	0.489581	0.000059
1526	1.5174e+02	-19.1898	-44.326813	0.000161	1.606684	0.544359	0.000065
1527	1.5184e+02	-19.2075	-44.267341	-0.000148	-1.475320	-0.499852	0.000060
1528	1.5194e+02	-19.1080	-44.202981	0.000160	1.596579	0.540936	0.000065
1529	1.5204e+02	-19.1128	-44.137398	-0.000163	-1.626894	-0.551207	0.000066
1530	1.5214e+02	-19.0615	-44.076297	0.000152	1.515740	0.513547	0.000061
1531	1.5224e+02	-19.0278	-44.007864	0.000170	1.697628	0.575172	0.000069
1532	1.5233e+02	-18.9749	-43.945133	0.000156	1.556159	0.527241	0.000063
1533	1.5243e+02	-18.9187	-43.880773	0.000160	1.596579	0.540936	0.000065
1534	1.5253e+02	-18.9059	-43.818042	0.000156	1.556159	0.527241	0.000063
1535	1.5263e+02	-18.8642	-43.749201	0.000171	1.707733	0.578596	0.000069
1536	1.5273e+02	-18.8177	-43.681582	0.000168	1.677419	0.568325	0.000068
1537	1.5283e+02	-18.7631	-43.613149	0.000170	1.697628	0.575172	0.000069
1538	1.5293e+02	-18.7455	-43.549196	0.000159	1.586474	0.537512	0.000064
1539	1.5303e+02	-18.7054	-43.477911	0.000177	1.768363	0.599138	0.000072
1540	1.5313e+02	-18.6203	-43.409070	0.000171	1.707733	0.578596	0.000069
1541	1.5323e+02	-18.6123	-43.342266	0.000166	1.657209	0.561478	0.000067
1542	1.5333e+02	-18.5642	-43.271388	0.000176	1.758258	0.595714	0.000071
1543	1.5343e+02	-18.5610	-43.207028	0.000160	1.596579	0.540936	0.000065
1544	1.5353e+02	-18.5048	-43.132892	0.000184	1.839097	0.623103	0.000075
1545	1.5363e+02	-18.4792	-43.066902	0.000164	1.636999	0.554630	0.000066
1546	1.5373e+02	-18.4022	-42.995617	0.000177	1.768363	0.599138	0.000072
1547	1.5383e+02	-18.3524	-42.924332	0.000177	1.768363	0.599138	0.000072
1548	1.5393e+02	-18.3364	-42.853455	0.000176	1.758258	0.595714	0.000071
1549	1.5403e+02	-18.3155	-42.787058	0.000165	1.647104	0.558054	0.000067
1550	1.5413e+02	-18.2931	-42.714551	0.000180	1.798678	0.609409	0.000073
1551	1.5422e+02	-18.2080	-42.639193	0.000187	1.869412	0.633374	0.000076
1552	1.5432e+02	-18.1711	-42.573203	0.000164	1.636999	0.554630	0.000066
1553	1.5442e+02	-18.1262	-42.498659	0.000185	1.849202	0.626527	0.000075
1554	1.5452e+02	-18.0861	-42.424523	0.000184	1.839097	0.623103	0.000075
1555	1.5462e+02	-18.0588	-42.356497	0.000169	1.687524	0.571748	0.000068
1556	1.5472e+02	-18.0268	-42.279509	0.000191	1.909832	0.647069	0.000077
1557	1.5482e+02	-18.0252	-42.216371	0.000157	1.566264	0.530665	0.000063
1558	1.5492e+02	-17.9498	-42.138976	0.000192	1.919937	0.650492	0.000078
1559	1.5502e+02	-17.9081	-42.066876	0.000179	1.788573	0.605985	0.000072
1560	1.5512e+02	-17.8535	-41.993147	0.000183	1.828993	0.619679	0.000074
1561	1.5522e+02	-17.8198	-41.925121	0.000169	1.687524	0.571748	0.000068
1562	1.5532e+02	-17.7492	-41.845282	0.000198	1.980567	0.671034	0.000080
1563	1.5542e+02	-17.7252	-41.779700	0.000163	1.626894	0.551207	0.000066
1564	1.5552e+02	-17.7123	-41.706785	0.000181	1.808783	0.612832	0.000073
1565	1.5562e+02	-17.6498	-41.634279	0.000180	1.798678	0.609409	0.000073
1566	1.5572e+02	-17.6177	-41.565030	0.000172	1.717838	0.582019	0.000070
1567	1.5582e+02	-17.5904	-41.492931	0.000179	1.788573	0.605985	0.000072
1568	1.5592e+02	-17.5631	-41.421646	0.000177	1.768363	0.599138	0.000072
1569	1.5602e+02	-17.4926	-41.345880	0.000188	1.879517	0.636798	0.000076
1570	1.5612e+02	-17.4508	-41.272151	0.000183	1.828993	0.619679	0.000074
1571	1.5622e+02	-17.4364	-41.198829	0.000182	1.818888	0.616256	0.000074
1572	1.5631e+02	-17.3819	-41.128359	0.000175	1.748153	0.592290	0.000071
1573	1.5641e+02	-17.3225	-41.054630	0.000183	1.828993	0.619679	0.000074
1574	1.5651e+02	-17.2984	-40.983752	0.000176	1.758258	0.595714	0.000071
1575	1.5661e+02	-17.2615	-40.914912	0.000171	1.707733	0.578596	0.000069
1576	1.5671e+02	-17.2150	-40.838331	0.000190	1.899727	0.643645	0.000077
1577	1.5681e+02	-17.1765	-40.771934	0.000165	1.647104	0.558054	0.000067
1578	1.5691e+02	-17.1525	-40.697391	0.000185	1.849202	0.626527	0.000075
1579	1.5701e+02	-17.1236	-40.622032	0.000187	1.869412	0.633374	0.000076
1580	1.5711e+02	-17.0626	-40.551969	0.000174	1.738048	0.588867	0.000070
1581	1.5721e+02	-17.0129	-40.477018	0.000186	1.859307	0.629950	0.000075
1582	1.5731e+02	-16.9824	-40.408992	0.000169	1.687524	0.571748	0.000068
1583	1.5741e+02	-16.9487	-40.336078	0.000181	1.808783	0.612832	0.000073
1584	1.5751e+02	-16.8990	-40.269274	0.000166	1.657209	0.561478	0.000067
1585	1.5761e+02	-16.8573	-40.190249	0.000196	1.960357	0.664187	0.000079
1586	1.5771e+02	-16.8252	-40.121408	0.000171	1.707733	0.578596	0.000069
1587	1.5781e+02	-16.8011	-40.052160	0.000172	1.717838	0.582019	0.000070
1588	1.5791e+02	-16.7450	-39.980468	0.000178	1.778468	0.602561	0.000072
1589	1.5801e+02	-16.6969	-39.903073	0.000192	1.919937	0.650492	0.000078
1590	1.5811e+02	-16.6616	-39.832602	0.000175	1.748153	0.592290	0.000071
1591	1.5821e+02	-16.6182	-39.764169	0.000170	1.697628	0.575172	0.000069
1592	1.5830e+02	-16.5605	-39.694921	0.000172	1.717838	0.582019	0.000070
1593	1.5840e+02	-16.5316	-39.624043	0.000176	1.758258	0.595714	0.000071
1594	1.5850e+02	-16.4755	-39.548685	0.000187	1.869412	0.633374	0.000076
1595	1.5860e+02	-16.4723	-39.473734	0.000186	1.859307	0.629950	0.000075
1596	1.5870e+02	-16.4193	-39.404893	0.000171	1.707733	0.578596	0.000069
1597	1.5880e+02	-16.3808	-39.333200	0.000178	1.778468	0.602561	0.000072
1598	1.5890e+02	-16.3664	-39.262730	0.000175	1.748153	0.592290	0.000071
1599	1.5900e+02	-16.2958	-39.186964	0.000188	1.879517	0.636798	0.000076
1600	1.5910e+02	-16.2429	-39.118531	0.000170	1.697628	0.575172	0.000069
1601	1.5920e+02	-16.2268	-39.050505	0.000169	1.687524	0.571748	0.000068
1602	1.5930e+02	-16.1851	-38.974332	0.000189	1.889622	0.640221	0.000077
1603	1.5940e+02	-16.1514	-38.898973	0.000187	1.869412	0.633374	0.000076
1604	1.5950e+02	-16.1001	-38.830132	0.000171	1.707733	0.578596	0.000069
1605	1.5960e+02	-16.0840	-38.757218	0.000181	1.808783	0.612832	0.000073
1606	1.5970e+02	-16.0311	-38.680230	0.000191	1.909832	0.647069	0.000077
1607	1.5980e+02	-15.9733	-38.615056	0.000162	1.616789	0.547783	0.000066
1608	1.5990e+02	-15.9557	-38.541327	0.000183	1.828993	0.619679	0.000074
1609	1.6000e+02	-15.9108	-38.469227	0.000179	1.788573	0.605985	0.000072
1610	1.6010e+02	-15.8851	-38.393054	0.000189	1.889622	0.640221	0.000077
1611	1.6019e+02	-15.8610	-38.322991	0.000174	1.738048	0.588867	0.000070
1612	1.6029e+02	-15.7937	-38.248040	0.000186	1.859307	0.629950	0.000075
1613	1.6039e+02	-15.7439	-38.175533	0.000180	1.798678	0.609409	0.000073
1614	1.6049e+02	-15.6910	-38.103841	0.000178	1.778468	0.602561	0.000072
1615	1.6059e+02	-15.6621	-38.031741	0.000179	1.788573	0.605985	0.000072
1616	1.6069e+02	-15.6188	-37.955161	0.000190	1.899727	0.643645	0.000077
1617	1.6079e+02	-15.5899	-37.883061	0.000179	1.788573	0.605985	0.000072
1618	1.6089e+02	-15.5482	-37.815442	0.000168	1.677419	0.568325	0.000068
1619	1.6099e+02	-15.5242	-37.739676	0.000188	1.879517	0.636798	0.000076
1620	1.6109e+02	-15.4648	-37.663503	0.000189	1.889622	0.640221	0.000077
1621	1.6119e+02	-15.4183	-37.596292	0.000167	1.667314	0.564901	0.000068
1622	1.6129e+02	-15.3702	-37.527858	0.000170	1.697628	0.575172	0.000069
1623	1.6139e+02	-15.3461	-37.452907	0.000186	1.859307	0.629950	0.000075
1624	1.6149e+02	-15.3284	-37.381622	0.000177	1.768363	0.599138	0.000072
1625	1.6159e+02	-15.2675	-37.308301	0.000182	1.818888	0.616256	0.000074
1626	1.6169e+02	-15.2402	-37.233350	0.000186	1.859307	0.629950	0.000075
1627	1.6179e+02	-15.1776	-37.168582	0.000161	1.606684	0.544359	0.000065
1628	1.6189e+02	-15.1407	-37.088743	0.000198	1.980567	0.671034	0.000080
1629	1.6199e+02	-15.1119	-37.020717	0.000169	1.687524	0.571748	0.000068
1630	1.6209e+02	-15.0621	-36.949839	0.000176	1.758258	0.595714	0.000071
1631	1.6219e+02	-15.0605	-36.875703	0.000184	1.839097	0.623103	0.000075
1632	1.6228e+02	-15.0236	-36.800752	0.000186	1.859307	0.629950	0.000075
1633	1.6238e+02	-14.9498	-36.725393	0.000187	1.869412	0.633374	0.000076
1634	1.6248e+02	-14.9338	-36.655738	0.000173	1.727943	0.585443	0.000070
1635	1.6258e+02	-14.8761	-36.585268	0.000175	1.748153	0.592290	0.000071
1636	1.6268e+02	-14.8359	-36.511946	0.000182	1.818888	0.616256	0.000074
1637	1.6278e+02	-14.7958	-36.436588	0.000187	1.869412	0.633374	0.000076
1638	1.6288e+02	-14.7477	-36.364488	0.000179	1.788573	0.605985	0.000072
1639	1.6298e+02	-14.6851	-36.289944	0.000185	1.849202	0.626527	0.000075
1640	1.6308e+02	-14.6787	-36.222733	0.000167	1.667314	0.564901	0.000068
1641	1.6318e+02	-14.6322	-36.144116	0.000195	1.950252	0.660763	0.000079
1642	1.6328e+02	-14.5953	-36.069572	0.000185	1.849202	0.626527	0.000075
1643	1.6338e+02	-14.5536	-36.001546	0.000169	1.687524	0.571748	0.000068
1644	1.6348e+02	-14.5119	-35.932705	0.000171	1.707733	0.578596	0.000069
1645	1.6358e+02	-14.4878	-35.850422	0.000204	2.041196	0.691576	0.000083
1646	1.6368e+02	-14.4461	-35.781173	0.000172	1.717838	0.582019	0.000070
1647	1.6378e+02	-14.4012	-35.701742	0.000197	1.970462	0.667610	0.000080
1648	1.6388e+02	-14.3563	-35.625569	0.000189	1.889622	0.640221	0.000077
1649	1.6398e+02	-14.3242	-35.550618	0.000186	1.859307	0.629950	0.000075
1650	1.6408e+02	-14.2809	-35.483813	0.000166	1.657209	0.561478	0.000067
1651	1.6418e+02	-14.2376	-35.403160	0.000200	2.000776	0.677881	0.000081
1652	1.6427e+02	-14.1846	-35.332689	0.000175	1.748153	0.592290	0.000071
1653	1.6437e+02	-14.1590	-35.254072	0.000195	1.950252	0.660763	0.000079
1654	1.6447e+02	-14.0948	-35.187268	0.000166	1.657209	0.561478	0.000067
1655	1.6457e+02	-14.0691	-35.107836	0.000197	1.970462	0.667610	0.000080
1656	1.6467e+02	-14.0322	-35.029626	0.000194	1.940147	0.657340	0.000079
1657	1.6477e+02	-14.0050	-34.956305	0.000182	1.818888	0.616256	0.000074
1658	1.6487e+02	-13.9713	-34.876466	0.000198	1.980567	0.671034	0.000080
1659	1.6497e+02	-13.9360	-34.808439	0.000169	1.687524	0.571748	0.000068
1660	1.6507e+02	-13.8846	-34.723305	0.000211	2.111931	0.715541	0.000086
1661	1.6517e+02	-13.8333	-34.647132	0.000189	1.889622	0.640221	0.000077
1662	1.6527e+02	-13.8044	-34.567700	0.000197	1.970462	0.667610	0.000080
1663	1.6537e+02	-13.7499	-34.491527	0.000189	1.889622	0.640221	0.000077
1664	1.6547e+02	-13.7338	-34.411280	0.000199	1.990671	0.674458	0.000081
1665	1.6557e+02	-13.6777	-34.338773	0.000180	1.798678	0.609409	0.000073
1666	1.6567e+02	-13.6424	-34.260564	0.000194	1.940147	0.657340	0.000079
1667	1.6577e+02	-13.5782	-34.182354	0.000194	1.940147	0.657340	0.000079
1668	1.6587e+02	-13.5269	-34.104959	0.000192	1.919937	0.650492	0.000078
1669	1.6597e+02	-13.5157	-34.025120	0.000198	1.980567	0.671034	0.000080
1670	1.6607e+02	-13.4996	-33.942429	0.000205	2.051301	0.695000	0.000083
1671	1.6616e+02	-13.4531	-33.871552	0.000176	1.758258	0.595714	0.000071
1672	1.6626e+02	-13.4114	-33.784380	0.000216	2.162455	0.732660	0.000088
1673	1.6636e+02	-13.3697	-33.707800	0.000190	1.899727	0.643645	0.000077
1674	1.6646e+02	-13.3119	-33.626331	0.000202	2.020986	0.684729	0.000082
1675	1.6656e+02	-13.2879	-33.555046	0.000177	1.768363	0.599138	0.000072
1676	1.6666e+02	-13.2381	-33.465838	0.000221	2.212980	0.749778	0.000090
1677	1.6676e+02	-13.2141	-33.390480	0.000187	1.869412	0.633374	0.000076
1678	1.6686e+02	-13.1611	-33.308197	0.000204	2.041196	0.691576	0.000083
1679	1.6696e+02	-13.1467	-33.229172	0.000196	1.960357	0.664187	0.000079
1680	1.6706e+02	-13.0793	-33.150963	0.000194	1.940147	0.657340	0.000079
1681	1.6716e+02	-13.0408	-33.071123	0.000198	1.980567	0.671034	0.000080
1682	1.6726e+02	-13.0055	-32.988026	0.000206	2.061406	0.698423	0.000084
1683	1.6736e+02	-12.9718	-32.909816	0.000194	1.940147	0.657340	0.000079
1684	1.6746e+02	-12.9301	-32.834457	0.000187	1.869412	0.633374	0.000076
1685	1.6756e+02	-12.8724	-32.753804	0.000200	2.000776	0.677881	0.000081
1686	1.6766e+02	-12.8419	-32.674372	0.000197	1.970462	0.667610	0.000080
1687	1.6776e+02	-12.8162	-32.596162	0.000194	1.940147	0.657340	0.000079
1688	1.6786e+02	-12.7729	-32.519989	0.000189	1.889622	0.640221	0.000077
1689	1.6796e+02	-12.7264	-32.431596	0.000219	2.192770	0.742931	0.000089
1690	1.6806e+02	-12.6943	-32.346868	0.000210	2.101826	0.712118	0.000085
1691	1.6816e+02	-12.6109	-32.264585	0.000204	2.041196	0.691576	0.000083
1692	1.6825e+02	-12.6157	-32.193300	-0.000177	-1.768363	-0.599138	0.000072
1693	1.6835e+02	-12.5499	-32.107758	0.000212	2.122036	0.718965	0.000086
1694	1.6845e+02	-12.5162	-32.027919	0.000198	1.980567	0.671034	0.000080
1695	1.6855e+02	-12.4986	-31.941155	0.000215	2.152350	0.729236	0.000087
1696	1.6865e+02	-12.4168	-31.867019	0.000184	1.839097	0.623103	0.000075
1697	1.6875e+02	-12.3943	-31.781070	0.000213	2.132140	0.722389	0.000086
1698	1.6885e+02	-12.3751	-31.704082	0.000191	1.909832	0.647069	0.000077
1699	1.6895e+02	-12.3077	-31.621799	0.000204	2.041196	0.691576	0.000083
1700	1.6905e+02	-12.2692	-31.539923	0.000203	2.031091	0.688152	0.000082
1701	1.6915e+02	-12.2515	-31.452344	0.000217	2.172560	0.736083	0.000088
1702	1.6925e+02	-12.1890	-31.373727	0.000195	1.950252	0.660763	0.000079
1703	1.6935e+02	-12.1633	-31.286963	0.000215	2.152350	0.729236	0.000087
1704	1.6945e+02	-12.1392	-31.204272	0.000205	2.051301	0.695000	0.000083
1705	1.6955e+02	-12.0767	-31.118731	0.000212	2.122036	0.718965	0.000086
1706	1.6965e+02	-12.0382	-31.045816	0.000181	1.808783	0.612832	0.000073
1707	1.6975e+02	-12.0157	-30.958645	0.000216	2.162455	0.732660	0.000088
1708	1.6985e+02	-11.9708	-30.871066	0.000217	2.172560	0.736083	0.000088
1709	1.6995e+02	-11.9211	-30.781044	0.000223	2.233190	0.756625	0.000090
1710	1.7005e+02	-11.8858	-30.700797	0.000199	1.990671	0.674458	0.000081
1711	1.7015e+02	-11.8489	-30.619329	0.000202	2.020986	0.684729	0.000082
1712	1.7024e+02	-11.8023	-30.536231	0.000206	2.061406	0.698423	0.000084
1713	1.7034e+02	-11.7558	-30.452725	0.000207	2.071511	0.701847	0.000084
1714	1.7044e+02	-11.7061	-30.369628	0.000206	2.061406	0.698423	0.000084
1715	1.7054e+02	-11.6740	-30.286530	0.000206	2.061406	0.698423	0.000084
1716	1.7064e+02	-11.6531	-30.199766	0.000215	2.152350	0.729236	0.000087
1717	1.7074e+02	-11.6034	-30.114224	0.000212	2.122036	0.718965	0.000086
1718	1.7084e+02	-11.5216	-30.030719	0.000207	2.071511	0.701847	0.000084
1719	1.7094e+02	-11.5376	-29.950472	-0.000199	-1.990671	-0.674458	0.000081
1720	1.7104e+02	-11.5007	-29.864930	0.000212	2.122036	0.718965	0.000086
1721	1.7114e+02	-11.4478	-29.776944	0.000218	2.182665	0.739507	0.000088
1722	1.7124e+02	-11.4189	-29.686107	0.000225	2.253400	0.763472	0.000091
1723	1.7134e+02	-11.3580	-29.606675	0.000197	1.970462	0.667610	0.000080
1724	1.7144e+02	-11.3163	-29.522762	0.000208	2.081616	0.705271	0.000084
1725	1.7154e+02	-11.2922	-29.439257	0.000207	2.071511	0.701847	0.000084
1726	1.7164e+02	-11.2697	-29.350049	0.000221	2.212980	0.749778	0.000090
1727	1.7174e+02	-11.2216	-29.266137	0.000208	2.081616	0.705271	0.000084
1728	1.7184e+02	-11.1719	-29.190778	0.000187	1.869412	0.633374	0.000076
1729	1.7194e+02	-11.1221	-29.105236	0.000212	2.122036	0.718965	0.000086
1730	1.7204e+02	-11.0869	-29.015621	0.000222	2.223085	0.753202	0.000090
1731	1.7213e+02	-11.0323	-28.929672	0.000213	2.132140	0.722389	0.000086
1732	1.7223e+02	-11.0211	-28.849018	0.000200	2.000776	0.677881	0.000081
1733	1.7233e+02	-10.9649	-28.760217	0.000220	2.202875	0.746354	0.000089
1734	1.7243e+02	-10.9280	-28.680785	0.000197	1.970462	0.667610	0.000080
1735	1.7253e+02	-10.8911	-28.586282	0.000234	2.344344	0.794285	0.000095
1736	1.7263e+02	-10.8671	-28.503999	0.000204	2.041196	0.691576	0.000083
1737	1.7273e+02	-10.8238	-28.420493	0.000207	2.071511	0.701847	0.000084
1738	1.7283e+02	-10.7820	-28.338618	0.000203	2.031091	0.688152	0.000082
1739	1.7293e+02	-10.7131	-28.254298	0.000209	2.091721	0.708694	0.000085
1740	1.7303e+02	-10.6890	-28.165497	0.000220	2.202875	0.746354	0.000089
1741	1.7313e+02	-10.6393	-28.082399	0.000206	2.061406	0.698423	0.000084
1742	1.7323e+02	-10.5992	-28.000523	0.000203	2.031091	0.688152	0.000082
1743	1.7333e+02	-10.5542	-27.919462	0.000201	2.010881	0.681305	0.000081
1744	1.7343e+02	-10.5302	-27.833106	0.000214	2.142245	0.725812	0.000087
1745	1.7353e+02	-10.4869	-27.749600	0.000207	2.071511	0.701847	0.000084
1746	1.7363e+02	-10.4403	-27.674242	0.000187	1.869412	0.633374	0.000076
1747	1.7373e+02	-10.4115	-27.584219	0.000223	2.233190	0.756625	0.000090
1748	1.7383e+02	-10.3762	-27.501936	0.000204	2.041196	0.691576	0.000083
1749	1.7393e+02	-10.3329	-27.415987	0.000213	2.132140	0.722389	0.000086
1750	1.7403e+02	-10.2815	-27.339406	0.000190	1.899727	0.643645	0.000077
1751	1.7413e+02	-10.2559	-27.254272	0.000211	2.111931	0.715541	0.000086
1752	1.7422e+02	-10.2077	-27.169545	0.000210	2.101826	0.712118	0.000085
1753	1.7432e+02	-10.1644	-27.084410	0.000211	2.111931	0.715541	0.000086
1754	1.7442e+02	-10.1516	-27.004571	0.000198	1.980567	0.671034	0.000080
1755	1.7452e+02	-10.0874	-26.919436	0.000211	2.111931	0.715541	0.000086
1756	1.7462e+02	-10.0457	-26.835931	0.000207	2.071511	0.701847	0.000084
1757	1.7472e+02	-10.0232	-26.750389	0.000212	2.122036	0.718965	0.000086
1758	1.7482e+02	-9.9511	-26.667291	0.000206	2.061406	0.698423	0.000084
1759	1.7492e+02	-9.9286	-26.592340	0.000186	1.859307	0.629950	0.000075
1760	1.7502e+02	-9.8837	-26.502317	0.000223	2.233190	0.756625	0.000090
1761	1.7512e+02	-9.8741	-26.424922	0.000192	1.919937	0.650492	0.000078
1762	1.7522e+02	-9.7890	-26.340195	0.000210	2.101826	0.712118	0.000085
1763	1.7532e+02	-9.7922	-26.256690	-0.000207	-2.071511	-0.701847	0.000084
1764	1.7542e+02	-9.7104	-26.174814	0.000203	2.031091	0.688152	0.000082
1765	1.7552e+02	-9.6976	-26.094160	0.000200	2.000776	0.677881	0.000081
1766	1.7562e+02	-9.6430	-26.005360	0.000220	2.202875	0.746354	0.000089
1767	1.7572e+02	-9.6158	-25.924706	0.000200	2.000776	0.677881	0.000081
1768	1.7582e+02	-9.5821	-25.842830	0.000203	2.031091	0.688152	0.000082
1769	1.7592e+02	-9.5243	-25.755251	0.000217	2.172560	0.736083	0.000088
1770	1.7602e+02	-9.5099	-25.674190	0.000201	2.010881	0.681305	0.000081
1771	1.7612e+02	-9.4730	-25.592314	0.000203	2.031091	0.688152	0.000082
1772	1.7621e+02	-9.4361	-25.512068	0.000199	1.990671	0.674458	0.000081
1773	1.7631e+02	-9.3783	-25.428970	0.000206	2.061406	0.698423	0.000084
1774	1.7641e+02	-9.3559	-25.339762	0.000221	2.212980	0.749778	0.000090
1775	1.7651e+02	-9.2773	-25.263181	0.000190	1.899727	0.643645	0.000077
1776	1.7661e+02	-9.2660	-25.176010	0.000216	2.162455	0.732660	0.000088
1777	1.7671e+02	-9.2099	-25.093320	0.000205	2.051301	0.695000	0.000083
1778	1.7681e+02	-9.1794	-25.009000	0.000209	2.091721	0.708694	0.000085
1779	1.7691e+02	-9.1441	-24.929568	0.000197	1.970462	0.667610	0.000080
1780	1.7701e+02	-9.1441	-24.846877	-0.000205	-2.051301	-0.695000	0.000083
1781	1.7711e+02	-9.0751	-24.765816	0.000201	2.010881	0.681305	0.000081
1782	1.7721e+02	-9.0334	-24.681496	0.000209	2.091721	0.708694	0.000085
1783	1.7731e+02	-8.9725	-24.589437	0.000228	2.283714	0.773743	0.000093
1784	1.7741e+02	-8.9580	-24.507561	0.000203	2.031091	0.688152	0.000082
1785	1.7751e+02	-8.9019	-24.426500	0.000201	2.010881	0.681305	0.000081
1786	1.7761e+02	-8.8473	-24.344624	0.000203	2.031091	0.688152	0.000082
1787	1.7771e+02	-8.8104	-24.254194	0.000224	2.243295	0.760049	0.000091
1788	1.7781e+02	-8.7687	-24.175169	0.000196	1.960357	0.664187	0.000079
1789	1.7791e+02	-8.7527	-24.097774	0.000192	1.919937	0.650492	0.000078
1790	1.7801e+02	-8.6757	-24.019565	0.000194	1.940147	0.657340	0.000079
1791	1.7810e+02	-8.6276	-23.932801	0.000215	2.152350	0.729236	0.000087
1792	1.7820e+02	-8.6195	-23.849295	0.000207	2.071511	0.701847	0.000084
1793	1.7830e+02	-8.5891	-23.762124	0.000216	2.162455	0.732660	0.000088
1794	1.7840e+02	-8.5329	-23.684729	0.000192	1.919937	0.650492	0.000078
1795	1.7850e+02	-8.5008	-23.597965	0.000215	2.152350	0.729236	0.000087
1796	1.7860e+02	-8.4752	-23.519348	0.000195	1.950252	0.660763	0.000079
1797	1.7870e+02	-8.3901	-23.435435	0.000208	2.081616	0.705271	0.000084
1798	1.7880e+02	-8.3613	-23.350708	0.000210	2.101826	0.712118	0.000085
1799	1.7890e+02	-8.3340	-23.270054	0.000200	2.000776	0.677881	0.000081
1800	1.7900e+02	-8.2907	-23.185327	0.000210	2.101826	0.712118	0.000085
1801	1.7910e+02	-8.2650	-23.098970	0.000214	2.142245	0.725812	0.000087
1802	1.7920e+02	-8.2329	-23.021983	0.000191	1.909832	0.647069	0.000077
1803	1.7930e+02	-8.2024	-22.940921	0.000201	2.010881	0.681305	0.000081
1804	1.7940e+02	-8.1720	-22.859046	0.000203	2.031091	0.688152	0.000082
1805	1.7950e+02	-8.1142	-22.769023	0.000223	2.233190	0.756625	0.000090
1806	1.7960e+02	-8.0420	-22.691628	0.000192	1.919937	0.650492	0.000078
1807	1.7970e+02	-8.0083	-22.609752	0.000203	2.031091	0.688152	0.000082
1808	1.7980e+02	-7.9843	-22.525839	0.000208	2.081616	0.705271	0.000084
1809	1.7990e+02	-7.9361	-22.435817	0.000223	2.233190	0.756625	0.000090
1810	1.8000e+02	-7.8944	-22.354756	0.000201	2.010881	0.681305	0.000081
1811	1.8009e+02	-7.8623	-22.272472	0.000204	2.041196	0.691576	0.000083
1812	1.8019e+02	-7.8078	-22.188967	0.000207	2.071511	0.701847	0.000084
1813	1.8029e+02	-7.7709	-22.101796	0.000216	2.162455	0.732660	0.000088
1814	1.8039e+02	-7.7645	-22.019105	0.000205	2.051301	0.695000	0.000083
1815	1.8049e+02	-7.6939	-21.935600	0.000207	2.071511	0.701847	0.000084
1816	1.8059e+02	-7.6779	-21.847207	0.000219	2.192770	0.742931	0.000089
1817	1.8069e+02	-7.6313	-21.768590	0.000195	1.950252	0.660763	0.000079
1818	1.8079e+02	-7.5864	-21.683455	0.000211	2.111931	0.715541	0.000086
1819	1.8089e+02	-7.5335	-21.602394	0.000201	2.010881	0.681305	0.000081
1820	1.8099e+02	-7.5158	-21.515223	0.000216	2.162455	0.732660	0.000088
1821	1.8109e+02	-7.4741	-21.428459	0.000215	2.152350	0.729236	0.000087
1822	1.8119e+02	-7.4228	-21.345361	0.000206	2.061406	0.698423	0.000084
1823	1.8129e+02	-7.3731	-21.259411	0.000213	2.132140	0.722389	0.000086
1824	1.8139e+02	-7.3506	-21.167759	0.000227	2.273610	0.770320	0.000092
1825	1.8149e+02	-7.3009	-21.087920	0.000198	1.980567	0.671034	0.000080
1826	1.8159e+02	-7.2511	-21.002378	0.000212	2.122036	0.718965	0.000086
1827	1.8169e+02	-7.2078	-20.916429	0.000213	2.132140	0.722389	0.000086
1828	1.8179e+02	-7.1805	-20.824370	0.000228	2.283714	0.773743	0.000093
1829	1.8189e+02	-7.1613	-20.742086	0.000204	2.041196	0.691576	0.000083
1830	1.8199e+02	-7.0971	-20.654508	0.000217	2.172560	0.736083	0.000088
1831	1.8209e+02	-7.0506	-20.566522	0.000218	2.182665	0.739507	0.000088
1832	1.8218e+02	-7.0089	-20.472426	0.000233	2.334239	0.790862	0.000095
1833	1.8228e+02	-6.9688	-20.386476	0.000213	2.132140	0.722389	0.000086
1834	1.8238e+02	-6.9431	-20.299712	0.000215	2.152350	0.729236	0.000087
1835	1.8248e+02	-6.9158	-20.212541	0.000216	2.162455	0.732660	0.000088
1836	1.8258e+02	-6.8597	-20.127406	0.000211	2.111931	0.715541	0.000086
1837	1.8268e+02	-6.8244	-20.035347	0.000228	2.283714	0.773743	0.000093
1838	1.8278e+02	-6.7747	-19.945324	0.000223	2.233190	0.756625	0.000090
1839	1.8288e+02	-6.7282	-19.856116	0.000221	2.212980	0.749778	0.000090
1840	1.8298e+02	-6.7009	-19.772611	0.000207	2.071511	0.701847	0.000084
1841	1.8308e+02	-6.6463	-19.676886	0.000237	2.374659	0.804556	0.000096
1842	1.8318e+02	-6.6463	-19.590936	-0.000213	-2.132140	-0.722389	0.000086
1843	1.8328e+02	-6.5902	-19.500506	0.000224	2.243295	0.760049	0.000091
1844	1.8338e+02	-6.5405	-19.411706	0.000220	2.202875	0.746354	0.000089
1845	1.8348e+02	-6.5052	-19.321683	0.000223	2.233190	0.756625	0.000090
1846	1.8358e+02	-6.4570	-19.231660	0.000223	2.233190	0.756625	0.000090
1847	1.8368e+02	-6.4266	-19.140415	0.000226	2.263505	0.766896	0.000092
1848	1.8378e+02	-6.4201	-19.062613	0.000193	1.930042	0.653916	0.000078
1849	1.8388e+02	-6.3592	-18.968517	0.000233	2.334239	0.790862	0.000095
1850	1.8398e+02	-6.3159	-18.883790	0.000210	2.101826	0.712118	0.000085
1851	1.8407e+02	-6.2629	-18.798655	0.000211	2.111931	0.715541	0.000086
1852	1.8417e+02	-6.2196	-18.705374	0.000231	2.314029	0.784014	0.000094
1853	1.8427e+02	-6.2084	-18.610055	0.000236	2.364554	0.801133	0.000096
1854	1.8437e+02	-6.1506	-18.522477	0.000217	2.172560	0.736083	0.000088
1855	1.8447e+02	-6.1250	-18.430825	0.000227	2.273610	0.770320	0.000092
1856	1.8457e+02	-6.0640	-18.345690	0.000211	2.111931	0.715541	0.000086
1857	1.8467e+02	-6.0335	-18.254445	0.000226	2.263505	0.766896	0.000092
1858	1.8477e+02	-6.0095	-18.163608	0.000225	2.253400	0.763472	0.000091
1859	1.8487e+02	-5.9389	-18.067068	0.000239	2.394869	0.811403	0.000097
1860	1.8497e+02	-5.9180	-17.979897	0.000216	2.162455	0.732660	0.000088
1861	1.8507e+02	-5.8875	-17.888244	0.000227	2.273610	0.770320	0.000092
1862	1.8517e+02	-5.8266	-17.797000	0.000226	2.263505	0.766896	0.000092
1863	1.8527e+02	-5.8009	-17.706977	0.000223	2.233190	0.756625	0.000090
1864	1.8537e+02	-5.7399	-17.618991	0.000218	2.182665	0.739507	0.000088
1865	1.8547e+02	-5.7239	-17.527339	0.000227	2.273610	0.770320	0.000092
1866	1.8557e+02	-5.6645	-17.434058	0.000231	2.314029	0.784014	0.000094
1867	1.8567e+02	-5.6293	-17.343627	0.000224	2.243295	0.760049	0.000091
1868	1.8577e+02	-5.5843	-17.249531	0.000233	2.334239	0.790862	0.000095
1869	1.8587e+02	-5.5394	-17.161138	0.000219	2.192770	0.742931	0.000089
1870	1.8597e+02	-5.5025	-17.066227	0.000235	2.354449	0.797709	0.000095
1871	1.8606e+02	-5.4785	-16.977427	0.000220	2.202875	0.746354	0.000089
1872	1.8616e+02	-5.4127	-16.884960	0.000229	2.293819	0.777167	0.000093
1873	1.8626e+02	-5.3886	-16.793308	0.000227	2.273610	0.770320	0.000092
1874	1.8636e+02	-5.3309	-16.697175	0.000238	2.384764	0.807980	0.000097
1875	1.8646e+02	-5.3437	-16.605930	-0.000226	-2.263505	-0.766896	0.000092
1876	1.8656e+02	-5.2811	-16.503687	0.000254	2.536338	0.859334	0.000103
1877	1.8666e+02	-5.2186	-16.418553	0.000211	2.111931	0.715541	0.000086
1878	1.8676e+02	-5.1801	-16.327715	0.000225	2.253400	0.763472	0.000091
1879	1.8686e+02	-5.1496	-16.235656	0.000228	2.283714	0.773743	0.000093
1880	1.8696e+02	-5.0983	-16.140338	0.000236	2.364554	0.801133	0.000096
1881	1.8706e+02	-5.0710	-16.042983	0.000242	2.415079	0.818251	0.000098
1882	1.8716e+02	-5.0261	-15.954997	0.000218	2.182665	0.739507	0.000088
1883	1.8726e+02	-5.0164	-15.861308	0.000232	2.324134	0.787438	0.000094
1884	1.8736e+02	-4.9362	-15.766397	0.000235	2.354449	0.797709	0.000095
1885	1.8746e+02	-4.9106	-15.669450	0.000240	2.404974	0.814827	0.000097
1886	1.8756e+02	-4.8753	-15.579427	0.000223	2.233190	0.756625	0.000090
1887	1.8766e+02	-4.8255	-15.482072	0.000242	2.415079	0.818251	0.000098
1888	1.8776e+02	-4.7758	-15.388791	0.000231	2.314029	0.784014	0.000094
1889	1.8786e+02	-4.7501	-15.287770	0.000251	2.506023	0.849064	0.000102
1890	1.8796e+02	-4.7197	-15.200191	0.000217	2.172560	0.736083	0.000088
1891	1.8806e+02	-4.6908	-15.105688	0.000234	2.344344	0.794285	0.000095
1892	1.8815e+02	-4.6459	-15.013221	0.000229	2.293819	0.777167	0.000093
1893	1.8825e+02	-4.5961	-14.913422	0.000248	2.475708	0.838793	0.000100
1894	1.8835e+02	-4.5400	-14.825028	0.000219	2.192770	0.742931	0.000089
1895	1.8845e+02	-4.5336	-14.728896	0.000238	2.384764	0.807980	0.000097
1896	1.8855e+02	-4.4662	-14.636022	0.000230	2.303924	0.780591	0.000093
1897	1.8865e+02	-4.4357	-14.544369	0.000227	2.273610	0.770320	0.000092
1898	1.8875e+02	-4.4084	-14.445793	0.000245	2.445393	0.828522	0.000099
1899	1.8885e+02	-4.3587	-14.354141	0.000227	2.273610	0.770320	0.000092
1900	1.8895e+02	-4.2929	-14.264932	0.000221	2.212980	0.749778	0.000090
1901	1.8905e+02	-4.2673	-14.167578	0.000242	2.415079	0.818251	0.000098
1902	1.8915e+02	-4.2689	-14.077962	-0.000222	-2.223085	-0.753202	0.000090
1903	1.8925e+02	-4.1967	-13.978571	0.000247	2.465603	0.835369	0.000100
1904	1.8935e+02	-4.1646	-13.886919	0.000227	2.273610	0.770320	0.000092
1905	1.8945e+02	-4.1020	-13.791600	0.000236	2.364554	0.801133	0.000096
1906	1.8955e+02	-4.0699	-13.699134	0.000229	2.293819	0.777167	0.000093
1907	1.8965e+02	-4.0411	-13.607889	0.000226	2.263505	0.766896	0.000092
1908	1.8975e+02	-3.9929	-13.515015	0.000230	2.303924	0.780591	0.000093
1909	1.8985e+02	-3.9753	-13.418882	0.000238	2.384764	0.807980	0.000097
1910	1.8995e+02	-3.9240	-13.327637	0.000226	2.263505	0.766896	0.000092
1911	1.9004e+02	-3.8726	-13.235578	0.000228	2.283714	0.773743	0.000093
1912	1.9014e+02	-3.8181	-13.133335	0.000254	2.536338	0.859334	0.000103
1913	1.9024e+02	-3.8036	-13.054718	0.000195	1.950252	0.660763	0.000079
1914	1.9034e+02	-3.7603	-12.955734	0.000246	2.455498	0.831945	0.000099
1915	1.9044e+02	-3.7074	-12.868562	0.000216	2.162455	0.732660	0.000088
1916	1.9054e+02	-3.6833	-12.769171	0.000247	2.465603	0.835369	0.000100
1917	1.9064e+02	-3.6496	-12.679963	0.000221	2.212980	0.749778	0.000090
1918	1.9074e+02	-3.5887	-12.588311	0.000227	2.273610	0.770320	0.000092
1919	1.9084e+02	-3.5662	-12.497473	0.000225	2.253400	0.763472	0.000091
1920	1.9094e+02	-3.5245	-12.400118	0.000242	2.415079	0.818251	0.000098
1921	1.9104e+02	-3.4555	-12.312947	0.000216	2.162455	0.732660	0.000088
1922	1.9114e+02	-3.4459	-12.222924	0.000223	2.233190	0.756625	0.000090
1923	1.9124e+02	-3.3930	-12.133716	0.000221	2.212980	0.749778	0.000090
1924	1.9134e+02	-3.3641	-12.035954	0.000243	2.425183	0.821674	0.000098
1925	1.9144e+02	-3.3127	-11.943895	0.000228	2.283714	0.773743	0.000093
1926	1.9154e+02	-3.2839	-11.856723	0.000216	2.162455	0.732660	0.000088
1927	1.9164e+02	-3.2422	-11.766293	0.000224	2.243295	0.760049	0.000091
1928	1.9174e+02	-3.1876	-11.673012	0.000231	2.314029	0.784014	0.000094
1929	1.9184e+02	-3.1299	-11.581767	0.000226	2.263505	0.766896	0.000092
1930	1.9194e+02	-3.0881	-11.492966	0.000220	2.202875	0.746354	0.000089
1931	1.9203e+02	-3.0881	-11.398870	-0.000233	-2.334239	-0.790862	0.000095
1932	1.9213e+02	-3.0400	-11.307218	0.000227	2.273610	0.770320	0.000092
1933	1.9223e+02	-2.9951	-11.215566	0.000227	2.273610	0.770320	0.000092
1934	1.9233e+02	-2.9582	-11.125543	0.000223	2.233190	0.756625	0.000090
1935	1.9243e+02	-2.9341	-11.035521	0.000223	2.233190	0.756625	0.000090
1936	1.9253e+02	-2.8716	-10.940610	0.000235	2.354449	0.797709	0.000095
1937	1.9263e+02	-2.8411	-10.846514	0.000233	2.334239	0.790862	0.000095
1938	1.9273e+02	-2.7946	-10.758528	0.000218	2.182665	0.739507	0.000088
1939	1.9283e+02	-2.7785	-10.665654	0.000230	2.303924	0.780591	0.000093
1940	1.9293e+02	-2.7304	-10.574002	0.000227	2.273610	0.770320	0.000092
1941	1.9303e+02	-2.7095	-10.474610	0.000247	2.465603	0.835369	0.000100
1942	1.9313e+02	-2.6325	-10.388661	0.000213	2.132140	0.722389	0.000086
1943	1.9323e+02	-2.5924	-10.295379	0.000231	2.314029	0.784014	0.000094
1944	1.9333e+02	-2.5652	-10.205357	0.000223	2.233190	0.756625	0.000090
1945	1.9343e+02	-2.5219	-10.112075	0.000231	2.314029	0.784014	0.000094
1946	1.9353e+02	-2.4641	-10.020423	0.000227	2.273610	0.770320	0.000092
1947	1.9363e+02	-2.4416	-9.928364	0.000228	2.283714	0.773743	0.000093
1948	1.9373e+02	-2.4096	-9.835490	0.000230	2.303924	0.780591	0.000093
1949	1.9383e+02	-2.3534	-9.747911	0.000217	2.172560	0.736083	0.000088
1950	1.9393e+02	-2.3165	-9.648519	0.000247	2.465603	0.835369	0.000100
1951	1.9403e+02	-2.2668	-9.557682	0.000225	2.253400	0.763472	0.000091
1952	1.9412e+02	-2.2443	-9.468474	0.000221	2.212980	0.749778	0.000090
1953	1.9422e+02	-2.2187	-9.377229	0.000226	2.263505	0.766896	0.000092
1954	1.9432e+02	-2.1962	-9.286392	0.000225	2.253400	0.763472	0.000091
1955	1.9442e+02	-2.1096	-9.191481	0.000235	2.354449	0.797709	0.000095
1956	1.9452e+02	-2.0839	-9.099829	0.000227	2.273610	0.770320	0.000092
1957	1.9462e+02	-2.0759	-9.012658	0.000216	2.162455	0.732660	0.000088
1958	1.9472e+02	-2.0149	-8.926708	0.000213	2.132140	0.722389	0.000086
1959	1.9482e+02	-1.9524	-8.833427	0.000231	2.314029	0.784014	0.000094
1960	1.9492e+02	-1.9443	-8.742997	0.000224	2.243295	0.760049	0.000091
1961	1.9502e+02	-1.9122	-8.650530	0.000229	2.293819	0.777167	0.000093
1962	1.9512e+02	-1.8240	-8.558878	0.000227	2.273610	0.770320	0.000092
1963	1.9522e+02	-1.8352	-8.469670	-0.000221	-2.212980	-0.749778	0.000090
1964	1.9532e+02	-1.7743	-8.371908	0.000243	2.425183	0.821674	0.000098
1965	1.9542e+02	-1.7438	-8.285144	0.000215	2.152350	0.729236	0.000087
1966	1.9552e+02	-1.6989	-8.191455	0.000232	2.324134	0.787438	0.000094
1967	1.9562e+02	-1.6652	-8.104691	0.000215	2.152350	0.729236	0.000087
1968	1.9572e+02	-1.6042	-8.008966	0.000237	2.374659	0.804556	0.000096
1969	1.9582e+02	-1.5721	-7.920980	0.000218	2.182665	0.739507	0.000088
1970	1.9592e+02	-1.5272	-7.835845	0.000211	2.111931	0.715541	0.000086
1971	1.9601e+02	-1.4759	-7.740119	0.000237	2.374659	0.804556	0.000096
1972	1.9611e+02	-1.4534	-7.647245	0.000230	2.303924	0.780591	0.000093
1973	1.9621e+02	-1.4117	-7.558037	0.000221	2.212980	0.749778	0.000090
1974	1.9631e+02	-1.3700	-7.461497	0.000239	2.394869	0.811403	0.000097
1975	1.9641e+02	-1.3107	-7.376770	0.000210	2.101826	0.712118	0.000085
1976	1.9651e+02	-1.2802	-7.285525	0.000226	2.263505	0.766896	0.000092
1977	1.9661e+02	-1.2657	-7.188578	0.000240	2.404974	0.814827	0.000097
1978	1.9671e+02	-1.1952	-7.099777	0.000220	2.202875	0.746354	0.000089
1979	1.9681e+02	-1.1567	-7.011384	0.000219	2.192770	0.742931	0.000089
1980	1.9691e+02	-1.1246	-6.915251	0.000238	2.384764	0.807980	0.000097
1981	1.9701e+02	-1.0813	-6.820340	0.000235	2.354449	0.797709	0.000095
1982	1.9711e+02	-1.0315	-6.729095	0.000226	2.263505	0.766896	0.000092
1983	1.9721e+02	-0.9962	-6.641924	0.000216	2.162455	0.732660	0.000088
1984	1.9731e+02	-0.9401	-6.544569	0.000242	2.415079	0.818251	0.000098
1985	1.9741e+02	-0.9064	-6.457805	0.000215	2.152350	0.729236	0.000087
1986	1.9751e+02	-0.8743	-6.364116	0.000232	2.324134	0.787438	0.000094
1987	1.9761e+02	-0.8374	-6.265132	0.000246	2.455498	0.831945	0.000099
1988	1.9771e+02	-0.8470	-6.177553	-0.000217	-2.172560	-0.736083	0.000088
1989	1.9781e+02	-0.7893	-6.079791	0.000243	2.425183	0.821674	0.000098
1990	1.9791e+02	-0.7171	-5.987324	0.000229	2.293819	0.777167	0.000093
1991	1.9800e+02	-0.6882	-5.892006	0.000236	2.364554	0.801133	0.000096
1992	1.9810e+02	-0.6417	-5.807279	0.000210	2.101826	0.712118	0.000085
1993	1.9820e+02	-0.6305	-5.708295	0.000246	2.455498	0.831945	0.000099
1994	1.9830e+02	-0.5615	-5.614199	0.000233	2.334239	0.790862	0.000095
1995	1.9840e+02	-0.5053	-5.520917	0.000231	2.314029	0.784014	0.000094
1996	1.9850e+02	-0.5069	-5.429673	-0.000226	-2.263505	-0.766896	0.000092
1997	1.9860e+02	-0.4444	-5.332318	0.000242	2.415079	0.818251	0.000098
1998	1.9870e+02	-0.4203	-5.237814	0.000234	2.344344	0.794285	0.000095
1999	1.9880e+02	-0.3722	-5.142903	0.000235	2.354449	0.797709	0.000095
2000	1.9890e+02	-0.3433	-5.045956	0.000240	2.404974	0.814827	0.000097
2001	1.9900e+02	-0.2952	-4.951452	0.000234	2.344344	0.794285	0.000095
2002	1.9910e+02	-0.2358	-4.854098	0.000242	2.415079	0.818251	0.000098
2003	1.9920e+02	-0.1925	-4.759594	0.000234	2.344344	0.794285	0.000095
2004	1.9930e+02	-0.1684	-4.663869	0.000237	2.374659	0.804556	0.000096
2005	1.9940e+02	-0.1492	-4.567328	0.000239	2.394869	0.811403	0.000097
2006	1.9950e+02	-0.1123	-4.474047	0.000231	2.314029	0.784014	0.000094
2007	1.9960e+02	-0.0305	-4.377099	0.000240	2.404974	0.814827	0.000097
2008	1.9970e+02	-0.0257	-4.279745	0.000242	2.415079	0.818251	0.000098
2009	1.9980e+02	0.0321	-4.180353	0.000242	2.415079	0.818251	0.000100

Center data before PMax,+/-Pr and +/-Vc Calc.

PMax (uC/cm2):	4.53e+01
Pr (uC/cm2):	-1.05e+00
-Pr (uC/cm2):	-4.18e+00
PLoss (uC/cm2):	-2.12e+00
Vc:	9.22e-01
-Vc:	4.58e-01
C (Max-Eff) (nF):	2.26e-01
K (Eff):	7.67e+02
Vert. (+/-Pr) Shift (uC/cm2):	-2.61e+00
Horiz. Shift (+/-Vc):	6.90e-01
Offset (uC/cm2):	2.06e+00

A (Loop Area - uC/cm2·Volts):	2.22e-04



Hysteresis Version: 5.48.1 - Radiant Technologies, Inc., 1999 - 9/12/24

