»»»»»»»»»»»»»»»»»»»»»»»»»»»»»»»»»»»» Hysteresis ««««««««««««««««««««««««««««««««««««
»»»  Executed Version:	5.48.1
»»»  Vision Version:	5.48.4 (R)
»»»  Vision Compiled:	9/18/24
»»»  Driver Version:	5.47.0
»»»  Windows Version:	Windows 8 or 8.1
»»»  Processor Information:	x86 (AMD or Intel) - 32 Processors
»»»  Tester Name:	PMF21124-494 (100V)
»»»  Tester S/N:	PMF21124-494
»»»  Internal Amp Type:	100V RevK 270k
»»»  Internal Amp S/N:	iAB2-596/K     
»»»  Execution Count:	1
»»»»»»»»»»»»»»»»»»»»»»»»»»»»»»»»»»»»»»»»»»««««««««««««««««««««««««««««««««««««««««««

Stored:	6/17/2025 - 10:46:50
Configured:	06/17/25 10:39:14 AM
Executed:	06/17/25 10:45:43 AM

»»»»»»»»»»»»»»»»»»»»»»»»»»»»»»»»»»» Sample Info ««««««««««««««««««««««««««««««««««««
Sample Name:	
Lot Name:	
Wafer Name:	
Die Row/Column:	0/0
Capacitor Number:	0
Sample Area (cm2):	1.00e-04
Sample Thickness (microns):	3.00e-01

Amplifier:	Internal

»»»»»»»»»»»»»»»»»»»»»»»»»»»»»»»»»»» Tester Info «««««««««««««««««««««««««««««««««««
Tester Name:	PMF21124-494 (100V)
Tester Serial Number:	PMF21124-494
Return Signal Amp. Level:	1.9 [Index: 2]

»»»»»»»»»»»»»»»»»»»»»»»»»»»»»»»» Hysteresis Info ««««««««««««««««««««««««««««««««««
Task Name:	Hyst-180
Volts:	20.00
Field:	666.67 (kV/cm)
DCBias:	0.00
DCField:	0.00 (kV/cm)
Hysteresis Period (ms):	2.00e+02
Preset:	Enabled
Preset Delay (ms):	1.00e+03
Profile:	Standard Bipolar

»»»»»»»»»»»»»»»»»»»»»»»»»»»»»»»»»»»»»» Data «««««««««««««««««««««««««««««««««««««««
Points:	2009

Valid Data

Point	Time (ms)	Drive Voltage	Measured Polarization (uC/cm2)	Capacitance (uF)	Normalized Capacitance (uF/cm2)	Dielectric Constant	Instantaneous Current (mA)
   1	0.0000e+00	0.0064	-2.212481	0.000148	1.484745	0.503045	0.000060
   2	9.9500e-02	0.0738	-2.153009	0.000148	1.484745	0.503045	0.000060
   3	1.9900e-01	0.0610	-2.065430	-0.000219	-2.186440	-0.740786	0.000088
   4	2.9850e-01	0.1251	-1.975408	0.000225	2.247457	0.761459	0.000090
   5	3.9800e-01	0.1620	-1.884163	0.000228	2.277965	0.771796	0.000092
   6	4.9750e-01	0.2037	-1.792918	0.000228	2.277965	0.771796	0.000092
   7	5.9700e-01	0.2647	-1.700044	0.000232	2.318643	0.785578	0.000093
   8	6.9650e-01	0.2775	-1.610429	0.000224	2.237288	0.758014	0.000090
   9	7.9600e-01	0.3545	-1.515518	0.000237	2.369491	0.802805	0.000095
  10	8.9550e-01	0.3610	-1.428754	0.000217	2.166101	0.733895	0.000087
  11	9.9500e-01	0.4171	-1.337917	0.000227	2.267796	0.768350	0.000091
  12	1.0945e+00	0.4364	-1.247894	0.000225	2.247457	0.761459	0.000090
  13	1.1940e+00	0.5166	-1.157464	0.000226	2.257626	0.764905	0.000091
  14	1.2935e+00	0.5230	-1.064997	0.000231	2.308474	0.782132	0.000093
  15	1.3930e+00	0.5631	-0.978233	0.000217	2.166101	0.733895	0.000087
  16	1.4925e+00	0.6144	-0.885359	0.000232	2.318643	0.785578	0.000093
  17	1.5920e+00	0.6481	-0.794114	0.000228	2.277965	0.771796	0.000092
  18	1.6915e+00	0.6946	-0.693908	0.000250	2.501694	0.847597	0.000101
  19	1.7910e+00	0.7283	-0.607959	0.000215	2.145762	0.727004	0.000086
  20	1.8905e+00	0.7813	-0.510604	0.000243	2.430508	0.823478	0.000098
  21	1.9900e+00	0.8021	-0.422211	0.000221	2.206779	0.747677	0.000089
  22	2.0895e+00	0.8615	-0.321597	0.000251	2.511864	0.851042	0.000101
  23	2.1890e+00	0.8727	-0.230352	0.000228	2.277965	0.771796	0.000092
  24	2.2885e+00	0.9160	-0.140737	0.000224	2.237288	0.758014	0.000090
  25	2.3880e+00	0.9706	-0.045826	0.000237	2.369491	0.802805	0.000095
  26	2.4875e+00	0.9898	0.051529	0.000243	2.430508	0.823478	0.000098
  27	2.5870e+00	1.0315	0.145625	0.000235	2.349152	0.795914	0.000095
  28	2.6865e+00	1.0909	0.233611	0.000220	2.196610	0.744231	0.000088
  29	2.7860e+00	1.1358	0.326892	0.000233	2.328813	0.789023	0.000094
  30	2.8855e+00	1.1422	0.423840	0.000242	2.420338	0.820033	0.000097
  31	2.9850e+00	1.1935	0.520380	0.000241	2.410169	0.816587	0.000097
  32	3.0845e+00	1.2369	0.607959	0.000219	2.186440	0.740786	0.000088
  33	3.1840e+00	1.2962	0.700426	0.000231	2.308474	0.782132	0.000093
  34	3.2835e+00	1.3604	0.795336	0.000237	2.369491	0.802805	0.000095
  35	3.3830e+00	1.3893	0.893099	0.000244	2.440677	0.826924	0.000098
  36	3.4825e+00	1.4117	0.981899	0.000222	2.216949	0.751122	0.000089
  37	3.5820e+00	1.4631	1.078032	0.000240	2.399999	0.813142	0.000097
  38	3.6815e+00	1.4743	1.168055	0.000225	2.247457	0.761459	0.000090
  39	3.7810e+00	1.5385	1.265002	0.000242	2.420338	0.820033	0.000097
  40	3.8805e+00	1.5497	1.356654	0.000229	2.288135	0.775241	0.000092
  41	3.9800e+00	1.6139	1.449528	0.000232	2.318643	0.785578	0.000093
  42	4.0795e+00	1.6379	1.544439	0.000237	2.369491	0.802805	0.000095
  43	4.1790e+00	1.6764	1.636499	0.000230	2.298304	0.778687	0.000093
  44	4.2785e+00	1.7310	1.733446	0.000242	2.420338	0.820033	0.000097
  45	4.3780e+00	1.7631	1.826728	0.000233	2.328813	0.789023	0.000094
  46	4.4775e+00	1.8032	1.922046	0.000238	2.379660	0.806251	0.000096
  47	4.5770e+00	1.8433	2.015327	0.000233	2.328813	0.789023	0.000094
  48	4.6765e+00	1.8930	2.112682	0.000243	2.430508	0.823478	0.000098
  49	4.7760e+00	1.9187	2.206778	0.000235	2.349152	0.795914	0.000095
  50	4.8755e+00	1.9620	2.298838	0.000230	2.298304	0.778687	0.000093
  51	4.9750e+00	2.0245	2.404747	0.000264	2.644067	0.895834	0.000106
  52	5.0745e+00	2.0294	2.496806	0.000230	2.298304	0.778687	0.000093
  53	5.1740e+00	2.0871	2.594568	0.000244	2.440677	0.826924	0.000098
  54	5.2735e+00	2.1096	2.691109	0.000241	2.410169	0.816587	0.000097
  55	5.3730e+00	2.1705	2.789685	0.000246	2.461016	0.833815	0.000099
  56	5.4725e+00	2.2203	2.888670	0.000247	2.471186	0.837260	0.000099
  57	5.5720e+00	2.2219	2.988876	0.000250	2.501694	0.847597	0.000101
  58	5.6715e+00	2.2620	3.086231	0.000243	2.430508	0.823478	0.000098
  59	5.7710e+00	2.3261	3.180327	0.000235	2.349152	0.795914	0.000095
  60	5.8705e+00	2.3454	3.280533	0.000250	2.501694	0.847597	0.000101
  61	5.9700e+00	2.3999	3.374629	0.000235	2.349152	0.795914	0.000095
  62	6.0695e+00	2.4272	3.480538	0.000264	2.644067	0.895834	0.000106
  63	6.1690e+00	2.4882	3.566488	0.000215	2.145762	0.727004	0.000086
  64	6.2685e+00	2.5219	3.672804	0.000265	2.654237	0.899280	0.000107
  65	6.3680e+00	2.5555	3.767715	0.000237	2.369491	0.802805	0.000095
  66	6.4675e+00	2.6005	3.869143	0.000253	2.532203	0.857933	0.000102
  67	6.5670e+00	2.6502	3.965683	0.000241	2.410169	0.816587	0.000097
  68	6.6665e+00	2.6903	4.061409	0.000239	2.389830	0.809696	0.000096
  69	6.7660e+00	2.7176	4.157542	0.000240	2.399999	0.813142	0.000097
  70	6.8655e+00	2.7561	4.262229	0.000261	2.613559	0.885498	0.000105
  71	6.9650e+00	2.7898	4.358769	0.000241	2.410169	0.816587	0.000097
  72	7.0645e+00	2.8395	4.458161	0.000248	2.481355	0.840706	0.000100
  73	7.1640e+00	2.8812	4.554293	0.000240	2.399999	0.813142	0.000097
  74	7.2635e+00	2.9277	4.656129	0.000254	2.542372	0.861379	0.000102
  75	7.3630e+00	2.9566	4.757150	0.000252	2.522033	0.854488	0.000102
  76	7.4625e+00	3.0127	4.843914	0.000217	2.166101	0.733895	0.000087
  77	7.5620e+00	3.0240	4.948601	0.000261	2.613559	0.885498	0.000105
  78	7.6615e+00	3.0785	5.051251	0.000256	2.562711	0.868270	0.000103
  79	7.7610e+00	3.1106	5.147384	0.000240	2.399999	0.813142	0.000097
  80	7.8605e+00	3.1700	5.247998	0.000251	2.511864	0.851042	0.000101
  81	7.9600e+00	3.2069	5.346982	0.000247	2.471186	0.837260	0.000099
  82	8.0595e+00	3.2373	5.443115	0.000240	2.399999	0.813142	0.000097
  83	8.1590e+00	3.2774	5.546580	0.000258	2.583050	0.875161	0.000104
  84	8.2585e+00	3.3224	5.648823	0.000255	2.552542	0.864825	0.000103
  85	8.3580e+00	3.3432	5.749029	0.000250	2.501694	0.847597	0.000101
  86	8.4575e+00	3.3817	5.850050	0.000252	2.522033	0.854488	0.000102
  87	8.5570e+00	3.4379	5.954330	0.000260	2.603389	0.882052	0.000105
  88	8.6565e+00	3.4828	6.055351	0.000252	2.522033	0.854488	0.000102
  89	8.7560e+00	3.5213	6.155964	0.000251	2.511864	0.851042	0.000101
  90	8.8555e+00	3.5694	6.252504	0.000241	2.410169	0.816587	0.000097
  91	8.9550e+00	3.5951	6.357599	0.000262	2.623728	0.888943	0.000106
  92	9.0545e+00	3.6480	6.452917	0.000238	2.379660	0.806251	0.000096
  93	9.1540e+00	3.6753	6.559233	0.000265	2.654237	0.899280	0.000107
  94	9.2535e+00	3.7074	6.657403	0.000245	2.450847	0.830369	0.000099
  95	9.3530e+00	3.7619	6.756795	0.000248	2.481355	0.840706	0.000100
  96	9.4525e+00	3.7972	6.859852	0.000257	2.572881	0.871716	0.000104
  97	9.5520e+00	3.8437	6.964132	0.000260	2.603389	0.882052	0.000105
  98	9.6515e+00	3.8662	7.060672	0.000241	2.410169	0.816587	0.000097
  99	9.7510e+00	3.9143	7.165359	0.000261	2.613559	0.885498	0.000105
 100	9.8505e+00	3.9528	7.268417	0.000257	2.572881	0.871716	0.000104
 101	9.9500e+00	3.9849	7.369030	0.000251	2.511864	0.851042	0.000101
 102	1.0050e+01	4.0475	7.466385	0.000243	2.430508	0.823478	0.000098
 103	1.0149e+01	4.0571	7.569443	0.000257	2.572881	0.871716	0.000104
 104	1.0248e+01	4.1277	7.665983	0.000241	2.410169	0.816587	0.000097
 105	1.0348e+01	4.1550	7.769041	0.000257	2.572881	0.871716	0.000104
 106	1.0447e+01	4.1903	7.862322	0.000233	2.328813	0.789023	0.000094
 107	1.0547e+01	4.2400	7.964158	0.000254	2.542372	0.861379	0.000102
 108	1.0646e+01	4.2849	8.067216	0.000257	2.572881	0.871716	0.000104
 109	1.0746e+01	4.3106	8.165792	0.000246	2.461016	0.833815	0.000099
 110	1.0845e+01	4.3491	8.270887	0.000262	2.623728	0.888943	0.000106
 111	1.0945e+01	4.3924	8.366612	0.000239	2.389830	0.809696	0.000096
 112	1.1044e+01	4.4229	8.466004	0.000248	2.481355	0.840706	0.000100
 113	1.1144e+01	4.4517	8.567840	0.000254	2.542372	0.861379	0.000102
 114	1.1243e+01	4.5143	8.675785	0.000269	2.694915	0.913062	0.000108
 115	1.1343e+01	4.5480	8.773140	0.000243	2.430508	0.823478	0.000098
 116	1.1443e+01	4.5817	8.872124	0.000247	2.471186	0.837260	0.000099
 117	1.1542e+01	4.6443	8.968665	0.000241	2.410169	0.816587	0.000097
 118	1.1642e+01	4.6619	9.076610	0.000269	2.694915	0.913062	0.000108
 119	1.1741e+01	4.7004	9.174780	0.000245	2.450847	0.830369	0.000099
 120	1.1841e+01	4.7517	9.273357	0.000246	2.461016	0.833815	0.000099
 121	1.1940e+01	4.7630	9.373156	0.000249	2.491525	0.844151	0.000100
 122	1.2040e+01	4.8544	9.476621	0.000258	2.583050	0.875161	0.000104
 123	1.2139e+01	4.8608	9.576012	0.000248	2.481355	0.840706	0.000100
 124	1.2239e+01	4.8913	9.682736	0.000266	2.664406	0.902725	0.000107
 125	1.2338e+01	4.9122	9.778054	0.000238	2.379660	0.806251	0.000096
 126	1.2438e+01	4.9988	9.881927	0.000259	2.593220	0.878607	0.000104
 127	1.2537e+01	5.0245	9.980911	0.000247	2.471186	0.837260	0.000099
 128	1.2636e+01	5.0565	10.083154	0.000255	2.552542	0.864825	0.000103
 129	1.2736e+01	5.1079	10.178879	0.000239	2.389830	0.809696	0.000096
 130	1.2835e+01	5.1624	10.284788	0.000264	2.644067	0.895834	0.000106
 131	1.2935e+01	5.1929	10.382958	0.000245	2.450847	0.830369	0.000099
 132	1.3034e+01	5.2073	10.482350	0.000248	2.481355	0.840706	0.000100
 133	1.3134e+01	5.2651	10.585407	0.000257	2.572881	0.871716	0.000104
 134	1.3233e+01	5.3004	10.679503	0.000235	2.349152	0.795914	0.000095
 135	1.3333e+01	5.3565	10.784598	0.000262	2.623728	0.888943	0.000106
 136	1.3432e+01	5.3886	10.882360	0.000244	2.440677	0.826924	0.000098
 137	1.3532e+01	5.4351	10.977678	0.000238	2.379660	0.806251	0.000096
 138	1.3632e+01	5.4608	11.074626	0.000242	2.420338	0.820033	0.000097
 139	1.3731e+01	5.5073	11.174425	0.000249	2.491525	0.844151	0.000100
 140	1.3831e+01	5.5571	11.270965	0.000241	2.410169	0.816587	0.000097
 141	1.3930e+01	5.5891	11.367912	0.000242	2.420338	0.820033	0.000097
 142	1.4030e+01	5.6485	11.464860	0.000242	2.420338	0.820033	0.000097
 143	1.4129e+01	5.6597	11.566695	0.000254	2.542372	0.861379	0.000102
 144	1.4229e+01	5.7014	11.662421	0.000239	2.389830	0.809696	0.000096
 145	1.4328e+01	5.7704	11.767108	0.000261	2.613559	0.885498	0.000105
 146	1.4428e+01	5.7801	11.864463	0.000243	2.430508	0.823478	0.000098
 147	1.4527e+01	5.8186	11.958559	0.000235	2.349152	0.795914	0.000095
 148	1.4627e+01	5.8619	12.053062	0.000236	2.359321	0.799360	0.000095
 149	1.4726e+01	5.9164	12.156527	0.000258	2.583050	0.875161	0.000104
 150	1.4825e+01	5.9485	12.255512	0.000247	2.471186	0.837260	0.000099
 151	1.4925e+01	5.9710	12.350830	0.000238	2.379660	0.806251	0.000096
 152	1.5024e+01	6.0464	12.447370	0.000241	2.410169	0.816587	0.000097
 153	1.5124e+01	6.0608	12.543503	0.000240	2.399999	0.813142	0.000097
 154	1.5223e+01	6.0833	12.644931	0.000253	2.532203	0.857933	0.000102
 155	1.5323e+01	6.1250	12.744323	0.000248	2.481355	0.840706	0.000100
 156	1.5422e+01	6.1955	12.837604	0.000233	2.328813	0.789023	0.000094
 157	1.5522e+01	6.2308	12.937810	0.000250	2.501694	0.847597	0.000101
 158	1.5621e+01	6.2693	13.036795	0.000247	2.471186	0.837260	0.000099
 159	1.5721e+01	6.2886	13.135372	0.000246	2.461016	0.833815	0.000099
 160	1.5820e+01	6.3351	13.232319	0.000242	2.420338	0.820033	0.000097
 161	1.5920e+01	6.3865	13.329267	0.000242	2.420338	0.820033	0.000097
 162	1.6020e+01	6.4233	13.432324	0.000257	2.572881	0.871716	0.000104
 163	1.6119e+01	6.4618	13.528457	0.000240	2.399999	0.813142	0.000097
 164	1.6218e+01	6.4987	13.620924	0.000231	2.308474	0.782132	0.000093
 165	1.6318e+01	6.5260	13.713798	0.000232	2.318643	0.785578	0.000093
 166	1.6418e+01	6.5982	13.811153	0.000243	2.430508	0.823478	0.000098
 167	1.6517e+01	6.6175	13.906878	0.000239	2.389830	0.809696	0.000096
 168	1.6616e+01	6.6608	14.007085	0.000250	2.501694	0.847597	0.000101
 169	1.6716e+01	6.6945	14.094663	0.000219	2.186440	0.740786	0.000088
 170	1.6816e+01	6.7217	14.195684	0.000252	2.522033	0.854488	0.000102
 171	1.6915e+01	6.7763	14.288966	0.000233	2.328813	0.789023	0.000094
 172	1.7015e+01	6.8003	14.382654	0.000234	2.338982	0.792469	0.000094
 173	1.7114e+01	6.8437	14.479195	0.000241	2.410169	0.816587	0.000097
 174	1.7213e+01	6.8918	14.576142	0.000242	2.420338	0.820033	0.000097
 175	1.7313e+01	6.9367	14.671868	0.000239	2.389830	0.809696	0.000096
 176	1.7413e+01	6.9784	14.771259	0.000248	2.481355	0.840706	0.000100
 177	1.7512e+01	7.0169	14.864541	0.000233	2.328813	0.789023	0.000094
 178	1.7611e+01	7.0586	14.959452	0.000237	2.369491	0.802805	0.000095
 179	1.7711e+01	7.0843	15.056806	0.000243	2.430508	0.823478	0.000098
 180	1.7811e+01	7.1404	15.154569	0.000244	2.440677	0.826924	0.000098
 181	1.7910e+01	7.1741	15.248257	0.000234	2.338982	0.792469	0.000094
 182	1.8009e+01	7.2287	15.339909	0.000229	2.288135	0.775241	0.000092
 183	1.8109e+01	7.2511	15.440523	0.000251	2.511864	0.851042	0.000101
 184	1.8209e+01	7.2961	15.537878	0.000243	2.430508	0.823478	0.000098
 185	1.8308e+01	7.3538	15.636455	0.000246	2.461016	0.833815	0.000099
 186	1.8407e+01	7.3731	15.728514	0.000230	2.298304	0.778687	0.000093
 187	1.8507e+01	7.4164	15.827906	0.000248	2.481355	0.840706	0.000100
 188	1.8607e+01	7.4485	15.922409	0.000236	2.359321	0.799360	0.000095
 189	1.8706e+01	7.5014	16.025467	0.000257	2.572881	0.871716	0.000104
 190	1.8805e+01	7.4982	16.122007	-0.000241	-2.410169	-0.816587	0.000097
 191	1.8905e+01	7.5543	16.213659	0.000229	2.288135	0.775241	0.000092
 192	1.9005e+01	7.6217	16.311014	0.000243	2.430508	0.823478	0.000098
 193	1.9104e+01	7.6570	16.414479	0.000258	2.583050	0.875161	0.000104
 194	1.9203e+01	7.6698	16.510205	0.000239	2.389830	0.809696	0.000096
 195	1.9303e+01	7.7196	16.602671	0.000231	2.308474	0.782132	0.000093
 196	1.9402e+01	7.7789	16.703285	0.000251	2.511864	0.851042	0.000101
 197	1.9502e+01	7.8094	16.796974	0.000234	2.338982	0.792469	0.000094
 198	1.9602e+01	7.8656	16.894329	0.000243	2.430508	0.823478	0.000098
 199	1.9701e+01	7.9073	16.993313	0.000247	2.471186	0.837260	0.000099
 200	1.9800e+01	7.9442	17.083336	0.000225	2.247457	0.761459	0.000090
 201	1.9900e+01	7.9795	17.180690	0.000243	2.430508	0.823478	0.000098
 202	2.0000e+01	8.0292	17.280082	0.000248	2.481355	0.840706	0.000100
 203	2.0099e+01	8.0597	17.378659	0.000246	2.461016	0.833815	0.000099
 204	2.0198e+01	8.0853	17.469904	0.000228	2.277965	0.771796	0.000092
 205	2.0298e+01	8.1399	17.569703	0.000249	2.491525	0.844151	0.000100
 206	2.0398e+01	8.1671	17.665835	0.000240	2.399999	0.813142	0.000097
 207	2.0497e+01	8.2089	17.761154	0.000238	2.379660	0.806251	0.000096
 208	2.0596e+01	8.2586	17.855250	0.000235	2.349152	0.795914	0.000095
 209	2.0696e+01	8.3067	17.955049	0.000249	2.491525	0.844151	0.000100
 210	2.0796e+01	8.3308	18.054848	0.000249	2.491525	0.844151	0.000100
 211	2.0895e+01	8.3645	18.150166	0.000238	2.379660	0.806251	0.000096
 212	2.0994e+01	8.4174	18.247521	0.000243	2.430508	0.823478	0.000098
 213	2.1094e+01	8.4543	18.338358	0.000227	2.267796	0.768350	0.000091
 214	2.1194e+01	8.4912	18.438157	0.000249	2.491525	0.844151	0.000100
 215	2.1293e+01	8.5377	18.537141	0.000247	2.471186	0.837260	0.000099
 216	2.1392e+01	8.5730	18.634903	0.000244	2.440677	0.826924	0.000098
 217	2.1492e+01	8.6276	18.727777	0.000232	2.318643	0.785578	0.000093
 218	2.1591e+01	8.6661	18.828391	0.000251	2.511864	0.851042	0.000101
 219	2.1691e+01	8.6901	18.927375	0.000247	2.471186	0.837260	0.000099
 220	2.1791e+01	8.7511	19.030026	0.000256	2.562711	0.868270	0.000103
 221	2.1890e+01	8.7880	19.126973	0.000242	2.420338	0.820033	0.000097
 222	2.1989e+01	8.8088	19.227587	0.000251	2.511864	0.851042	0.000101
 223	2.2089e+01	8.8602	19.323312	0.000239	2.389830	0.809696	0.000096
 224	2.2189e+01	8.8971	19.425148	0.000254	2.542372	0.861379	0.000102
 225	2.2288e+01	8.9436	19.526984	0.000254	2.542372	0.861379	0.000102
 226	2.2387e+01	8.9725	19.622302	0.000238	2.379660	0.806251	0.000096
 227	2.2487e+01	9.0238	19.721286	0.000247	2.471186	0.837260	0.000099
 228	2.2587e+01	9.0687	19.820678	0.000248	2.481355	0.840706	0.000100
 229	2.2686e+01	9.0800	19.920069	0.000248	2.481355	0.840706	0.000100
 230	2.2785e+01	9.1313	20.019461	0.000248	2.481355	0.840706	0.000100
 231	2.2885e+01	9.1778	20.117630	0.000245	2.450847	0.830369	0.000099
 232	2.2985e+01	9.2356	20.213763	0.000240	2.399999	0.813142	0.000097
 233	2.3084e+01	9.2452	20.312747	0.000247	2.471186	0.837260	0.000099
 234	2.3183e+01	9.2709	20.413768	0.000252	2.522033	0.854488	0.000102
 235	2.3283e+01	9.3366	20.516826	0.000257	2.572881	0.871716	0.000104
 236	2.3383e+01	9.3639	20.616625	0.000249	2.491525	0.844151	0.000100
 237	2.3482e+01	9.4217	20.713165	0.000241	2.410169	0.816587	0.000097
 238	2.3581e+01	9.4746	20.812557	0.000248	2.481355	0.840706	0.000100
 239	2.3681e+01	9.4698	20.914392	-0.000254	-2.542372	-0.861379	0.000102
 240	2.3780e+01	9.5291	21.008488	0.000235	2.349152	0.795914	0.000095
 241	2.3880e+01	9.5725	21.108695	0.000250	2.501694	0.847597	0.000101
 242	2.3980e+01	9.6142	21.207679	0.000247	2.471186	0.837260	0.000099
 243	2.4079e+01	9.6671	21.311144	0.000258	2.583050	0.875161	0.000104
 244	2.4178e+01	9.6992	21.405647	0.000236	2.359321	0.799360	0.000095
 245	2.4278e+01	9.7168	21.503410	0.000244	2.440677	0.826924	0.000098
 246	2.4378e+01	9.7874	21.602394	0.000247	2.471186	0.837260	0.000099
 247	2.4477e+01	9.8147	21.706266	0.000259	2.593220	0.878607	0.000104
 248	2.4576e+01	9.8388	21.798326	0.000230	2.298304	0.778687	0.000093
 249	2.4676e+01	9.9093	21.901791	0.000258	2.583050	0.875161	0.000104
 250	2.4776e+01	9.9254	22.002404	0.000251	2.511864	0.851042	0.000101
 251	2.4875e+01	9.9799	22.107091	0.000261	2.613559	0.885498	0.000105
 252	2.4974e+01	9.9960	22.203631	0.000241	2.410169	0.816587	0.000097
 253	2.5074e+01	10.0553	22.303430	0.000249	2.491525	0.844151	0.000100
 254	2.5174e+01	10.0890	22.407303	0.000259	2.593220	0.878607	0.000104
 255	2.5273e+01	10.1243	22.507916	0.000251	2.511864	0.851042	0.000101
 256	2.5372e+01	10.1708	22.608123	0.000250	2.501694	0.847597	0.000101
 257	2.5472e+01	10.1981	22.714032	0.000264	2.644067	0.895834	0.000106
 258	2.5572e+01	10.2350	22.808942	0.000237	2.369491	0.802805	0.000095
 259	2.5671e+01	10.2960	22.912408	0.000258	2.583050	0.875161	0.000104
 260	2.5770e+01	10.3248	23.011799	0.000248	2.481355	0.840706	0.000100
 261	2.5870e+01	10.3617	23.110376	0.000246	2.461016	0.833815	0.000099
 262	2.5970e+01	10.4147	23.218322	0.000269	2.694915	0.913062	0.000108
 263	2.6069e+01	10.4387	23.313233	0.000237	2.369491	0.802805	0.000095
 264	2.6169e+01	10.4917	23.420364	0.000267	2.674576	0.906171	0.000108
 265	2.6268e+01	10.5238	23.518533	0.000245	2.450847	0.830369	0.000099
 266	2.6367e+01	10.5687	23.616703	0.000245	2.450847	0.830369	0.000099
 267	2.6467e+01	10.6072	23.718131	0.000253	2.532203	0.857933	0.000102
 268	2.6567e+01	10.6505	23.820374	0.000255	2.552542	0.864825	0.000103
 269	2.6666e+01	10.6794	23.918951	0.000246	2.461016	0.833815	0.000099
 270	2.6765e+01	10.7050	24.017121	0.000245	2.450847	0.830369	0.000099
 271	2.6865e+01	10.7740	24.116105	0.000247	2.471186	0.837260	0.000099
 272	2.6965e+01	10.7933	24.214274	0.000245	2.450847	0.830369	0.000099
 273	2.7064e+01	10.8639	24.313259	0.000247	2.471186	0.837260	0.000099
 274	2.7163e+01	10.8976	24.409391	0.000240	2.399999	0.813142	0.000097
 275	2.7263e+01	10.9056	24.510412	0.000252	2.522033	0.854488	0.000102
 276	2.7363e+01	10.9681	24.610211	0.000249	2.491525	0.844151	0.000100
 277	2.7462e+01	11.0034	24.708381	0.000245	2.450847	0.830369	0.000099
 278	2.7561e+01	11.0660	24.806958	0.000246	2.461016	0.833815	0.000099
 279	2.7661e+01	11.0804	24.905127	0.000245	2.450847	0.830369	0.000099
 280	2.7761e+01	11.1398	25.006963	0.000254	2.542372	0.861379	0.000102
 281	2.7860e+01	11.1446	25.101059	0.000235	2.349152	0.795914	0.000095
 282	2.7959e+01	11.2040	25.203709	0.000256	2.562711	0.868270	0.000103
 283	2.8059e+01	11.2040	25.304730	-0.000252	-2.522033	-0.854488	0.000102
 284	2.8159e+01	11.2778	25.406159	0.000253	2.532203	0.857933	0.000102
 285	2.8258e+01	11.3499	25.503106	0.000242	2.420338	0.820033	0.000097
 286	2.8358e+01	11.3724	25.600868	0.000244	2.440677	0.826924	0.000098
 287	2.8457e+01	11.3965	25.703926	0.000257	2.572881	0.871716	0.000104
 288	2.8556e+01	11.4414	25.800466	0.000241	2.410169	0.816587	0.000097
 289	2.8656e+01	11.4687	25.898636	0.000245	2.450847	0.830369	0.000099
 290	2.8756e+01	11.5360	26.000879	0.000255	2.552542	0.864825	0.000103
 291	2.8855e+01	11.5553	26.100678	0.000249	2.491525	0.844151	0.000100
 292	2.8954e+01	11.6130	26.195996	0.000238	2.379660	0.806251	0.000096
 293	2.9054e+01	11.6531	26.294980	0.000247	2.471186	0.837260	0.000099
 294	2.9154e+01	11.6692	26.396001	0.000252	2.522033	0.854488	0.000102
 295	2.9253e+01	11.7189	26.497429	0.000253	2.532203	0.857933	0.000102
 296	2.9352e+01	11.7478	26.589081	0.000229	2.288135	0.775241	0.000092
 297	2.9452e+01	11.8344	26.690917	0.000254	2.542372	0.861379	0.000102
 298	2.9552e+01	11.8473	26.789087	0.000245	2.450847	0.830369	0.000099
 299	2.9651e+01	11.8938	26.887663	0.000246	2.461016	0.833815	0.000099
 300	2.9750e+01	11.9194	26.985833	0.000245	2.450847	0.830369	0.000099
 301	2.9850e+01	11.9499	27.081151	0.000238	2.379660	0.806251	0.000096
 302	2.9950e+01	11.9852	27.177284	0.000240	2.399999	0.813142	0.000097
 303	3.0049e+01	12.0558	27.273824	0.000241	2.410169	0.816587	0.000097
 304	3.0148e+01	12.0831	27.373216	0.000248	2.481355	0.840706	0.000100
 305	3.0248e+01	12.1280	27.467312	0.000235	2.349152	0.795914	0.000095
 306	3.0348e+01	12.1761	27.559371	0.000230	2.298304	0.778687	0.000093
 307	3.0447e+01	12.2018	27.660392	0.000252	2.522033	0.854488	0.000102
 308	3.0547e+01	12.2194	27.751637	0.000228	2.277965	0.771796	0.000092
 309	3.0646e+01	12.2836	27.848992	0.000243	2.430508	0.823478	0.000098
 310	3.0745e+01	12.3205	27.941866	0.000232	2.318643	0.785578	0.000093
 311	3.0845e+01	12.3638	28.041665	0.000249	2.491525	0.844151	0.000100
 312	3.0945e+01	12.4087	28.138612	0.000242	2.420338	0.820033	0.000097
 313	3.1044e+01	12.4424	28.235560	0.000242	2.420338	0.820033	0.000097
 314	3.1143e+01	12.4440	28.330878	0.000238	2.379660	0.806251	0.000096
 315	3.1243e+01	12.5146	28.424567	0.000234	2.338982	0.792469	0.000094
 316	3.1343e+01	12.5387	28.519070	0.000236	2.359321	0.799360	0.000095
 317	3.1442e+01	12.6061	28.614796	0.000239	2.389830	0.809696	0.000096
 318	3.1541e+01	12.6446	28.708485	0.000234	2.338982	0.792469	0.000094
 319	3.1641e+01	12.6783	28.804210	0.000239	2.389830	0.809696	0.000096
 320	3.1741e+01	12.7264	28.899936	0.000239	2.389830	0.809696	0.000096
 321	3.1840e+01	12.7697	28.992810	0.000232	2.318643	0.785578	0.000093
 322	3.1939e+01	12.8066	29.092201	0.000248	2.481355	0.840706	0.000100
 323	3.2039e+01	12.8387	29.178965	0.000217	2.166101	0.733895	0.000087
 324	3.2139e+01	12.8788	29.277950	0.000247	2.471186	0.837260	0.000099
 325	3.2238e+01	12.9237	29.373268	0.000238	2.379660	0.806251	0.000096
 326	3.2337e+01	12.9317	29.466549	0.000233	2.328813	0.789023	0.000094
 327	3.2437e+01	13.0055	29.556572	0.000225	2.247457	0.761459	0.000090
 328	3.2536e+01	13.0424	29.651075	0.000236	2.359321	0.799360	0.000095
 329	3.2636e+01	13.0681	29.742727	0.000229	2.288135	0.775241	0.000092
 330	3.2736e+01	13.1018	29.842934	0.000250	2.501694	0.847597	0.000101
 331	3.2835e+01	13.1579	29.935400	0.000231	2.308474	0.782132	0.000093
 332	3.2934e+01	13.1948	30.027867	0.000231	2.308474	0.782132	0.000093
 333	3.3034e+01	13.2478	30.121149	0.000233	2.328813	0.789023	0.000094
 334	3.3133e+01	13.2895	30.214023	0.000232	2.318643	0.785578	0.000093
 335	3.3233e+01	13.2975	30.305267	0.000228	2.277965	0.771796	0.000092
 336	3.3333e+01	13.3504	30.399364	0.000235	2.349152	0.795914	0.000095
 337	3.3432e+01	13.3857	30.493460	0.000235	2.349152	0.795914	0.000095
 338	3.3532e+01	13.4306	30.584704	0.000228	2.277965	0.771796	0.000092
 339	3.3631e+01	13.4836	30.676357	0.000229	2.288135	0.775241	0.000092
 340	3.3730e+01	13.5044	30.765972	0.000224	2.237288	0.758014	0.000090
 341	3.3830e+01	13.5461	30.864956	0.000247	2.471186	0.837260	0.000099
 342	3.3929e+01	13.5830	30.955386	0.000226	2.257626	0.764905	0.000091
 343	3.4029e+01	13.6408	31.051926	0.000241	2.410169	0.816587	0.000097
 344	3.4129e+01	13.6809	31.139912	0.000220	2.196610	0.744231	0.000088
 345	3.4228e+01	13.7178	31.231972	0.000230	2.298304	0.778687	0.000093
 346	3.4328e+01	13.7531	31.322809	0.000227	2.267796	0.768350	0.000091
 347	3.4427e+01	13.7964	31.418127	0.000238	2.379660	0.806251	0.000096
 348	3.4526e+01	13.8397	31.509779	0.000229	2.288135	0.775241	0.000092
 349	3.4626e+01	13.8670	31.598580	0.000222	2.216949	0.751122	0.000089
 350	3.4725e+01	13.9215	31.691454	0.000232	2.318643	0.785578	0.000093
 351	3.4825e+01	13.9488	31.786772	0.000238	2.379660	0.806251	0.000096
 352	3.4925e+01	13.9921	31.875980	0.000223	2.227118	0.754568	0.000090
 353	3.5024e+01	14.0338	31.970484	0.000236	2.359321	0.799360	0.000095
 354	3.5123e+01	14.0691	32.061729	0.000228	2.277965	0.771796	0.000092
 355	3.5223e+01	14.1028	32.155010	0.000233	2.328813	0.789023	0.000094
 356	3.5322e+01	14.1686	32.247884	0.000232	2.318643	0.785578	0.000093
 357	3.5422e+01	14.1718	32.342388	0.000236	2.359321	0.799360	0.000095
 358	3.5522e+01	14.2247	32.437706	0.000238	2.379660	0.806251	0.000096
 359	3.5621e+01	14.2584	32.529765	0.000230	2.298304	0.778687	0.000093
 360	3.5721e+01	14.3114	32.622639	0.000232	2.318643	0.785578	0.000093
 361	3.5820e+01	14.3483	32.717957	0.000238	2.379660	0.806251	0.000096
 362	3.5919e+01	14.3787	32.808795	0.000227	2.267796	0.768350	0.000091
 363	3.6019e+01	14.4172	32.906150	0.000243	2.430508	0.823478	0.000098
 364	3.6118e+01	14.4638	32.996580	0.000226	2.257626	0.764905	0.000091
 365	3.6218e+01	14.5103	33.086602	0.000225	2.247457	0.761459	0.000090
 366	3.6318e+01	14.5552	33.182735	0.000240	2.399999	0.813142	0.000097
 367	3.6417e+01	14.5729	33.270721	0.000220	2.196610	0.744231	0.000088
 368	3.6517e+01	14.6322	33.364817	0.000235	2.349152	0.795914	0.000095
 369	3.6616e+01	14.6563	33.451989	0.000218	2.176271	0.737340	0.000088
 370	3.6715e+01	14.6916	33.550566	0.000246	2.461016	0.833815	0.000099
 371	3.6815e+01	14.7429	33.637737	0.000218	2.176271	0.737340	0.000088
 372	3.6914e+01	14.7846	33.735499	0.000244	2.440677	0.826924	0.000098
 373	3.7014e+01	14.8279	33.824707	0.000223	2.227118	0.754568	0.000090
 374	3.7114e+01	14.8728	33.921247	0.000241	2.410169	0.816587	0.000097
 375	3.7213e+01	14.9146	34.010863	0.000224	2.237288	0.758014	0.000090
 376	3.7313e+01	14.9579	34.100885	0.000225	2.247457	0.761459	0.000090
 377	3.7412e+01	14.9723	34.194574	0.000234	2.338982	0.792469	0.000094
 378	3.7511e+01	15.0252	34.285819	0.000228	2.277965	0.771796	0.000092
 379	3.7611e+01	15.0589	34.377471	0.000229	2.288135	0.775241	0.000092
 380	3.7711e+01	15.0894	34.468308	0.000227	2.267796	0.768350	0.000091
 381	3.7810e+01	15.1536	34.561182	0.000232	2.318643	0.785578	0.000093
 382	3.7910e+01	15.1969	34.654057	0.000232	2.318643	0.785578	0.000093
 383	3.8009e+01	15.2097	34.748560	0.000236	2.359321	0.799360	0.000095
 384	3.8108e+01	15.2755	34.842656	0.000235	2.349152	0.795914	0.000095
 385	3.8208e+01	15.3268	34.936752	0.000235	2.349152	0.795914	0.000095
 386	3.8307e+01	15.3445	35.036959	0.000250	2.501694	0.847597	0.000101
 387	3.8407e+01	15.3782	35.129018	0.000230	2.298304	0.778687	0.000093
 388	3.8507e+01	15.4247	35.225965	0.000242	2.420338	0.820033	0.000097
 389	3.8606e+01	15.4568	35.318840	0.000232	2.318643	0.785578	0.000093
 390	3.8706e+01	15.5081	35.414158	0.000238	2.379660	0.806251	0.000096
 391	3.8805e+01	15.5402	35.505402	0.000228	2.277965	0.771796	0.000092
 392	3.8904e+01	15.5996	35.600313	0.000237	2.369491	0.802805	0.000095
 393	3.9004e+01	15.6349	35.692780	0.000231	2.308474	0.782132	0.000093
 394	3.9103e+01	15.6509	35.784025	0.000228	2.277965	0.771796	0.000092
 395	3.9203e+01	15.6958	35.884231	0.000250	2.501694	0.847597	0.000101
 396	3.9303e+01	15.7391	35.976290	0.000230	2.298304	0.778687	0.000093
 397	3.9402e+01	15.7873	36.074460	0.000245	2.450847	0.830369	0.000099
 398	3.9502e+01	15.8129	36.161224	0.000217	2.166101	0.733895	0.000087
 399	3.9601e+01	15.8562	36.258579	0.000243	2.430508	0.823478	0.000098
 400	3.9700e+01	15.9124	36.354712	0.000240	2.399999	0.813142	0.000097
 401	3.9800e+01	15.9381	36.450437	0.000239	2.389830	0.809696	0.000096
 402	3.9900e+01	15.9717	36.542089	0.000229	2.288135	0.775241	0.000092
 403	3.9999e+01	16.0215	36.634149	0.000230	2.298304	0.778687	0.000093
 404	4.0099e+01	16.0552	36.732318	0.000245	2.450847	0.830369	0.000099
 405	4.0198e+01	16.0808	36.831302	0.000247	2.471186	0.837260	0.000099
 406	4.0297e+01	16.1434	36.918474	0.000218	2.176271	0.737340	0.000088
 407	4.0397e+01	16.1803	37.016643	0.000245	2.450847	0.830369	0.000099
 408	4.0496e+01	16.2220	37.105851	0.000223	2.227118	0.754568	0.000090
 409	4.0596e+01	16.2477	37.201170	0.000238	2.379660	0.806251	0.000096
 410	4.0696e+01	16.2862	37.296488	0.000238	2.379660	0.806251	0.000096
 411	4.0795e+01	16.3568	37.392621	0.000240	2.399999	0.813142	0.000097
 412	4.0895e+01	16.3792	37.481421	0.000222	2.216949	0.751122	0.000089
 413	4.0994e+01	16.4145	37.580405	0.000247	2.471186	0.837260	0.000099
 414	4.1093e+01	16.4803	37.679797	0.000248	2.481355	0.840706	0.000100
 415	4.1193e+01	16.4883	37.768598	0.000222	2.216949	0.751122	0.000089
 416	4.1292e+01	16.5557	37.864731	0.000240	2.399999	0.813142	0.000097
 417	4.1392e+01	16.5781	37.958827	0.000235	2.349152	0.795914	0.000095
 418	4.1492e+01	16.6487	38.059848	0.000252	2.522033	0.854488	0.000102
 419	4.1591e+01	16.6648	38.154758	0.000237	2.369491	0.802805	0.000095
 420	4.1691e+01	16.6985	38.250891	0.000240	2.399999	0.813142	0.000097
 421	4.1790e+01	16.7530	38.346209	0.000238	2.379660	0.806251	0.000096
 422	4.1889e+01	16.7658	38.448860	0.000256	2.562711	0.868270	0.000103
 423	4.1989e+01	16.8236	38.538068	0.000223	2.227118	0.754568	0.000090
 424	4.2089e+01	16.8477	38.634608	0.000241	2.410169	0.816587	0.000097
 425	4.2188e+01	16.8813	38.729926	0.000238	2.379660	0.806251	0.000096
 426	4.2288e+01	16.9359	38.823615	0.000234	2.338982	0.792469	0.000094
 427	4.2387e+01	16.9904	38.920970	0.000243	2.430508	0.823478	0.000098
 428	4.2486e+01	17.0081	39.015473	0.000236	2.359321	0.799360	0.000095
 429	4.2586e+01	17.0610	39.112013	0.000241	2.410169	0.816587	0.000097
 430	4.2685e+01	17.1011	39.209776	0.000244	2.440677	0.826924	0.000098
 431	4.2785e+01	17.1396	39.305501	0.000239	2.389830	0.809696	0.000096
 432	4.2885e+01	17.1845	39.400819	0.000238	2.379660	0.806251	0.000096
 433	4.2984e+01	17.2246	39.495730	0.000237	2.369491	0.802805	0.000095
 434	4.3084e+01	17.2728	39.594307	0.000246	2.461016	0.833815	0.000099
 435	4.3183e+01	17.2840	39.687588	0.000233	2.328813	0.789023	0.000094
 436	4.3282e+01	17.3289	39.787795	0.000250	2.501694	0.847597	0.000101
 437	4.3382e+01	17.3530	39.876595	0.000222	2.216949	0.751122	0.000089
 438	4.3481e+01	17.4156	39.969470	0.000232	2.318643	0.785578	0.000093
 439	4.3581e+01	17.4444	40.066417	0.000242	2.420338	0.820033	0.000097
 440	4.3681e+01	17.4958	40.159698	0.000233	2.328813	0.789023	0.000094
 441	4.3780e+01	17.5423	40.257053	0.000243	2.430508	0.823478	0.000098
 442	4.3880e+01	17.5856	40.348298	0.000228	2.277965	0.771796	0.000092
 443	4.3979e+01	17.6273	40.440357	0.000230	2.298304	0.778687	0.000093
 444	4.4078e+01	17.6594	40.530380	0.000225	2.247457	0.761459	0.000090
 445	4.4178e+01	17.6963	40.630586	0.000250	2.501694	0.847597	0.000101
 446	4.4278e+01	17.7268	40.719794	0.000223	2.227118	0.754568	0.000090
 447	4.4377e+01	17.7589	40.816335	0.000241	2.410169	0.816587	0.000097
 448	4.4477e+01	17.8359	40.913282	0.000242	2.420338	0.820033	0.000097
 449	4.4576e+01	17.8808	41.010637	0.000243	2.430508	0.823478	0.000098
 450	4.4675e+01	17.8808	41.101474	-0.000227	-2.267796	-0.768350	0.000091
 451	4.4775e+01	17.9417	41.197200	0.000239	2.389830	0.809696	0.000096
 452	4.4874e+01	17.9738	41.287630	0.000226	2.257626	0.764905	0.000091
 453	4.4974e+01	18.0236	41.387022	0.000248	2.481355	0.840706	0.000100
 454	4.5074e+01	18.0572	41.480710	0.000234	2.338982	0.792469	0.000094
 455	4.5173e+01	18.1022	41.573584	0.000232	2.318643	0.785578	0.000093
 456	4.5273e+01	18.1294	41.669310	0.000239	2.389830	0.809696	0.000096
 457	4.5372e+01	18.1776	41.760962	0.000229	2.288135	0.775241	0.000092
 458	4.5471e+01	18.2241	41.856688	0.000239	2.389830	0.809696	0.000096
 459	4.5571e+01	18.2642	41.949562	0.000232	2.318643	0.785578	0.000093
 460	4.5670e+01	18.2883	42.042028	0.000231	2.308474	0.782132	0.000093
 461	4.5770e+01	18.3380	42.139791	0.000244	2.440677	0.826924	0.000098
 462	4.5870e+01	18.3604	42.231850	0.000230	2.298304	0.778687	0.000093
 463	4.5969e+01	18.4262	42.329205	0.000243	2.430508	0.823478	0.000098
 464	4.6069e+01	18.4647	42.418413	0.000223	2.227118	0.754568	0.000090
 465	4.6168e+01	18.4968	42.513731	0.000238	2.379660	0.806251	0.000096
 466	4.6267e+01	18.5337	42.611493	0.000244	2.440677	0.826924	0.000098
 467	4.6367e+01	18.5898	42.704775	0.000233	2.328813	0.789023	0.000094
 468	4.6467e+01	18.6155	42.796019	0.000228	2.277965	0.771796	0.000092
 469	4.6566e+01	18.6492	42.884005	0.000220	2.196610	0.744231	0.000088
 470	4.6666e+01	18.6845	42.979324	0.000238	2.379660	0.806251	0.000096
 471	4.6765e+01	18.7294	43.068532	0.000223	2.227118	0.754568	0.000090
 472	4.6864e+01	18.7679	43.162628	0.000235	2.349152	0.795914	0.000095
 473	4.6964e+01	18.8112	43.250206	0.000219	2.186440	0.740786	0.000088
 474	4.7063e+01	18.8882	43.343488	0.000233	2.328813	0.789023	0.000094
 475	4.7163e+01	18.9075	43.430659	0.000218	2.176271	0.737340	0.000088
 476	4.7263e+01	18.9508	43.522311	0.000229	2.288135	0.775241	0.000092
 477	4.7362e+01	18.9572	43.611927	0.000224	2.237288	0.758014	0.000090
 478	4.7462e+01	18.9941	43.704393	0.000231	2.308474	0.782132	0.000093
 479	4.7561e+01	19.0535	43.796045	0.000229	2.288135	0.775241	0.000092
 480	4.7660e+01	19.0711	43.888105	0.000230	2.298304	0.778687	0.000093
 481	4.7760e+01	19.1481	43.973239	0.000213	2.125423	0.720113	0.000086
 482	4.7859e+01	19.1834	44.067743	0.000236	2.359321	0.799360	0.000095
 483	4.7959e+01	19.1995	44.158988	0.000228	2.277965	0.771796	0.000092
 484	4.8059e+01	19.2684	44.250232	0.000228	2.277965	0.771796	0.000092
 485	4.8158e+01	19.2989	44.340255	0.000225	2.247457	0.761459	0.000090
 486	4.8258e+01	19.3374	44.428241	0.000220	2.196610	0.744231	0.000088
 487	4.8357e+01	19.3855	44.515820	0.000219	2.186440	0.740786	0.000088
 488	4.8456e+01	19.4048	44.607879	0.000230	2.298304	0.778687	0.000093
 489	4.8556e+01	19.4481	44.699124	0.000228	2.277965	0.771796	0.000092
 490	4.8656e+01	19.5043	44.785073	0.000215	2.145762	0.727004	0.000086
 491	4.8755e+01	19.5315	44.877133	0.000230	2.298304	0.778687	0.000093
 492	4.8855e+01	19.5684	44.965526	0.000221	2.206779	0.747677	0.000089
 493	4.8954e+01	19.5941	45.056771	0.000228	2.277965	0.771796	0.000092
 494	4.9053e+01	19.6599	45.149237	0.000231	2.308474	0.782132	0.000093
 495	4.9153e+01	19.7000	45.238038	0.000222	2.216949	0.751122	0.000089
 496	4.9252e+01	19.7256	45.327653	0.000224	2.237288	0.758014	0.000090
 497	4.9352e+01	19.7706	45.423786	0.000240	2.399999	0.813142	0.000097
 498	4.9452e+01	19.8123	45.511365	0.000219	2.186440	0.740786	0.000088
 499	4.9551e+01	19.8492	45.598129	0.000217	2.166101	0.733895	0.000087
 500	4.9651e+01	19.8973	45.688152	0.000225	2.247457	0.761459	0.000090
 501	4.9750e+01	19.9470	45.778174	0.000225	2.247457	0.761459	0.000090
 502	4.9849e+01	19.9679	45.868197	0.000225	2.247457	0.761459	0.000090
 503	4.9949e+01	20.0048	45.952110	0.000209	2.094915	0.709776	0.000084
 504	5.0048e+01	19.9599	45.873085	0.000197	1.972881	0.668430	-0.000079
 505	5.0148e+01	19.9262	45.795283	0.000194	1.942372	0.658094	-0.000078
 506	5.0248e+01	19.8620	45.709333	0.000215	2.145762	0.727004	-0.000086
 507	5.0347e+01	19.8315	45.624199	0.000213	2.125423	0.720113	-0.000086
 508	5.0447e+01	19.8283	45.543952	0.000200	2.003389	0.678767	-0.000081
 509	5.0546e+01	19.7690	45.460854	0.000207	2.074576	0.702885	-0.000084
 510	5.0645e+01	19.7465	45.373683	0.000218	2.176271	0.737340	-0.000088
 511	5.0745e+01	19.6968	45.290993	0.000206	2.064406	0.699440	-0.000083
 512	5.0844e+01	19.6567	45.207080	0.000209	2.094915	0.709776	-0.000084
 513	5.0944e+01	19.6005	45.124389	0.000206	2.064406	0.699440	-0.000083
 514	5.1044e+01	19.5652	45.036404	0.000220	2.196610	0.744231	-0.000088
 515	5.1143e+01	19.5396	44.955750	0.000201	2.013559	0.682212	-0.000081
 516	5.1242e+01	19.4818	44.866949	0.000222	2.216949	0.751122	-0.000089
 517	5.1342e+01	19.4706	44.786295	0.000201	2.013559	0.682212	-0.000081
 518	5.1441e+01	19.4144	44.695865	0.000226	2.257626	0.764905	-0.000091
 519	5.1541e+01	19.3727	44.611138	0.000212	2.115254	0.716667	-0.000085
 520	5.1641e+01	19.3230	44.528447	0.000206	2.064406	0.699440	-0.000083
 521	5.1740e+01	19.2765	44.442091	0.000216	2.155932	0.730449	-0.000087
 522	5.1840e+01	19.2492	44.360622	0.000203	2.033898	0.689103	-0.000082
 523	5.1939e+01	19.2171	44.274673	0.000215	2.145762	0.727004	-0.000086
 524	5.2038e+01	19.1690	44.187094	0.000219	2.186440	0.740786	-0.000088
 525	5.2138e+01	19.1353	44.099516	0.000219	2.186440	0.740786	-0.000088
 526	5.2237e+01	19.0904	44.021713	0.000194	1.942372	0.658094	-0.000078
 527	5.2337e+01	19.0438	43.934949	0.000217	2.166101	0.733895	-0.000087
 528	5.2437e+01	19.0053	43.849815	0.000213	2.125423	0.720113	-0.000086
 529	5.2536e+01	18.9749	43.758570	0.000228	2.277965	0.771796	-0.000092
 530	5.2636e+01	18.9572	43.677101	0.000203	2.033898	0.689103	-0.000082
 531	5.2735e+01	18.9123	43.591152	0.000215	2.145762	0.727004	-0.000086
 532	5.2834e+01	18.8481	43.503573	0.000219	2.186440	0.740786	-0.000088
 533	5.2934e+01	18.8241	43.411514	0.000230	2.298304	0.778687	-0.000093
 534	5.3033e+01	18.7791	43.328416	0.000207	2.074576	0.702885	-0.000084
 535	5.3133e+01	18.7326	43.242060	0.000216	2.155932	0.730449	-0.000087
 536	5.3233e+01	18.6813	43.154481	0.000219	2.186440	0.740786	-0.000088
 537	5.3332e+01	18.6380	43.067717	0.000217	2.166101	0.733895	-0.000087
 538	5.3431e+01	18.6123	42.978509	0.000223	2.227118	0.754568	-0.000090
 539	5.3531e+01	18.5834	42.893374	0.000213	2.125423	0.720113	-0.000086
 540	5.3630e+01	18.5353	42.804574	0.000222	2.216949	0.751122	-0.000089
 541	5.3730e+01	18.4904	42.718624	0.000215	2.145762	0.727004	-0.000086
 542	5.3830e+01	18.4567	42.631046	0.000219	2.186440	0.740786	-0.000088
 543	5.3929e+01	18.4102	42.545504	0.000214	2.135593	0.723558	-0.000086
 544	5.4029e+01	18.3909	42.454666	0.000227	2.267796	0.768350	-0.000091
 545	5.4128e+01	18.3268	42.367088	0.000219	2.186440	0.740786	-0.000088
 546	5.4227e+01	18.2738	42.270548	0.000241	2.410169	0.816587	-0.000097
 547	5.4327e+01	18.2465	42.189079	0.000203	2.033898	0.689103	-0.000082
 548	5.4426e+01	18.2193	42.101093	0.000220	2.196610	0.744231	-0.000088
 549	5.4526e+01	18.1727	42.013922	0.000218	2.176271	0.737340	-0.000088
 550	5.4626e+01	18.1326	41.928380	0.000214	2.135593	0.723558	-0.000086
 551	5.4725e+01	18.0861	41.841616	0.000217	2.166101	0.733895	-0.000087
 552	5.4825e+01	18.0444	41.753630	0.000220	2.196610	0.744231	-0.000088
 553	5.4924e+01	18.0187	41.670532	0.000207	2.074576	0.702885	-0.000084
 554	5.5023e+01	17.9642	41.580509	0.000225	2.247457	0.761459	-0.000090
 555	5.5123e+01	17.9321	41.496189	0.000211	2.105084	0.713222	-0.000085
 556	5.5222e+01	17.9032	41.409833	0.000216	2.155932	0.730449	-0.000087
 557	5.5322e+01	17.8407	41.328364	0.000203	2.033898	0.689103	-0.000082
 558	5.5422e+01	17.8102	41.240378	0.000220	2.196610	0.744231	-0.000088
 559	5.5521e+01	17.7589	41.154836	0.000214	2.135593	0.723558	-0.000086
 560	5.5620e+01	17.7524	41.064406	0.000226	2.257626	0.764905	-0.000091
 561	5.5720e+01	17.6835	40.980901	0.000208	2.084745	0.706331	-0.000084
 562	5.5819e+01	17.6626	40.899433	0.000203	2.033898	0.689103	-0.000082
 563	5.5919e+01	17.6032	40.813076	0.000216	2.155932	0.730449	-0.000087
 564	5.6019e+01	17.5888	40.719794	0.000233	2.328813	0.789023	-0.000094
 565	5.6118e+01	17.5471	40.641992	0.000194	1.942372	0.658094	-0.000078
 566	5.6218e+01	17.4845	40.552784	0.000223	2.227118	0.754568	-0.000090
 567	5.6317e+01	17.4669	40.468464	0.000211	2.105084	0.713222	-0.000085
 568	5.6416e+01	17.4332	40.378441	0.000225	2.247457	0.761459	-0.000090
 569	5.6516e+01	17.3915	40.290863	0.000219	2.186440	0.740786	-0.000088
 570	5.6615e+01	17.3289	40.206136	0.000212	2.115254	0.716667	-0.000085
 571	5.6715e+01	17.2840	40.114891	0.000228	2.277965	0.771796	-0.000092
 572	5.6815e+01	17.2648	40.033015	0.000204	2.044067	0.692549	-0.000082
 573	5.6914e+01	17.2054	39.943807	0.000223	2.227118	0.754568	-0.000090
 574	5.7014e+01	17.1845	39.864375	0.000198	1.983050	0.671876	-0.000080
 575	5.7113e+01	17.1476	39.773538	0.000227	2.267796	0.768350	-0.000091
 576	5.7212e+01	17.0835	39.684330	0.000223	2.227118	0.754568	-0.000090
 577	5.7312e+01	17.0610	39.600417	0.000209	2.094915	0.709776	-0.000084
 578	5.7411e+01	17.0129	39.513246	0.000218	2.176271	0.737340	-0.000088
 579	5.7511e+01	16.9712	39.425667	0.000219	2.186440	0.740786	-0.000088
 580	5.7611e+01	16.9455	39.338903	0.000217	2.166101	0.733895	-0.000087
 581	5.7710e+01	16.9038	39.249288	0.000224	2.237288	0.758014	-0.000090
 582	5.7809e+01	16.8493	39.162117	0.000218	2.176271	0.737340	-0.000088
 583	5.7909e+01	16.8059	39.085129	0.000192	1.922033	0.651203	-0.000077
 584	5.8008e+01	16.7723	38.999180	0.000215	2.145762	0.727004	-0.000086
 585	5.8108e+01	16.7450	38.911194	0.000220	2.196610	0.744231	-0.000088
 586	5.8208e+01	16.7017	38.824430	0.000217	2.166101	0.733895	-0.000087
 587	5.8307e+01	16.6567	38.745405	0.000197	1.972881	0.668430	-0.000079
 588	5.8407e+01	16.6199	38.662307	0.000207	2.074576	0.702885	-0.000084
 589	5.8506e+01	16.5830	38.572285	0.000225	2.247457	0.761459	-0.000090
 590	5.8605e+01	16.5525	38.487965	0.000211	2.105084	0.713222	-0.000085
 591	5.8705e+01	16.4883	38.399164	0.000222	2.216949	0.751122	-0.000089
 592	5.8804e+01	16.4594	38.319732	0.000198	1.983050	0.671876	-0.000080
 593	5.8904e+01	16.4209	38.230931	0.000222	2.216949	0.751122	-0.000089
 594	5.9004e+01	16.3760	38.140094	0.000227	2.267796	0.768350	-0.000091
 595	5.9103e+01	16.3519	38.059440	0.000201	2.013559	0.682212	-0.000081
 596	5.9203e+01	16.2958	37.972676	0.000217	2.166101	0.733895	-0.000087
 597	5.9302e+01	16.2541	37.887134	0.000214	2.135593	0.723558	-0.000086
 598	5.9401e+01	16.2220	37.803222	0.000209	2.094915	0.709776	-0.000084
 599	5.9501e+01	16.1915	37.716865	0.000216	2.155932	0.730449	-0.000087
 600	5.9600e+01	16.1450	37.630101	0.000217	2.166101	0.733895	-0.000087
 601	5.9700e+01	16.1145	37.550262	0.000199	1.993220	0.675321	-0.000080
 602	5.9800e+01	16.0487	37.463091	0.000218	2.176271	0.737340	-0.000088
 603	5.9899e+01	16.0199	37.376327	0.000217	2.166101	0.733895	-0.000087
 604	5.9998e+01	15.9830	37.288341	0.000220	2.196610	0.744231	-0.000088
 605	6.0098e+01	15.9413	37.207687	0.000201	2.013559	0.682212	-0.000081
 606	6.0197e+01	15.9156	37.117664	0.000225	2.247457	0.761459	-0.000090
 607	6.0297e+01	15.8643	37.032122	0.000214	2.135593	0.723558	-0.000086
 608	6.0397e+01	15.8193	36.936397	0.000239	2.389830	0.809696	-0.000096
 609	6.0496e+01	15.7776	36.854928	0.000203	2.033898	0.689103	-0.000082
 610	6.0596e+01	15.7375	36.763684	0.000228	2.277965	0.771796	-0.000092
 611	6.0695e+01	15.6926	36.676105	0.000219	2.186440	0.740786	-0.000088
 612	6.0794e+01	15.6637	36.584860	0.000228	2.277965	0.771796	-0.000092
 613	6.0894e+01	15.6204	36.496874	0.000220	2.196610	0.744231	-0.000088
 614	6.0993e+01	15.5835	36.410518	0.000216	2.155932	0.730449	-0.000087
 615	6.1093e+01	15.5370	36.322532	0.000220	2.196610	0.744231	-0.000088
 616	6.1193e+01	15.5001	36.236175	0.000216	2.155932	0.730449	-0.000087
 617	6.1292e+01	15.4536	36.149411	0.000217	2.166101	0.733895	-0.000087
 618	6.1392e+01	15.4391	36.062647	0.000217	2.166101	0.733895	-0.000087
 619	6.1491e+01	15.4006	35.980771	0.000204	2.044067	0.692549	-0.000082
 620	6.1590e+01	15.3750	35.891971	0.000222	2.216949	0.751122	-0.000089
 621	6.1690e+01	15.2980	35.798689	0.000233	2.328813	0.789023	-0.000094
 622	6.1789e+01	15.2530	35.715999	0.000206	2.064406	0.699440	-0.000083
 623	6.1889e+01	15.2418	35.624347	0.000229	2.288135	0.775241	-0.000092
 624	6.1989e+01	15.1841	35.537990	0.000216	2.155932	0.730449	-0.000087
 625	6.2088e+01	15.1600	35.451633	0.000216	2.155932	0.730449	-0.000087
 626	6.2188e+01	15.1055	35.360389	0.000228	2.277965	0.771796	-0.000092
 627	6.2287e+01	15.0573	35.274847	0.000214	2.135593	0.723558	-0.000086
 628	6.2386e+01	15.0124	35.190934	0.000209	2.094915	0.709776	-0.000084
 629	6.2486e+01	14.9755	35.098060	0.000232	2.318643	0.785578	-0.000093
 630	6.2586e+01	14.9338	35.012925	0.000213	2.125423	0.720113	-0.000086
 631	6.2685e+01	14.9001	34.926976	0.000215	2.145762	0.727004	-0.000086
 632	6.2785e+01	14.8744	34.837361	0.000224	2.237288	0.758014	-0.000090
 633	6.2884e+01	14.8327	34.744894	0.000231	2.308474	0.782132	-0.000093
 634	6.2983e+01	14.8023	34.651612	0.000233	2.328813	0.789023	-0.000094
 635	6.3083e+01	14.7381	34.562812	0.000222	2.216949	0.751122	-0.000089
 636	6.3182e+01	14.7140	34.476863	0.000215	2.145762	0.727004	-0.000086
 637	6.3282e+01	14.6707	34.388877	0.000220	2.196610	0.744231	-0.000088
 638	6.3382e+01	14.6482	34.300483	0.000221	2.206779	0.747677	-0.000089
 639	6.3481e+01	14.5841	34.200277	0.000250	2.501694	0.847597	-0.000101
 640	6.3581e+01	14.5584	34.117586	0.000206	2.064406	0.699440	-0.000083
 641	6.3680e+01	14.5087	34.025527	0.000230	2.298304	0.778687	-0.000093
 642	6.3779e+01	14.4718	33.929394	0.000240	2.399999	0.813142	-0.000097
 643	6.3879e+01	14.4269	33.837742	0.000229	2.288135	0.775241	-0.000092
 644	6.3978e+01	14.3980	33.750163	0.000219	2.186440	0.740786	-0.000088
 645	6.4078e+01	14.3290	33.658511	0.000229	2.288135	0.775241	-0.000092
 646	6.4177e+01	14.3033	33.565230	0.000233	2.328813	0.789023	-0.000094
 647	6.4277e+01	14.2600	33.470726	0.000236	2.359321	0.799360	-0.000095
 648	6.4376e+01	14.2263	33.381111	0.000224	2.237288	0.758014	-0.000090
 649	6.4476e+01	14.1943	33.296791	0.000211	2.105084	0.713222	-0.000085
 650	6.4576e+01	14.1445	33.199029	0.000244	2.440677	0.826924	-0.000098
 651	6.4675e+01	14.0787	33.103711	0.000238	2.379660	0.806251	-0.000096
 652	6.4775e+01	14.0852	33.014910	-0.000222	-2.216949	-0.751122	-0.000089
 653	6.4874e+01	14.0226	32.925702	0.000223	2.227118	0.754568	-0.000090
 654	6.4974e+01	14.0017	32.832421	0.000233	2.328813	0.789023	-0.000094
 655	6.5073e+01	13.9456	32.738732	0.000234	2.338982	0.792469	-0.000094
 656	6.5172e+01	13.9055	32.645858	0.000232	2.318643	0.785578	-0.000093
 657	6.5272e+01	13.8654	32.552169	0.000234	2.338982	0.792469	-0.000094
 658	6.5371e+01	13.8285	32.461332	0.000227	2.267796	0.768350	-0.000091
 659	6.5471e+01	13.7964	32.370902	0.000226	2.257626	0.764905	-0.000091
 660	6.5570e+01	13.7739	32.274769	0.000240	2.399999	0.813142	-0.000097
 661	6.5670e+01	13.6969	32.183117	0.000229	2.288135	0.775241	-0.000092
 662	6.5769e+01	13.6777	32.097575	0.000214	2.135593	0.723558	-0.000086
 663	6.5869e+01	13.6312	32.004701	0.000232	2.318643	0.785578	-0.000093
 664	6.5969e+01	13.6119	31.906938	0.000244	2.440677	0.826924	-0.000098
 665	6.6068e+01	13.5477	31.815286	0.000229	2.288135	0.775241	-0.000092
 666	6.6168e+01	13.5060	31.718746	0.000241	2.410169	0.816587	-0.000097
 667	6.6267e+01	13.4547	31.627909	0.000227	2.267796	0.768350	-0.000091
 668	6.6367e+01	13.4419	31.532591	0.000238	2.379660	0.806251	-0.000096
 669	6.6466e+01	13.3969	31.439309	0.000233	2.328813	0.789023	-0.000094
 670	6.6566e+01	13.3488	31.337881	0.000253	2.532203	0.857933	-0.000102
 671	6.6665e+01	13.3135	31.245821	0.000230	2.298304	0.778687	-0.000093
 672	6.6764e+01	13.2863	31.153355	0.000231	2.308474	0.782132	-0.000093
 673	6.6864e+01	13.2317	31.056000	0.000243	2.430508	0.823478	-0.000098
 674	6.6963e+01	13.1916	30.962718	0.000233	2.328813	0.789023	-0.000094
 675	6.7063e+01	13.1595	30.865771	0.000242	2.420338	0.820033	-0.000097
 676	6.7162e+01	13.1162	30.771267	0.000236	2.359321	0.799360	-0.000095
 677	6.7262e+01	13.0986	30.677579	0.000234	2.338982	0.792469	-0.000094
 678	6.7362e+01	13.0424	30.581853	0.000239	2.389830	0.809696	-0.000096
 679	6.7461e+01	12.9975	30.484498	0.000243	2.430508	0.823478	-0.000098
 680	6.7561e+01	12.9606	30.395698	0.000222	2.216949	0.751122	-0.000089
 681	6.7660e+01	12.9109	30.305675	0.000225	2.247457	0.761459	-0.000090
 682	6.7760e+01	12.8836	30.209949	0.000239	2.389830	0.809696	-0.000096
 683	6.7859e+01	12.8146	30.109336	0.000251	2.511864	0.851042	-0.000101
 684	6.7959e+01	12.8002	30.021350	0.000220	2.196610	0.744231	-0.000088
 685	6.8058e+01	12.7488	29.919514	0.000254	2.542372	0.861379	-0.000102
 686	6.8157e+01	12.7184	29.827047	0.000231	2.308474	0.782132	-0.000093
 687	6.8257e+01	12.6863	29.728063	0.000247	2.471186	0.837260	-0.000099
 688	6.8356e+01	12.6109	29.634374	0.000234	2.338982	0.792469	-0.000094
 689	6.8456e+01	12.5852	29.542722	0.000229	2.288135	0.775241	-0.000092
 690	6.8555e+01	12.5627	29.449848	0.000232	2.318643	0.785578	-0.000093
 691	6.8655e+01	12.5178	29.353308	0.000241	2.410169	0.816587	-0.000097
 692	6.8754e+01	12.4809	29.261249	0.000230	2.298304	0.778687	-0.000093
 693	6.8854e+01	12.4472	29.169596	0.000229	2.288135	0.775241	-0.000092
 694	6.8954e+01	12.3975	29.075500	0.000235	2.349152	0.795914	-0.000095
 695	6.9053e+01	12.3558	28.979775	0.000239	2.389830	0.809696	-0.000096
 696	6.9153e+01	12.3221	28.884457	0.000238	2.379660	0.806251	-0.000096
 697	6.9252e+01	12.2724	28.790361	0.000235	2.349152	0.795914	-0.000095
 698	6.9352e+01	12.2419	28.693413	0.000242	2.420338	0.820033	-0.000097
 699	6.9451e+01	12.1922	28.602168	0.000228	2.277965	0.771796	-0.000092
 700	6.9550e+01	12.1601	28.501147	0.000252	2.522033	0.854488	-0.000102
 701	6.9650e+01	12.1344	28.407459	0.000234	2.338982	0.792469	-0.000094
 702	6.9749e+01	12.0975	28.314992	0.000231	2.308474	0.782132	-0.000093
 703	6.9849e+01	12.0237	28.215193	0.000249	2.491525	0.844151	-0.000100
 704	6.9948e+01	12.0157	28.119060	0.000240	2.399999	0.813142	-0.000097
 705	7.0048e+01	11.9628	28.023335	0.000239	2.389830	0.809696	-0.000096
 706	7.0147e+01	11.9259	27.933719	0.000224	2.237288	0.758014	-0.000090
 707	7.0247e+01	11.8858	27.835550	0.000245	2.450847	0.830369	-0.000099
 708	7.0347e+01	11.8441	27.737380	0.000245	2.450847	0.830369	-0.000099
 709	7.0446e+01	11.7959	27.641655	0.000239	2.389830	0.809696	-0.000096
 710	7.0546e+01	11.7654	27.547151	0.000236	2.359321	0.799360	-0.000095
 711	7.0645e+01	11.7366	27.453870	0.000233	2.328813	0.789023	-0.000094
 712	7.0745e+01	11.7077	27.357329	0.000241	2.410169	0.816587	-0.000097
 713	7.0844e+01	11.6371	27.261604	0.000239	2.389830	0.809696	-0.000096
 714	7.0944e+01	11.6018	27.165878	0.000239	2.389830	0.809696	-0.000096
 715	7.1043e+01	11.5681	27.071782	0.000235	2.349152	0.795914	-0.000095
 716	7.1142e+01	11.5344	26.980538	0.000228	2.277965	0.771796	-0.000092
 717	7.1242e+01	11.4943	26.883183	0.000243	2.430508	0.823478	-0.000098
 718	7.1341e+01	11.4318	26.786235	0.000242	2.420338	0.820033	-0.000097
 719	7.1441e+01	11.4109	26.696620	0.000224	2.237288	0.758014	-0.000090
 720	7.1540e+01	11.3612	26.596821	0.000249	2.491525	0.844151	-0.000100
 721	7.1640e+01	11.3018	26.508428	0.000221	2.206779	0.747677	-0.000089
 722	7.1740e+01	11.2697	26.411073	0.000243	2.430508	0.823478	-0.000098
 723	7.1839e+01	11.2377	26.315347	0.000239	2.389830	0.809696	-0.000096
 724	7.1939e+01	11.1943	26.230213	0.000213	2.125423	0.720113	-0.000086
 725	7.2038e+01	11.1494	26.132043	0.000245	2.450847	0.830369	-0.000099
 726	7.2138e+01	11.1414	26.035096	0.000242	2.420338	0.820033	-0.000097
 727	7.2237e+01	11.0788	25.941407	0.000234	2.338982	0.792469	-0.000094
 728	7.2337e+01	11.0532	25.854235	0.000218	2.176271	0.737340	-0.000088
 729	7.2436e+01	11.0082	25.757288	0.000242	2.420338	0.820033	-0.000097
 730	7.2535e+01	10.9665	25.665636	0.000229	2.288135	0.775241	-0.000092
 731	7.2635e+01	10.9361	25.568281	0.000243	2.430508	0.823478	-0.000098
 732	7.2734e+01	10.8767	25.478666	0.000224	2.237288	0.758014	-0.000090
 733	7.2834e+01	10.8302	25.386199	0.000231	2.308474	0.782132	-0.000093
 734	7.2933e+01	10.8077	25.289251	0.000242	2.420338	0.820033	-0.000097
 735	7.3033e+01	10.7772	25.193933	0.000238	2.379660	0.806251	-0.000096
 736	7.3132e+01	10.7387	25.100652	0.000233	2.328813	0.789023	-0.000094
 737	7.3232e+01	10.6858	25.009814	0.000227	2.267796	0.768350	-0.000091
 738	7.3332e+01	10.6473	24.917755	0.000230	2.298304	0.778687	-0.000093
 739	7.3431e+01	10.6296	24.822844	0.000237	2.369491	0.802805	-0.000095
 740	7.3531e+01	10.5911	24.732821	0.000225	2.247457	0.761459	-0.000090
 741	7.3630e+01	10.5286	24.637096	0.000239	2.389830	0.809696	-0.000096
 742	7.3730e+01	10.4997	24.543000	0.000235	2.349152	0.795914	-0.000095
 743	7.3829e+01	10.4468	24.448089	0.000237	2.369491	0.802805	-0.000095
 744	7.3928e+01	10.3986	24.357659	0.000226	2.257626	0.764905	-0.000091
 745	7.4028e+01	10.3666	24.257045	0.000251	2.511864	0.851042	-0.000101
 746	7.4127e+01	10.3537	24.164986	0.000230	2.298304	0.778687	-0.000093
 747	7.4227e+01	10.2895	24.071704	0.000233	2.328813	0.789023	-0.000094
 748	7.4326e+01	10.2254	23.979238	0.000231	2.308474	0.782132	-0.000093
 749	7.4426e+01	10.2029	23.881068	0.000245	2.450847	0.830369	-0.000099
 750	7.4525e+01	10.1660	23.789009	0.000230	2.298304	0.778687	-0.000093
 751	7.4625e+01	10.1227	23.698579	0.000226	2.257626	0.764905	-0.000091
 752	7.4725e+01	10.0954	23.608963	0.000224	2.237288	0.758014	-0.000090
 753	7.4824e+01	10.0425	23.516089	0.000232	2.318643	0.785578	-0.000093
 754	7.4924e+01	10.0024	23.420771	0.000238	2.379660	0.806251	-0.000096
 755	7.5023e+01	9.9671	23.333192	0.000219	2.186440	0.740786	-0.000088
 756	7.5123e+01	9.9286	23.239911	0.000233	2.328813	0.789023	-0.000094
 757	7.5222e+01	9.8901	23.147852	0.000230	2.298304	0.778687	-0.000093
 758	7.5322e+01	9.8500	23.049682	0.000245	2.450847	0.830369	-0.000099
 759	7.5421e+01	9.8051	22.965362	0.000211	2.105084	0.713222	-0.000085
 760	7.5520e+01	9.7826	22.870451	0.000237	2.369491	0.802805	-0.000095
 761	7.5620e+01	9.7249	22.777984	0.000231	2.308474	0.782132	-0.000093
 762	7.5719e+01	9.6703	22.685110	0.000232	2.318643	0.785578	-0.000093
 763	7.5819e+01	9.6382	22.599161	0.000215	2.145762	0.727004	-0.000086
 764	7.5918e+01	9.6045	22.502621	0.000241	2.410169	0.816587	-0.000097
 765	7.6018e+01	9.5644	22.414635	0.000220	2.196610	0.744231	-0.000088
 766	7.6118e+01	9.5372	22.321353	0.000233	2.328813	0.789023	-0.000094
 767	7.6217e+01	9.4890	22.225221	0.000240	2.399999	0.813142	-0.000097
 768	7.6317e+01	9.4570	22.134791	0.000226	2.257626	0.764905	-0.000091
 769	7.6416e+01	9.4024	22.047212	0.000219	2.186440	0.740786	-0.000088
 770	7.6516e+01	9.3783	21.948228	0.000247	2.471186	0.837260	-0.000099
 771	7.6615e+01	9.3286	21.855761	0.000231	2.308474	0.782132	-0.000093
 772	7.6715e+01	9.2837	21.761665	0.000235	2.349152	0.795914	-0.000095
 773	7.6814e+01	9.2628	21.665532	0.000240	2.399999	0.813142	-0.000097
 774	7.6913e+01	9.2083	21.571436	0.000235	2.349152	0.795914	-0.000095
 775	7.7013e+01	9.1682	21.475710	0.000239	2.389830	0.809696	-0.000096
 776	7.7112e+01	9.1393	21.381614	0.000235	2.349152	0.795914	-0.000095
 777	7.7212e+01	9.0575	21.285889	0.000239	2.389830	0.809696	-0.000096
 778	7.7311e+01	9.0447	21.193829	0.000230	2.298304	0.778687	-0.000093
 779	7.7411e+01	9.0222	21.094030	0.000249	2.491525	0.844151	-0.000100
 780	7.7510e+01	8.9741	21.004008	0.000225	2.247457	0.761459	-0.000090
 781	7.7610e+01	8.9356	20.912356	0.000229	2.288135	0.775241	-0.000092
 782	7.7710e+01	8.8923	20.819889	0.000231	2.308474	0.782132	-0.000093
 783	7.7809e+01	8.8425	20.722127	0.000244	2.440677	0.826924	-0.000098
 784	7.7909e+01	8.8040	20.630882	0.000228	2.277965	0.771796	-0.000092
 785	7.8008e+01	8.7591	20.539230	0.000229	2.288135	0.775241	-0.000092
 786	7.8108e+01	8.7270	20.445541	0.000234	2.338982	0.792469	-0.000094
 787	7.8207e+01	8.6933	20.347779	0.000244	2.440677	0.826924	-0.000098
 788	7.8306e+01	8.6532	20.254905	0.000232	2.318643	0.785578	-0.000093
 789	7.8406e+01	8.5955	20.162438	0.000231	2.308474	0.782132	-0.000093
 790	7.8505e+01	8.5794	20.067934	0.000236	2.359321	0.799360	-0.000095
 791	7.8605e+01	8.5249	19.970580	0.000243	2.430508	0.823478	-0.000098
 792	7.8704e+01	8.4848	19.880150	0.000226	2.257626	0.764905	-0.000091
 793	7.8804e+01	8.4463	19.780758	0.000248	2.481355	0.840706	-0.000100
 794	7.8903e+01	8.4222	19.693587	0.000218	2.176271	0.737340	-0.000088
 795	7.9003e+01	8.3837	19.595010	0.000246	2.461016	0.833815	-0.000099
 796	7.9103e+01	8.3276	19.504987	0.000225	2.247457	0.761459	-0.000090
 797	7.9202e+01	8.3035	19.407632	0.000243	2.430508	0.823478	-0.000098
 798	7.9302e+01	8.2602	19.307426	0.000250	2.501694	0.847597	-0.000101
 799	7.9401e+01	8.2249	19.220255	0.000218	2.176271	0.737340	-0.000088
 800	7.9501e+01	8.1912	19.119641	0.000251	2.511864	0.851042	-0.000101
 801	7.9600e+01	8.1303	19.025952	0.000234	2.338982	0.792469	-0.000094
 802	7.9700e+01	8.0934	18.928597	0.000243	2.430508	0.823478	-0.000098
 803	7.9799e+01	8.0436	18.836538	0.000230	2.298304	0.778687	-0.000093
 804	7.9898e+01	8.0003	18.737961	0.000246	2.461016	0.833815	-0.000099
 805	7.9998e+01	7.9875	18.641421	0.000241	2.410169	0.816587	-0.000097
 806	8.0097e+01	7.9249	18.539178	0.000255	2.552542	0.864825	-0.000103
 807	8.0197e+01	7.8880	18.449563	0.000224	2.237288	0.758014	-0.000090
 808	8.0296e+01	7.8816	18.348134	0.000253	2.532203	0.857933	-0.000102
 809	8.0396e+01	7.8238	18.251187	0.000242	2.420338	0.820033	-0.000097
 810	8.0496e+01	7.7982	18.150980	0.000250	2.501694	0.847597	-0.000101
 811	8.0595e+01	7.7308	18.054440	0.000241	2.410169	0.816587	-0.000097
 812	8.0695e+01	7.7019	17.959937	0.000236	2.359321	0.799360	-0.000095
 813	8.0794e+01	7.6666	17.860953	0.000247	2.471186	0.837260	-0.000099
 814	8.0894e+01	7.6201	17.760339	0.000251	2.511864	0.851042	-0.000101
 815	8.0993e+01	7.5896	17.662984	0.000243	2.430508	0.823478	-0.000098
 816	8.1093e+01	7.5110	17.569703	0.000233	2.328813	0.789023	-0.000094
 817	8.1192e+01	7.4950	17.474792	0.000237	2.369491	0.802805	-0.000095
 818	8.1291e+01	7.4340	17.369290	0.000263	2.633898	0.892389	-0.000106
 819	8.1391e+01	7.4180	17.274787	0.000236	2.359321	0.799360	-0.000095
 820	8.1490e+01	7.3811	17.172544	0.000255	2.552542	0.864825	-0.000103
 821	8.1590e+01	7.3297	17.077225	0.000238	2.379660	0.806251	-0.000096
 822	8.1689e+01	7.3201	16.982722	0.000236	2.359321	0.799360	-0.000095
 823	8.1789e+01	7.2559	16.879664	0.000257	2.572881	0.871716	-0.000104
 824	8.1888e+01	7.2223	16.778236	0.000253	2.532203	0.857933	-0.000102
 825	8.1988e+01	7.1517	16.684547	0.000234	2.338982	0.792469	-0.000094
 826	8.2088e+01	7.1308	16.583526	0.000252	2.522033	0.854488	-0.000102
 827	8.2187e+01	7.1068	16.484542	0.000247	2.471186	0.837260	-0.000099
 828	8.2287e+01	7.0602	16.381077	0.000258	2.583050	0.875161	-0.000104
 829	8.2386e+01	7.0009	16.291054	0.000225	2.247457	0.761459	-0.000090
 830	8.2486e+01	6.9864	16.192477	0.000246	2.461016	0.833815	-0.000099
 831	8.2585e+01	6.9399	16.091049	0.000253	2.532203	0.857933	-0.000102
 832	8.2684e+01	6.8806	15.993287	0.000244	2.440677	0.826924	-0.000098
 833	8.2784e+01	6.8757	15.893081	0.000250	2.501694	0.847597	-0.000101
 834	8.2883e+01	6.8356	15.794911	0.000245	2.450847	0.830369	-0.000099
 835	8.2983e+01	6.7779	15.694705	0.000250	2.501694	0.847597	-0.000101
 836	8.3082e+01	6.7667	15.593684	0.000252	2.522033	0.854488	-0.000102
 837	8.3182e+01	6.6784	15.491848	0.000254	2.542372	0.861379	-0.000102
 838	8.3281e+01	6.6816	15.393679	-0.000245	-2.450847	-0.830369	-0.000099
 839	8.3381e+01	6.6207	15.288992	0.000261	2.613559	0.885498	-0.000105
 840	8.3481e+01	6.5709	15.191637	0.000243	2.430508	0.823478	-0.000098
 841	8.3580e+01	6.5356	15.086135	0.000263	2.633898	0.892389	-0.000106
 842	8.3680e+01	6.4923	14.990410	0.000239	2.389830	0.809696	-0.000096
 843	8.3779e+01	6.4474	14.894277	0.000240	2.399999	0.813142	-0.000097
 844	8.3879e+01	6.4458	14.795292	0.000247	2.471186	0.837260	-0.000099
 845	8.3978e+01	6.3961	14.694272	0.000252	2.522033	0.854488	-0.000102
 846	8.4078e+01	6.3431	14.594065	0.000250	2.501694	0.847597	-0.000101
 847	8.4177e+01	6.3159	14.490600	0.000258	2.583050	0.875161	-0.000104
 848	8.4276e+01	6.2533	14.392023	0.000246	2.461016	0.833815	-0.000099
 849	8.4376e+01	6.2228	14.288558	0.000258	2.583050	0.875161	-0.000104
 850	8.4475e+01	6.1795	14.184686	0.000259	2.593220	0.878607	-0.000104
 851	8.4575e+01	6.1490	14.086516	0.000245	2.450847	0.830369	-0.000099
 852	8.4674e+01	6.1169	13.985903	0.000251	2.511864	0.851042	-0.000101
 853	8.4774e+01	6.0592	13.882845	0.000257	2.572881	0.871716	-0.000104
 854	8.4874e+01	6.0175	13.780195	0.000256	2.562711	0.868270	-0.000103
 855	8.4973e+01	5.9597	13.679174	0.000252	2.522033	0.854488	-0.000102
 856	8.5073e+01	5.9501	13.577746	0.000253	2.532203	0.857933	-0.000102
 857	8.5172e+01	5.8891	13.488130	0.000224	2.237288	0.758014	-0.000090
 858	8.5272e+01	5.8619	13.380184	0.000269	2.694915	0.913062	-0.000108
 859	8.5371e+01	5.8346	13.285681	0.000236	2.359321	0.799360	-0.000095
 860	8.5471e+01	5.7849	13.184660	0.000252	2.522033	0.854488	-0.000102
 861	8.5570e+01	5.7592	13.083639	0.000252	2.522033	0.854488	-0.000102
 862	8.5669e+01	5.7047	12.981803	0.000254	2.542372	0.861379	-0.000102
 863	8.5769e+01	5.6581	12.886485	0.000238	2.379660	0.806251	-0.000096
 864	8.5868e+01	5.6341	12.780169	0.000265	2.654237	0.899280	-0.000107
 865	8.5968e+01	5.5715	12.686887	0.000233	2.328813	0.789023	-0.000094
 866	8.6067e+01	5.5506	12.584237	0.000256	2.562711	0.868270	-0.000103
 867	8.6167e+01	5.5089	12.484846	0.000248	2.481355	0.840706	-0.000100
 868	8.6266e+01	5.4704	12.382195	0.000256	2.562711	0.868270	-0.000103
 869	8.6366e+01	5.4207	12.281989	0.000250	2.501694	0.847597	-0.000101
 870	8.6466e+01	5.3854	12.181375	0.000251	2.511864	0.851042	-0.000101
 871	8.6565e+01	5.3485	12.078725	0.000256	2.562711	0.868270	-0.000103
 872	8.6665e+01	5.3100	11.978111	0.000251	2.511864	0.851042	-0.000101
 873	8.6764e+01	5.2731	11.884423	0.000234	2.338982	0.792469	-0.000094
 874	8.6864e+01	5.2378	11.778514	0.000264	2.644067	0.895834	-0.000106
 875	8.6963e+01	5.1817	11.677085	0.000253	2.532203	0.857933	-0.000102
 876	8.7063e+01	5.1303	11.574028	0.000257	2.572881	0.871716	-0.000104
 877	8.7162e+01	5.1191	11.469748	0.000260	2.603389	0.882052	-0.000105
 878	8.7261e+01	5.0694	11.376874	0.000232	2.318643	0.785578	-0.000093
 879	8.7361e+01	5.0245	11.269335	0.000268	2.684745	0.909616	-0.000108
 880	8.7460e+01	4.9908	11.171166	0.000245	2.450847	0.830369	-0.000099
 881	8.7560e+01	4.9555	11.066071	0.000262	2.623728	0.888943	-0.000106
 882	8.7659e+01	4.8945	10.975234	0.000227	2.267796	0.768350	-0.000091
 883	8.7759e+01	4.8737	10.875435	0.000249	2.491525	0.844151	-0.000100
 884	8.7859e+01	4.8207	10.771563	0.000259	2.593220	0.878607	-0.000104
 885	8.7958e+01	4.8031	10.671764	0.000249	2.491525	0.844151	-0.000100
 886	8.8058e+01	4.7389	10.572780	0.000247	2.471186	0.837260	-0.000099
 887	8.8157e+01	4.7036	10.474203	0.000246	2.461016	0.833815	-0.000099
 888	8.8257e+01	4.6731	10.376440	0.000244	2.440677	0.826924	-0.000098
 889	8.8356e+01	4.6025	10.276642	0.000249	2.491525	0.844151	-0.000100
 890	8.8456e+01	4.5753	10.178879	0.000244	2.440677	0.826924	-0.000098
 891	8.8555e+01	4.5400	10.080710	0.000245	2.450847	0.830369	-0.000099
 892	8.8654e+01	4.5336	9.984170	0.000241	2.410169	0.816587	-0.000097
 893	8.8754e+01	4.4758	9.886815	0.000243	2.430508	0.823478	-0.000098
 894	8.8853e+01	4.4357	9.786608	0.000250	2.501694	0.847597	-0.000101
 895	8.8953e+01	4.4261	9.689661	0.000242	2.420338	0.820033	-0.000097
 896	8.9052e+01	4.3555	9.591899	0.000244	2.440677	0.826924	-0.000098
 897	8.9152e+01	4.3186	9.493729	0.000245	2.450847	0.830369	-0.000099
 898	8.9251e+01	4.2721	9.393523	0.000250	2.501694	0.847597	-0.000101
 899	8.9351e+01	4.2336	9.292502	0.000252	2.522033	0.854488	-0.000102
 900	8.9451e+01	4.1710	9.195147	0.000243	2.430508	0.823478	-0.000098
 901	8.9550e+01	4.1614	9.100644	0.000236	2.359321	0.799360	-0.000095
 902	8.9650e+01	4.1052	8.997179	0.000258	2.583050	0.875161	-0.000104
 903	8.9749e+01	4.0796	8.896158	0.000252	2.522033	0.854488	-0.000102
 904	8.9849e+01	4.0395	8.801247	0.000237	2.369491	0.802805	-0.000095
 905	8.9948e+01	3.9897	8.707558	0.000234	2.338982	0.792469	-0.000094
 906	9.0047e+01	3.9689	8.606537	0.000252	2.522033	0.854488	-0.000102
 907	9.0147e+01	3.9223	8.506331	0.000250	2.501694	0.847597	-0.000101
 908	9.0246e+01	3.8758	8.408569	0.000244	2.440677	0.826924	-0.000098
 909	9.0346e+01	3.8325	8.314880	0.000234	2.338982	0.792469	-0.000094
 910	9.0445e+01	3.7860	8.211822	0.000257	2.572881	0.871716	-0.000104
 911	9.0545e+01	3.7539	8.117726	0.000235	2.349152	0.795914	-0.000095
 912	9.0644e+01	3.6929	8.011410	0.000265	2.654237	0.899280	-0.000107
 913	9.0744e+01	3.6929	7.924238	0.000218	2.176271	0.737340	-0.000088
 914	9.0844e+01	3.6480	7.821995	0.000255	2.552542	0.864825	-0.000103
 915	9.0943e+01	3.5614	7.727492	0.000236	2.359321	0.799360	-0.000095
 916	9.1043e+01	3.5550	7.622397	0.000262	2.623728	0.888943	-0.000106
 917	9.1142e+01	3.5069	7.534004	0.000221	2.206779	0.747677	-0.000089
 918	9.1242e+01	3.4603	7.430132	0.000259	2.593220	0.878607	-0.000104
 919	9.1341e+01	3.4170	7.337665	0.000231	2.308474	0.782132	-0.000093
 920	9.1441e+01	3.3913	7.237459	0.000250	2.501694	0.847597	-0.000101
 921	9.1540e+01	3.3641	7.140919	0.000241	2.410169	0.816587	-0.000097
 922	9.1639e+01	3.3095	7.048859	0.000230	2.298304	0.778687	-0.000093
 923	9.1739e+01	3.2598	6.953948	0.000237	2.369491	0.802805	-0.000095
 924	9.1838e+01	3.2598	6.858223	0.000239	2.389830	0.809696	-0.000096
 925	9.1938e+01	3.1908	6.761683	0.000241	2.410169	0.816587	-0.000097
 926	9.2037e+01	3.1427	6.669216	0.000231	2.308474	0.782132	-0.000093
 927	9.2137e+01	3.1363	6.571454	0.000244	2.440677	0.826924	-0.000098
 928	9.2237e+01	3.0737	6.470840	0.000251	2.511864	0.851042	-0.000101
 929	9.2336e+01	3.0160	6.376337	0.000236	2.359321	0.799360	-0.000095
 930	9.2436e+01	3.0047	6.277352	0.000247	2.471186	0.837260	-0.000099
 931	9.2535e+01	2.9742	6.184886	0.000231	2.308474	0.782132	-0.000093
 932	9.2635e+01	2.9181	6.083457	0.000253	2.532203	0.857933	-0.000102
 933	9.2734e+01	2.8732	5.992620	0.000227	2.267796	0.768350	-0.000091
 934	9.2834e+01	2.8443	5.894043	0.000246	2.461016	0.833815	-0.000099
 935	9.2933e+01	2.8058	5.801984	0.000230	2.298304	0.778687	-0.000093
 936	9.3032e+01	2.7529	5.705443	0.000241	2.410169	0.816587	-0.000097
 937	9.3132e+01	2.7112	5.603608	0.000254	2.542372	0.861379	-0.000102
 938	9.3231e+01	2.6694	5.508697	0.000237	2.369491	0.802805	-0.000095
 939	9.3331e+01	2.6678	5.418674	0.000225	2.247457	0.761459	-0.000090
 940	9.3430e+01	2.5780	5.318875	0.000249	2.491525	0.844151	-0.000100
 941	9.3530e+01	2.5700	5.218669	0.000250	2.501694	0.847597	-0.000101
 942	9.3629e+01	2.5042	5.120092	0.000246	2.461016	0.833815	-0.000099
 943	9.3729e+01	2.4657	5.020293	0.000249	2.491525	0.844151	-0.000100
 944	9.3829e+01	2.4256	4.926604	0.000234	2.338982	0.792469	-0.000094
 945	9.3928e+01	2.3903	4.829250	0.000243	2.430508	0.823478	-0.000098
 946	9.4028e+01	2.3775	4.733524	0.000239	2.389830	0.809696	-0.000096
 947	9.4127e+01	2.3374	4.628022	0.000263	2.633898	0.892389	-0.000106
 948	9.4227e+01	2.2539	4.533519	0.000236	2.359321	0.799360	-0.000095
 949	9.4326e+01	2.2491	4.435349	0.000245	2.450847	0.830369	-0.000099
 950	9.4425e+01	2.2138	4.340439	0.000237	2.369491	0.802805	-0.000095
 951	9.4525e+01	2.1593	4.240640	0.000249	2.491525	0.844151	-0.000100
 952	9.4624e+01	2.1112	4.142063	0.000246	2.461016	0.833815	-0.000099
 953	9.4724e+01	2.0855	4.051633	0.000226	2.257626	0.764905	-0.000091
 954	9.4823e+01	2.0470	3.952648	0.000247	2.471186	0.837260	-0.000099
 955	9.4923e+01	2.0005	3.857330	0.000238	2.379660	0.806251	-0.000096
 956	9.5022e+01	1.9604	3.756309	0.000252	2.522033	0.854488	-0.000102
 957	9.5122e+01	1.9058	3.662213	0.000235	2.349152	0.795914	-0.000095
 958	9.5222e+01	1.8689	3.562822	0.000248	2.481355	0.840706	-0.000100
 959	9.5321e+01	1.8401	3.464652	0.000245	2.450847	0.830369	-0.000099
 960	9.5421e+01	1.8160	3.369334	0.000238	2.379660	0.806251	-0.000096
 961	9.5520e+01	1.7743	3.276052	0.000233	2.328813	0.789023	-0.000094
 962	9.5620e+01	1.7390	3.177476	0.000246	2.461016	0.833815	-0.000099
 963	9.5719e+01	1.6909	3.079713	0.000244	2.440677	0.826924	-0.000098
 964	9.5819e+01	1.6411	2.981544	0.000245	2.450847	0.830369	-0.000099
 965	9.5918e+01	1.5882	2.882967	0.000246	2.461016	0.833815	-0.000099
 966	9.6017e+01	1.5673	2.788056	0.000237	2.369491	0.802805	-0.000095
 967	9.6117e+01	1.5144	2.691923	0.000240	2.399999	0.813142	-0.000097
 968	9.6216e+01	1.4759	2.592124	0.000249	2.491525	0.844151	-0.000100
 969	9.6316e+01	1.4502	2.493547	0.000246	2.461016	0.833815	-0.000099
 970	9.6415e+01	1.4085	2.399044	0.000236	2.359321	0.799360	-0.000095
 971	9.6515e+01	1.3588	2.298023	0.000252	2.522033	0.854488	-0.000102
 972	9.6615e+01	1.3363	2.196595	0.000253	2.532203	0.857933	-0.000102
 973	9.6714e+01	1.2722	2.098018	0.000246	2.461016	0.833815	-0.000099
 974	9.6814e+01	1.2497	2.002292	0.000239	2.389830	0.809696	-0.000096
 975	9.6913e+01	1.2064	1.899235	0.000257	2.572881	0.871716	-0.000104
 976	9.7013e+01	1.1518	1.799436	0.000249	2.491525	0.844151	-0.000100
 977	9.7112e+01	1.1374	1.695563	0.000259	2.593220	0.878607	-0.000104
 978	9.7212e+01	1.0588	1.594542	0.000252	2.522033	0.854488	-0.000102
 979	9.7311e+01	1.0476	1.502076	0.000231	2.308474	0.782132	-0.000093
 980	9.7410e+01	0.9962	1.402684	0.000248	2.481355	0.840706	-0.000100
 981	9.7510e+01	0.9850	1.296775	0.000264	2.644067	0.895834	-0.000106
 982	9.7609e+01	0.9465	1.197791	0.000247	2.471186	0.837260	-0.000099
 983	9.7709e+01	0.8695	1.100029	0.000244	2.440677	0.826924	-0.000098
 984	9.7808e+01	0.8486	1.003896	0.000240	2.399999	0.813142	-0.000097
 985	9.7908e+01	0.8133	0.896765	0.000267	2.674576	0.906171	-0.000108
 986	9.8007e+01	0.7460	0.801446	0.000238	2.379660	0.806251	-0.000096
 987	9.8107e+01	0.7283	0.697574	0.000259	2.593220	0.878607	-0.000104
 988	9.8207e+01	0.6914	0.603071	0.000236	2.359321	0.799360	-0.000095
 989	9.8306e+01	0.6289	0.502050	0.000252	2.522033	0.854488	-0.000102
 990	9.8406e+01	0.6128	0.398585	0.000258	2.583050	0.875161	-0.000104
 991	9.8505e+01	0.5406	0.298786	0.000249	2.491525	0.844151	-0.000100
 992	9.8605e+01	0.5150	0.209985	0.000222	2.216949	0.751122	-0.000089
 993	9.8704e+01	0.4925	0.103261	0.000266	2.664406	0.902725	-0.000107
 994	9.8803e+01	0.4235	0.001833	0.000253	2.532203	0.857933	-0.000102
 995	9.8903e+01	0.3898	-0.100410	0.000255	2.552542	0.864825	-0.000103
 996	9.9002e+01	0.3610	-0.195321	0.000237	2.369491	0.802805	-0.000095
 997	9.9102e+01	0.3257	-0.296749	0.000253	2.532203	0.857933	-0.000102
 998	9.9201e+01	0.2888	-0.397363	0.000251	2.511864	0.851042	-0.000101
 999	9.9301e+01	0.2599	-0.496754	0.000248	2.481355	0.840706	-0.000100
1000	9.9400e+01	0.2021	-0.599405	0.000256	2.562711	0.868270	-0.000103
1001	9.9500e+01	0.1460	-0.695945	0.000241	2.410169	0.816587	-0.000097
1002	9.9600e+01	0.1059	-0.801039	0.000262	2.623728	0.888943	-0.000106
1003	9.9699e+01	0.0963	-0.899616	0.000246	2.461016	0.833815	-0.000099
1004	9.9799e+01	0.0610	-1.003896	0.000260	2.603389	0.882052	-0.000105
1005	9.9898e+01	-0.0160	-1.078847	0.000187	1.871186	0.633975	-0.000075
1006	9.9998e+01	-0.0080	-1.189237	-0.000276	-2.755931	-0.933735	-0.000111
1007	1.0010e+02	-0.0610	-1.287406	0.000245	2.450847	0.830369	-0.000099
1008	1.0020e+02	-0.1123	-1.388427	0.000252	2.522033	0.854488	-0.000102
1009	1.0030e+02	-0.1556	-1.491077	0.000256	2.562711	0.868270	-0.000103
1010	1.0040e+02	-0.1749	-1.592506	0.000253	2.532203	0.857933	-0.000102
1011	1.0050e+02	-0.2102	-1.692712	0.000250	2.501694	0.847597	-0.000101
1012	1.0059e+02	-0.2503	-1.792104	0.000248	2.481355	0.840706	-0.000100
1013	1.0069e+02	-0.2984	-1.891902	0.000249	2.491525	0.844151	-0.000100
1014	1.0079e+02	-0.3241	-1.993331	0.000253	2.532203	0.857933	-0.000102
1015	1.0089e+02	-0.3914	-2.097203	0.000259	2.593220	0.878607	-0.000104
1016	1.0099e+02	-0.4396	-2.198631	0.000253	2.532203	0.857933	-0.000102
1017	1.0109e+02	-0.4765	-2.301689	0.000257	2.572881	0.871716	-0.000104
1018	1.0119e+02	-0.5037	-2.407191	0.000263	2.633898	0.892389	-0.000106
1019	1.0129e+02	-0.5486	-2.501694	0.000236	2.359321	0.799360	-0.000095
1020	1.0139e+02	-0.5952	-2.607196	0.000263	2.633898	0.892389	-0.000106
1021	1.0149e+02	-0.6192	-2.710254	0.000257	2.572881	0.871716	-0.000104
1022	1.0159e+02	-0.6642	-2.812089	0.000254	2.542372	0.861379	-0.000102
1023	1.0169e+02	-0.7123	-2.908629	0.000241	2.410169	0.816587	-0.000097
1024	1.0179e+02	-0.7508	-3.012094	0.000258	2.583050	0.875161	-0.000104
1025	1.0189e+02	-0.7813	-3.106191	0.000235	2.349152	0.795914	-0.000095
1026	1.0199e+02	-0.8230	-3.212914	0.000266	2.664406	0.902725	-0.000107
1027	1.0209e+02	-0.8727	-3.309455	0.000241	2.410169	0.816587	-0.000097
1028	1.0219e+02	-0.9128	-3.410476	0.000252	2.522033	0.854488	-0.000102
1029	1.0229e+02	-0.9192	-3.512311	0.000254	2.542372	0.861379	-0.000102
1030	1.0239e+02	-0.9882	-3.604778	0.000231	2.308474	0.782132	-0.000093
1031	1.0248e+02	-1.0315	-3.707428	0.000256	2.562711	0.868270	-0.000103
1032	1.0258e+02	-1.0668	-3.803968	0.000241	2.410169	0.816587	-0.000097
1033	1.0268e+02	-1.0941	-3.910692	0.000266	2.664406	0.902725	-0.000107
1034	1.0278e+02	-1.1262	-4.006825	0.000240	2.399999	0.813142	-0.000097
1035	1.0288e+02	-1.1984	-4.109475	0.000256	2.562711	0.868270	-0.000103
1036	1.0298e+02	-1.2160	-4.208052	0.000246	2.461016	0.833815	-0.000099
1037	1.0308e+02	-1.2609	-4.314776	0.000266	2.664406	0.902725	-0.000107
1038	1.0318e+02	-1.3010	-4.412946	0.000245	2.450847	0.830369	-0.000099
1039	1.0328e+02	-1.3604	-4.510708	0.000244	2.440677	0.826924	-0.000098
1040	1.0338e+02	-1.4053	-4.609285	0.000246	2.461016	0.833815	-0.000099
1041	1.0348e+02	-1.4326	-4.709491	0.000250	2.501694	0.847597	-0.000101
1042	1.0358e+02	-1.4791	-4.803994	0.000236	2.359321	0.799360	-0.000095
1043	1.0368e+02	-1.5032	-4.908681	0.000261	2.613559	0.885498	-0.000105
1044	1.0378e+02	-1.5288	-5.010110	0.000253	2.532203	0.857933	-0.000102
1045	1.0388e+02	-1.5802	-5.111538	0.000253	2.532203	0.857933	-0.000102
1046	1.0398e+02	-1.6139	-5.208893	0.000243	2.430508	0.823478	-0.000098
1047	1.0408e+02	-1.6652	-5.307470	0.000246	2.461016	0.833815	-0.000099
1048	1.0418e+02	-1.6909	-5.410935	0.000258	2.583050	0.875161	-0.000104
1049	1.0428e+02	-1.7262	-5.502587	0.000229	2.288135	0.775241	-0.000092
1050	1.0438e+02	-1.7502	-5.605645	0.000257	2.572881	0.871716	-0.000104
1051	1.0447e+02	-1.8192	-5.710332	0.000261	2.613559	0.885498	-0.000105
1052	1.0457e+02	-1.8641	-5.801576	0.000228	2.277965	0.771796	-0.000092
1053	1.0467e+02	-1.8818	-5.907893	0.000265	2.654237	0.899280	-0.000107
1054	1.0477e+02	-1.9363	-6.001989	0.000235	2.349152	0.795914	-0.000095
1055	1.0487e+02	-1.9588	-6.100566	0.000246	2.461016	0.833815	-0.000099
1056	1.0497e+02	-2.0278	-6.203216	0.000256	2.562711	0.868270	-0.000103
1057	1.0507e+02	-2.0727	-6.294461	0.000228	2.277965	0.771796	-0.000092
1058	1.0517e+02	-2.0951	-6.390186	0.000239	2.389830	0.809696	-0.000096
1059	1.0527e+02	-2.1320	-6.487541	0.000243	2.430508	0.823478	-0.000098
1060	1.0537e+02	-2.1850	-6.588562	0.000252	2.522033	0.854488	-0.000102
1061	1.0547e+02	-2.2267	-6.679399	0.000227	2.267796	0.768350	-0.000091
1062	1.0557e+02	-2.2315	-6.776754	0.000243	2.430508	0.823478	-0.000098
1063	1.0567e+02	-2.2973	-6.874109	0.000243	2.430508	0.823478	-0.000098
1064	1.0577e+02	-2.3454	-6.972279	0.000245	2.450847	0.830369	-0.000099
1065	1.0587e+02	-2.3903	-7.065153	0.000232	2.318643	0.785578	-0.000093
1066	1.0597e+02	-2.4096	-7.168211	0.000257	2.572881	0.871716	-0.000104
1067	1.0607e+02	-2.4609	-7.260677	0.000231	2.308474	0.782132	-0.000093
1068	1.0617e+02	-2.5106	-7.354773	0.000235	2.349152	0.795914	-0.000095
1069	1.0627e+02	-2.5235	-7.452536	0.000244	2.440677	0.826924	-0.000098
1070	1.0637e+02	-2.5716	-7.550705	0.000245	2.450847	0.830369	-0.000099
1071	1.0647e+02	-2.5924	-7.644394	0.000234	2.338982	0.792469	-0.000094
1072	1.0656e+02	-2.6614	-7.740119	0.000239	2.389830	0.809696	-0.000096
1073	1.0666e+02	-2.6775	-7.836252	0.000240	2.399999	0.813142	-0.000097
1074	1.0676e+02	-2.7368	-7.934829	0.000246	2.461016	0.833815	-0.000099
1075	1.0686e+02	-2.7785	-8.032591	0.000244	2.440677	0.826924	-0.000098
1076	1.0696e+02	-2.8042	-8.125466	0.000232	2.318643	0.785578	-0.000093
1077	1.0706e+02	-2.8636	-8.218747	0.000233	2.328813	0.789023	-0.000094
1078	1.0716e+02	-2.8780	-8.317324	0.000246	2.461016	0.833815	-0.000099
1079	1.0726e+02	-2.9261	-8.419974	0.000256	2.562711	0.868270	-0.000103
1080	1.0736e+02	-2.9839	-8.505516	0.000214	2.135593	0.723558	-0.000086
1081	1.0746e+02	-2.9967	-8.608574	0.000257	2.572881	0.871716	-0.000104
1082	1.0756e+02	-3.0593	-8.699411	0.000227	2.267796	0.768350	-0.000091
1083	1.0766e+02	-3.0946	-8.801247	0.000254	2.542372	0.861379	-0.000102
1084	1.0776e+02	-3.1475	-8.894936	0.000234	2.338982	0.792469	-0.000094
1085	1.0786e+02	-3.1956	-8.986588	0.000229	2.288135	0.775241	-0.000092
1086	1.0796e+02	-3.2085	-9.077425	0.000227	2.267796	0.768350	-0.000091
1087	1.0806e+02	-3.2646	-9.173965	0.000241	2.410169	0.816587	-0.000097
1088	1.0816e+02	-3.3063	-9.268061	0.000235	2.349152	0.795914	-0.000095
1089	1.0826e+02	-3.3224	-9.360121	0.000230	2.298304	0.778687	-0.000093
1090	1.0836e+02	-3.3769	-9.450551	0.000226	2.257626	0.764905	-0.000091
1091	1.0845e+02	-3.4042	-9.545869	0.000238	2.379660	0.806251	-0.000096
1092	1.0855e+02	-3.4732	-9.641595	0.000239	2.389830	0.809696	-0.000096
1093	1.0865e+02	-3.4972	-9.726322	0.000212	2.115254	0.716667	-0.000085
1094	1.0875e+02	-3.5325	-9.821233	0.000237	2.369491	0.802805	-0.000095
1095	1.0885e+02	-3.5694	-9.921032	0.000249	2.491525	0.844151	-0.000100
1096	1.0895e+02	-3.6143	-10.013498	0.000231	2.308474	0.782132	-0.000093
1097	1.0905e+02	-3.6208	-10.105965	0.000231	2.308474	0.782132	-0.000093
1098	1.0915e+02	-3.6881	-10.192729	0.000217	2.166101	0.733895	-0.000087
1099	1.0925e+02	-3.7379	-10.291306	0.000246	2.461016	0.833815	-0.000099
1100	1.0935e+02	-3.7892	-10.385809	0.000236	2.359321	0.799360	-0.000095
1101	1.0945e+02	-3.7940	-10.475832	0.000225	2.247457	0.761459	-0.000090
1102	1.0955e+02	-3.8518	-10.566669	0.000227	2.267796	0.768350	-0.000091
1103	1.0965e+02	-3.8855	-10.660766	0.000235	2.349152	0.795914	-0.000095
1104	1.0975e+02	-3.9240	-10.755269	0.000236	2.359321	0.799360	-0.000095
1105	1.0985e+02	-3.9657	-10.846921	0.000229	2.288135	0.775241	-0.000092
1106	1.0995e+02	-4.0266	-10.943869	0.000242	2.420338	0.820033	-0.000097
1107	1.1005e+02	-4.0571	-11.029003	0.000213	2.125423	0.720113	-0.000086
1108	1.1015e+02	-4.0972	-11.128802	0.000249	2.491525	0.844151	-0.000100
1109	1.1025e+02	-4.1357	-11.224528	0.000239	2.389830	0.809696	-0.000096
1110	1.1035e+02	-4.1710	-11.317809	0.000233	2.328813	0.789023	-0.000094
1111	1.1044e+02	-4.1887	-11.409054	0.000228	2.277965	0.771796	-0.000092
1112	1.1054e+02	-4.2544	-11.503557	0.000236	2.359321	0.799360	-0.000095
1113	1.1064e+02	-4.2945	-11.598468	0.000237	2.369491	0.802805	-0.000095
1114	1.1074e+02	-4.3026	-11.697045	0.000246	2.461016	0.833815	-0.000099
1115	1.1084e+02	-4.3763	-11.781365	0.000211	2.105084	0.713222	-0.000085
1116	1.1094e+02	-4.4197	-11.881979	0.000251	2.511864	0.851042	-0.000101
1117	1.1104e+02	-4.4582	-11.970372	0.000221	2.206779	0.747677	-0.000089
1118	1.1114e+02	-4.4822	-12.073430	0.000257	2.572881	0.871716	-0.000104
1119	1.1124e+02	-4.5271	-12.158971	0.000214	2.135593	0.723558	-0.000086
1120	1.1134e+02	-4.5640	-12.251031	0.000230	2.298304	0.778687	-0.000093
1121	1.1144e+02	-4.6074	-12.341054	0.000225	2.247457	0.761459	-0.000090
1122	1.1154e+02	-4.6459	-12.435150	0.000235	2.349152	0.795914	-0.000095
1123	1.1164e+02	-4.7004	-12.528431	0.000233	2.328813	0.789023	-0.000094
1124	1.1174e+02	-4.7357	-12.620083	0.000229	2.288135	0.775241	-0.000092
1125	1.1184e+02	-4.7806	-12.713772	0.000234	2.338982	0.792469	-0.000094
1126	1.1194e+02	-4.8063	-12.811534	0.000244	2.440677	0.826924	-0.000098
1127	1.1204e+02	-4.8705	-12.900742	0.000223	2.227118	0.754568	-0.000090
1128	1.1214e+02	-4.8849	-12.996875	0.000240	2.399999	0.813142	-0.000097
1129	1.1224e+02	-4.9442	-13.082824	0.000215	2.145762	0.727004	-0.000086
1130	1.1234e+02	-4.9747	-13.178957	0.000240	2.399999	0.813142	-0.000097
1131	1.1244e+02	-4.9972	-13.273461	0.000236	2.359321	0.799360	-0.000095
1132	1.1253e+02	-5.0485	-13.365927	0.000231	2.308474	0.782132	-0.000093
1133	1.1263e+02	-5.0934	-13.451062	0.000213	2.125423	0.720113	-0.000086
1134	1.1273e+02	-5.1239	-13.545566	0.000236	2.359321	0.799360	-0.000095
1135	1.1283e+02	-5.1785	-13.640476	0.000237	2.369491	0.802805	-0.000095
1136	1.1293e+02	-5.2057	-13.733758	0.000233	2.328813	0.789023	-0.000094
1137	1.1303e+02	-5.2442	-13.829483	0.000239	2.389830	0.809696	-0.000096
1138	1.1313e+02	-5.2859	-13.924394	0.000237	2.369491	0.802805	-0.000095
1139	1.1323e+02	-5.3277	-14.021342	0.000242	2.420338	0.820033	-0.000097
1140	1.1333e+02	-5.3758	-14.117067	0.000239	2.389830	0.809696	-0.000096
1141	1.1343e+02	-5.3854	-14.209127	0.000230	2.298304	0.778687	-0.000093
1142	1.1353e+02	-5.4608	-14.301186	0.000230	2.298304	0.778687	-0.000093
1143	1.1363e+02	-5.4752	-14.394467	0.000233	2.328813	0.789023	-0.000094
1144	1.1373e+02	-5.5041	-14.488564	0.000235	2.349152	0.795914	-0.000095
1145	1.1383e+02	-5.5667	-14.588362	0.000249	2.491525	0.844151	-0.000100
1146	1.1393e+02	-5.6068	-14.674719	0.000216	2.155932	0.730449	-0.000087
1147	1.1403e+02	-5.6389	-14.778999	0.000260	2.603389	0.882052	-0.000105
1148	1.1413e+02	-5.6918	-14.865355	0.000216	2.155932	0.730449	-0.000087
1149	1.1423e+02	-5.7656	-14.966376	0.000252	2.522033	0.854488	-0.000102
1150	1.1433e+02	-5.7817	-15.057621	0.000228	2.277965	0.771796	-0.000092
1151	1.1442e+02	-5.7897	-15.152939	0.000238	2.379660	0.806251	-0.000096
1152	1.1452e+02	-5.8410	-15.246221	0.000233	2.328813	0.789023	-0.000094
1153	1.1462e+02	-5.8843	-15.339502	0.000233	2.328813	0.789023	-0.000094
1154	1.1472e+02	-5.9260	-15.438486	0.000247	2.471186	0.837260	-0.000099
1155	1.1482e+02	-5.9710	-15.530546	0.000230	2.298304	0.778687	-0.000093
1156	1.1492e+02	-5.9998	-15.625864	0.000238	2.379660	0.806251	-0.000096
1157	1.1502e+02	-6.0399	-15.722404	0.000241	2.410169	0.816587	-0.000097
1158	1.1512e+02	-6.0768	-15.816093	0.000234	2.338982	0.792469	-0.000094
1159	1.1522e+02	-6.1378	-15.904894	0.000222	2.216949	0.751122	-0.000089
1160	1.1532e+02	-6.1635	-16.004693	0.000249	2.491525	0.844151	-0.000100
1161	1.1542e+02	-6.2084	-16.097567	0.000232	2.318643	0.785578	-0.000093
1162	1.1552e+02	-6.2308	-16.195329	0.000244	2.440677	0.826924	-0.000098
1163	1.1562e+02	-6.2998	-16.284130	0.000222	2.216949	0.751122	-0.000089
1164	1.1572e+02	-6.3175	-16.378633	0.000236	2.359321	0.799360	-0.000095
1165	1.1582e+02	-6.3608	-16.473544	0.000237	2.369491	0.802805	-0.000095
1166	1.1592e+02	-6.3865	-16.566011	0.000231	2.308474	0.782132	-0.000093
1167	1.1602e+02	-6.4554	-16.655626	0.000224	2.237288	0.758014	-0.000090
1168	1.1612e+02	-6.4811	-16.744427	0.000222	2.216949	0.751122	-0.000089
1169	1.1622e+02	-6.5164	-16.838930	0.000236	2.359321	0.799360	-0.000095
1170	1.1632e+02	-6.5758	-16.938729	0.000249	2.491525	0.844151	-0.000100
1171	1.1642e+02	-6.5918	-17.032825	0.000235	2.349152	0.795914	-0.000095
1172	1.1651e+02	-6.6078	-17.133031	0.000250	2.501694	0.847597	-0.000101
1173	1.1661e+02	-6.6624	-17.225905	0.000232	2.318643	0.785578	-0.000093
1174	1.1671e+02	-6.7137	-17.322446	0.000241	2.410169	0.816587	-0.000097
1175	1.1681e+02	-6.7715	-17.415727	0.000233	2.328813	0.789023	-0.000094
1176	1.1691e+02	-6.7747	-17.514711	0.000247	2.471186	0.837260	-0.000099
1177	1.1701e+02	-6.8421	-17.605956	0.000228	2.277965	0.771796	-0.000092
1178	1.1711e+02	-6.8581	-17.704940	0.000247	2.471186	0.837260	-0.000099
1179	1.1721e+02	-6.9175	-17.797000	0.000230	2.298304	0.778687	-0.000093
1180	1.1731e+02	-6.9624	-17.893540	0.000241	2.410169	0.816587	-0.000097
1181	1.1741e+02	-6.9688	-17.990080	0.000241	2.410169	0.816587	-0.000097
1182	1.1751e+02	-7.0265	-18.081325	0.000228	2.277965	0.771796	-0.000092
1183	1.1761e+02	-7.0795	-18.179087	0.000244	2.440677	0.826924	-0.000098
1184	1.1771e+02	-7.1100	-18.277257	0.000245	2.450847	0.830369	-0.000099
1185	1.1781e+02	-7.1629	-18.371353	0.000235	2.349152	0.795914	-0.000095
1186	1.1791e+02	-7.1918	-18.463412	0.000230	2.298304	0.778687	-0.000093
1187	1.1801e+02	-7.2447	-18.557916	0.000236	2.359321	0.799360	-0.000095
1188	1.1811e+02	-7.2848	-18.659751	0.000254	2.542372	0.861379	-0.000102
1189	1.1821e+02	-7.3121	-18.751403	0.000229	2.288135	0.775241	-0.000092
1190	1.1831e+02	-7.3666	-18.842648	0.000228	2.277965	0.771796	-0.000092
1191	1.1841e+02	-7.3955	-18.937559	0.000237	2.369491	0.802805	-0.000095
1192	1.1850e+02	-7.4404	-19.033284	0.000239	2.389830	0.809696	-0.000096
1193	1.1860e+02	-7.4805	-19.124936	0.000229	2.288135	0.775241	-0.000092
1194	1.1870e+02	-7.5222	-19.214959	0.000225	2.247457	0.761459	-0.000090
1195	1.1880e+02	-7.5559	-19.305797	0.000227	2.267796	0.768350	-0.000091
1196	1.1890e+02	-7.6185	-19.395819	0.000225	2.247457	0.761459	-0.000090
1197	1.1900e+02	-7.6474	-19.494804	0.000247	2.471186	0.837260	-0.000099
1198	1.1910e+02	-7.6698	-19.586863	0.000230	2.298304	0.778687	-0.000093
1199	1.1920e+02	-7.6987	-19.676478	0.000224	2.237288	0.758014	-0.000090
1200	1.1930e+02	-7.7549	-19.773018	0.000241	2.410169	0.816587	-0.000097
1201	1.1940e+02	-7.7902	-19.870373	0.000243	2.430508	0.823478	-0.000098
1202	1.1950e+02	-7.8431	-19.963655	0.000233	2.328813	0.789023	-0.000094
1203	1.1960e+02	-7.8623	-20.052048	0.000221	2.206779	0.747677	-0.000089
1204	1.1970e+02	-7.8976	-20.146552	0.000236	2.359321	0.799360	-0.000095
1205	1.1980e+02	-7.9586	-20.245128	0.000246	2.461016	0.833815	-0.000099
1206	1.1990e+02	-8.0099	-20.337188	0.000230	2.298304	0.778687	-0.000093
1207	1.2000e+02	-8.0196	-20.428433	0.000228	2.277965	0.771796	-0.000092
1208	1.2010e+02	-8.0757	-20.518048	0.000224	2.237288	0.758014	-0.000090
1209	1.2020e+02	-8.0869	-20.610515	0.000231	2.308474	0.782132	-0.000093
1210	1.2030e+02	-8.1511	-20.707055	0.000241	2.410169	0.816587	-0.000097
1211	1.2039e+02	-8.1928	-20.799522	0.000231	2.308474	0.782132	-0.000093
1212	1.2049e+02	-8.2297	-20.887915	0.000221	2.206779	0.747677	-0.000089
1213	1.2059e+02	-8.2506	-20.982418	0.000236	2.359321	0.799360	-0.000095
1214	1.2069e+02	-8.3212	-21.077329	0.000237	2.369491	0.802805	-0.000095
1215	1.2079e+02	-8.3532	-21.168167	0.000227	2.267796	0.768350	-0.000091
1216	1.2089e+02	-8.4110	-21.267966	0.000249	2.491525	0.844151	-0.000100
1217	1.2099e+02	-8.4046	-21.356766	-0.000222	-2.216949	-0.751122	-0.000089
1218	1.2109e+02	-8.4591	-21.444752	0.000220	2.196610	0.744231	-0.000088
1219	1.2119e+02	-8.5153	-21.537219	0.000231	2.308474	0.782132	-0.000093
1220	1.2129e+02	-8.5634	-21.630500	0.000233	2.328813	0.789023	-0.000094
1221	1.2139e+02	-8.5842	-21.715635	0.000213	2.125423	0.720113	-0.000086
1222	1.2149e+02	-8.6388	-21.808509	0.000232	2.318643	0.785578	-0.000093
1223	1.2159e+02	-8.6613	-21.898939	0.000226	2.257626	0.764905	-0.000091
1224	1.2169e+02	-8.7078	-21.987333	0.000221	2.206779	0.747677	-0.000089
1225	1.2179e+02	-8.7543	-22.072875	0.000214	2.135593	0.723558	-0.000086
1226	1.2189e+02	-8.7976	-22.165749	0.000232	2.318643	0.785578	-0.000093
1227	1.2199e+02	-8.8265	-22.254957	0.000223	2.227118	0.754568	-0.000090
1228	1.2209e+02	-8.8987	-22.347831	0.000232	2.318643	0.785578	-0.000093
1229	1.2219e+02	-8.9019	-22.433780	0.000215	2.145762	0.727004	-0.000086
1230	1.2229e+02	-8.9500	-22.522988	0.000223	2.227118	0.754568	-0.000090
1231	1.2239e+02	-8.9837	-22.611789	0.000222	2.216949	0.751122	-0.000089
1232	1.2248e+02	-9.0302	-22.701811	0.000225	2.247457	0.761459	-0.000090
1233	1.2258e+02	-9.0816	-22.796315	0.000236	2.359321	0.799360	-0.000095
1234	1.2268e+02	-9.1104	-22.878191	0.000204	2.044067	0.692549	-0.000082
1235	1.2278e+02	-9.1730	-22.970657	0.000231	2.308474	0.782132	-0.000093
1236	1.2288e+02	-9.1810	-23.061088	0.000226	2.257626	0.764905	-0.000091
1237	1.2298e+02	-9.2436	-23.150296	0.000223	2.227118	0.754568	-0.000090
1238	1.2308e+02	-9.2564	-23.234615	0.000211	2.105084	0.713222	-0.000085
1239	1.2318e+02	-9.3110	-23.323009	0.000221	2.206779	0.747677	-0.000089
1240	1.2328e+02	-9.3238	-23.409365	0.000216	2.155932	0.730449	-0.000087
1241	1.2338e+02	-9.3960	-23.503054	0.000234	2.338982	0.792469	-0.000094
1242	1.2348e+02	-9.4329	-23.588189	0.000213	2.125423	0.720113	-0.000086
1243	1.2358e+02	-9.4778	-23.674138	0.000215	2.145762	0.727004	-0.000086
1244	1.2368e+02	-9.5227	-23.759273	0.000213	2.125423	0.720113	-0.000086
1245	1.2378e+02	-9.5532	-23.850925	0.000229	2.288135	0.775241	-0.000092
1246	1.2388e+02	-9.5981	-23.940133	0.000223	2.227118	0.754568	-0.000090
1247	1.2398e+02	-9.6559	-24.025267	0.000213	2.125423	0.720113	-0.000086
1248	1.2408e+02	-9.6591	-24.106329	0.000202	2.023728	0.685658	-0.000081
1249	1.2418e+02	-9.7249	-24.202054	0.000239	2.389830	0.809696	-0.000096
1250	1.2428e+02	-9.7152	-24.285559	-0.000208	-2.084745	-0.706331	-0.000084
1251	1.2438e+02	-9.7858	-24.374360	0.000222	2.216949	0.751122	-0.000089
1252	1.2447e+02	-9.8163	-24.460717	0.000216	2.155932	0.730449	-0.000087
1253	1.2457e+02	-9.8757	-24.549925	0.000223	2.227118	0.754568	-0.000090
1254	1.2467e+02	-9.9206	-24.635874	0.000215	2.145762	0.727004	-0.000086
1255	1.2477e+02	-9.9511	-24.720601	0.000212	2.115254	0.716667	-0.000085
1256	1.2487e+02	-9.9863	-24.799626	0.000197	1.972881	0.668430	-0.000079
1257	1.2497e+02	-10.0232	-24.892092	0.000231	2.308474	0.782132	-0.000093
1258	1.2507e+02	-10.0666	-24.976820	0.000212	2.115254	0.716667	-0.000085
1259	1.2517e+02	-10.1083	-25.060732	0.000209	2.094915	0.709776	-0.000084
1260	1.2527e+02	-10.1436	-25.144237	0.000208	2.084745	0.706331	-0.000084
1261	1.2537e+02	-10.1869	-25.224484	0.000200	2.003389	0.678767	-0.000081
1262	1.2547e+02	-10.2334	-25.314099	0.000224	2.237288	0.758014	-0.000090
1263	1.2557e+02	-10.2575	-25.396382	0.000205	2.054237	0.695994	-0.000083
1264	1.2567e+02	-10.3232	-25.486405	0.000225	2.247457	0.761459	-0.000090
1265	1.2577e+02	-10.3361	-25.566652	0.000200	2.003389	0.678767	-0.000081
1266	1.2587e+02	-10.3842	-25.656674	0.000225	2.247457	0.761459	-0.000090
1267	1.2597e+02	-10.4339	-25.741402	0.000212	2.115254	0.716667	-0.000085
1268	1.2607e+02	-10.4740	-25.826536	0.000213	2.125423	0.720113	-0.000086
1269	1.2617e+02	-10.4997	-25.901487	0.000187	1.871186	0.633975	-0.000075
1270	1.2627e+02	-10.5542	-25.993139	0.000229	2.288135	0.775241	-0.000092
1271	1.2636e+02	-10.5751	-26.076237	0.000207	2.074576	0.702885	-0.000084
1272	1.2646e+02	-10.6168	-26.158113	0.000204	2.044067	0.692549	-0.000082
1273	1.2656e+02	-10.6441	-26.249358	0.000228	2.277965	0.771796	-0.000092
1274	1.2666e+02	-10.6842	-26.332863	0.000208	2.084745	0.706331	-0.000084
1275	1.2676e+02	-10.7307	-26.412295	0.000198	1.983050	0.671876	-0.000080
1276	1.2686e+02	-10.7853	-26.503539	0.000228	2.277965	0.771796	-0.000092
1277	1.2696e+02	-10.7885	-26.590303	0.000217	2.166101	0.733895	-0.000087
1278	1.2706e+02	-10.8542	-26.670143	0.000199	1.993220	0.675321	-0.000080
1279	1.2716e+02	-10.9184	-26.758129	0.000220	2.196610	0.744231	-0.000088
1280	1.2726e+02	-10.9489	-26.848559	0.000226	2.257626	0.764905	-0.000091
1281	1.2736e+02	-10.9826	-26.924324	0.000189	1.891525	0.640866	-0.000076
1282	1.2746e+02	-11.0580	-27.015162	0.000227	2.267796	0.768350	-0.000091
1283	1.2756e+02	-11.0291	-27.099074	-0.000209	-2.094915	-0.709776	-0.000084
1284	1.2766e+02	-11.0933	-27.185431	0.000216	2.155932	0.730449	-0.000087
1285	1.2776e+02	-11.1382	-27.272195	0.000217	2.166101	0.733895	-0.000087
1286	1.2786e+02	-11.2024	-27.356922	0.000212	2.115254	0.716667	-0.000085
1287	1.2796e+02	-11.2232	-27.444093	0.000218	2.176271	0.737340	-0.000088
1288	1.2806e+02	-11.2425	-27.522711	0.000196	1.962711	0.664985	-0.000079
1289	1.2816e+02	-11.2954	-27.610289	0.000219	2.186440	0.740786	-0.000088
1290	1.2826e+02	-11.3275	-27.691758	0.000203	2.033898	0.689103	-0.000082
1291	1.2835e+02	-11.3724	-27.773634	0.000204	2.044067	0.692549	-0.000082
1292	1.2845e+02	-11.4414	-27.856731	0.000207	2.074576	0.702885	-0.000084
1293	1.2855e+02	-11.4510	-27.939422	0.000206	2.064406	0.699440	-0.000083
1294	1.2865e+02	-11.5088	-28.027001	0.000219	2.186440	0.740786	-0.000088
1295	1.2875e+02	-11.5344	-28.114172	0.000218	2.176271	0.737340	-0.000088
1296	1.2885e+02	-11.5794	-28.196862	0.000206	2.064406	0.699440	-0.000083
1297	1.2895e+02	-11.6323	-28.278331	0.000203	2.033898	0.689103	-0.000082
1298	1.2905e+02	-11.6772	-28.361429	0.000207	2.074576	0.702885	-0.000084
1299	1.2915e+02	-11.7189	-28.447378	0.000215	2.145762	0.727004	-0.000086
1300	1.2925e+02	-11.7366	-28.520700	0.000183	1.830508	0.620193	-0.000074
1301	1.2935e+02	-11.7767	-28.616018	0.000238	2.379660	0.806251	-0.000096
1302	1.2945e+02	-11.8280	-28.701560	0.000214	2.135593	0.723558	-0.000086
1303	1.2955e+02	-11.8729	-28.782214	0.000201	2.013559	0.682212	-0.000081
1304	1.2965e+02	-11.8986	-28.868570	0.000216	2.155932	0.730449	-0.000087
1305	1.2975e+02	-11.9307	-28.955334	0.000217	2.166101	0.733895	-0.000087
1306	1.2985e+02	-11.9563	-29.036395	0.000202	2.023728	0.685658	-0.000081
1307	1.2995e+02	-12.0237	-29.121530	0.000213	2.125423	0.720113	-0.000086
1308	1.3005e+02	-12.0799	-29.212367	0.000227	2.267796	0.768350	-0.000091
1309	1.3015e+02	-12.0911	-29.296280	0.000209	2.094915	0.709776	-0.000084
1310	1.3025e+02	-12.1152	-29.381415	0.000213	2.125423	0.720113	-0.000086
1311	1.3034e+02	-12.1761	-29.468993	0.000219	2.186440	0.740786	-0.000088
1312	1.3044e+02	-12.2259	-29.558201	0.000223	2.227118	0.754568	-0.000090
1313	1.3054e+02	-12.2644	-29.640077	0.000204	2.044067	0.692549	-0.000082
1314	1.3064e+02	-12.2868	-29.728878	0.000222	2.216949	0.751122	-0.000089
1315	1.3074e+02	-12.3237	-29.817271	0.000221	2.206779	0.747677	-0.000089
1316	1.3084e+02	-12.3783	-29.899962	0.000206	2.064406	0.699440	-0.000083
1317	1.3094e+02	-12.4136	-29.985911	0.000215	2.145762	0.727004	-0.000086
1318	1.3104e+02	-12.4713	-30.069823	0.000209	2.094915	0.709776	-0.000084
1319	1.3114e+02	-12.4954	-30.154958	0.000213	2.125423	0.720113	-0.000086
1320	1.3124e+02	-12.5194	-30.246203	0.000228	2.277965	0.771796	-0.000092
1321	1.3134e+02	-12.5756	-30.330523	0.000211	2.105084	0.713222	-0.000085
1322	1.3144e+02	-12.6157	-30.418916	0.000221	2.206779	0.747677	-0.000089
1323	1.3154e+02	-12.6750	-30.494274	0.000188	1.881355	0.637420	-0.000076
1324	1.3164e+02	-12.7071	-30.585519	0.000228	2.277965	0.771796	-0.000092
1325	1.3174e+02	-12.7424	-30.671876	0.000216	2.155932	0.730449	-0.000087
1326	1.3184e+02	-12.7873	-30.760676	0.000222	2.216949	0.751122	-0.000089
1327	1.3194e+02	-12.7970	-30.842145	0.000203	2.033898	0.689103	-0.000082
1328	1.3204e+02	-12.8676	-30.930538	0.000221	2.206779	0.747677	-0.000089
1329	1.3214e+02	-12.8916	-31.007933	0.000193	1.932203	0.654648	-0.000078
1330	1.3224e+02	-12.9446	-31.102844	0.000237	2.369491	0.802805	-0.000095
1331	1.3234e+02	-12.9702	-31.184313	0.000203	2.033898	0.689103	-0.000082
1332	1.3243e+02	-13.0151	-31.263337	0.000197	1.972881	0.668430	-0.000079
1333	1.3253e+02	-13.0649	-31.352138	0.000222	2.216949	0.751122	-0.000089
1334	1.3263e+02	-13.0937	-31.434014	0.000204	2.044067	0.692549	-0.000082
1335	1.3273e+02	-13.1339	-31.518334	0.000211	2.105084	0.713222	-0.000085
1336	1.3283e+02	-13.1547	-31.606320	0.000220	2.196610	0.744231	-0.000088
1337	1.3293e+02	-13.2157	-31.696342	0.000225	2.247457	0.761459	-0.000090
1338	1.3303e+02	-13.2462	-31.785550	0.000223	2.227118	0.754568	-0.000090
1339	1.3313e+02	-13.3007	-31.871500	0.000215	2.145762	0.727004	-0.000086
1340	1.3323e+02	-13.3232	-31.953783	0.000205	2.054237	0.695994	-0.000083
1341	1.3333e+02	-13.3617	-32.047064	0.000233	2.328813	0.789023	-0.000094
1342	1.3343e+02	-13.4082	-32.132606	0.000214	2.135593	0.723558	-0.000086
1343	1.3353e+02	-13.4563	-32.219370	0.000217	2.166101	0.733895	-0.000087
1344	1.3363e+02	-13.4884	-32.302468	0.000207	2.074576	0.702885	-0.000084
1345	1.3373e+02	-13.5397	-32.391676	0.000223	2.227118	0.754568	-0.000090
1346	1.3383e+02	-13.5782	-32.475589	0.000209	2.094915	0.709776	-0.000084
1347	1.3393e+02	-13.6199	-32.566833	0.000228	2.277965	0.771796	-0.000092
1348	1.3403e+02	-13.6681	-32.649524	0.000206	2.064406	0.699440	-0.000083
1349	1.3413e+02	-13.7034	-32.734251	0.000212	2.115254	0.716667	-0.000085
1350	1.3423e+02	-13.7338	-32.825903	0.000229	2.288135	0.775241	-0.000092
1351	1.3432e+02	-13.7820	-32.911038	0.000213	2.125423	0.720113	-0.000086
1352	1.3442e+02	-13.8173	-32.997394	0.000216	2.155932	0.730449	-0.000087
1353	1.3452e+02	-13.8734	-33.086195	0.000222	2.216949	0.751122	-0.000089
1354	1.3462e+02	-13.8798	-33.173774	0.000219	2.186440	0.740786	-0.000088
1355	1.3472e+02	-13.9119	-33.254428	0.000201	2.013559	0.682212	-0.000081
1356	1.3482e+02	-13.9665	-33.344043	0.000224	2.237288	0.758014	-0.000090
1357	1.3492e+02	-14.0162	-33.430807	0.000217	2.166101	0.733895	-0.000087
1358	1.3502e+02	-14.0675	-33.513090	0.000205	2.054237	0.695994	-0.000083
1359	1.3512e+02	-14.0900	-33.602705	0.000224	2.237288	0.758014	-0.000090
1360	1.3522e+02	-14.1301	-33.687025	0.000211	2.105084	0.713222	-0.000085
1361	1.3532e+02	-14.1558	-33.766864	0.000199	1.993220	0.675321	-0.000080
1362	1.3542e+02	-14.2279	-33.848333	0.000203	2.033898	0.689103	-0.000082
1363	1.3552e+02	-14.2408	-33.935504	0.000218	2.176271	0.737340	-0.000088
1364	1.3562e+02	-14.2729	-34.025120	0.000224	2.237288	0.758014	-0.000090
1365	1.3572e+02	-14.3194	-34.107403	0.000205	2.054237	0.695994	-0.000083
1366	1.3582e+02	-14.3643	-34.191723	0.000211	2.105084	0.713222	-0.000085
1367	1.3592e+02	-14.4044	-34.277672	0.000215	2.145762	0.727004	-0.000086
1368	1.3602e+02	-14.4654	-34.359141	0.000203	2.033898	0.689103	-0.000082
1369	1.3612e+02	-14.4910	-34.447941	0.000222	2.216949	0.751122	-0.000089
1370	1.3622e+02	-14.5167	-34.529410	0.000203	2.033898	0.689103	-0.000082
1371	1.3631e+02	-14.5600	-34.612508	0.000207	2.074576	0.702885	-0.000084
1372	1.3641e+02	-14.6178	-34.701716	0.000223	2.227118	0.754568	-0.000090
1373	1.3651e+02	-14.6643	-34.785628	0.000209	2.094915	0.709776	-0.000084
1374	1.3661e+02	-14.6900	-34.873207	0.000219	2.186440	0.740786	-0.000088
1375	1.3671e+02	-14.7301	-34.954268	0.000202	2.023728	0.685658	-0.000081
1376	1.3681e+02	-14.7477	-35.038181	0.000209	2.094915	0.709776	-0.000084
1377	1.3691e+02	-14.8039	-35.126167	0.000220	2.196610	0.744231	-0.000088
1378	1.3701e+02	-14.8408	-35.210079	0.000209	2.094915	0.709776	-0.000084
1379	1.3711e+02	-14.8905	-35.294399	0.000211	2.105084	0.713222	-0.000085
1380	1.3721e+02	-14.9129	-35.379126	0.000212	2.115254	0.716667	-0.000085
1381	1.3731e+02	-14.9659	-35.459373	0.000200	2.003389	0.678767	-0.000081
1382	1.3741e+02	-15.0172	-35.550210	0.000227	2.267796	0.768350	-0.000091
1383	1.3751e+02	-15.0349	-35.634123	0.000209	2.094915	0.709776	-0.000084
1384	1.3761e+02	-15.0926	-35.716406	0.000205	2.054237	0.695994	-0.000083
1385	1.3771e+02	-15.1231	-35.803985	0.000219	2.186440	0.740786	-0.000088
1386	1.3781e+02	-15.1728	-35.884231	0.000200	2.003389	0.678767	-0.000081
1387	1.3791e+02	-15.2161	-35.968958	0.000212	2.115254	0.716667	-0.000085
1388	1.3801e+02	-15.2402	-36.052056	0.000207	2.074576	0.702885	-0.000084
1389	1.3811e+02	-15.3060	-36.130673	0.000196	1.962711	0.664985	-0.000079
1390	1.3821e+02	-15.3445	-36.209290	0.000196	1.962711	0.664985	-0.000079
1391	1.3831e+02	-15.3798	-36.296462	0.000218	2.176271	0.737340	-0.000088
1392	1.3840e+02	-15.4006	-36.382411	0.000215	2.145762	0.727004	-0.000086
1393	1.3850e+02	-15.4311	-36.460621	0.000195	1.952542	0.661539	-0.000079
1394	1.3860e+02	-15.4969	-36.536386	0.000189	1.891525	0.640866	-0.000076
1395	1.3870e+02	-15.5258	-36.620706	0.000211	2.105084	0.713222	-0.000085
1396	1.3880e+02	-15.5659	-36.701768	0.000202	2.023728	0.685658	-0.000081
1397	1.3890e+02	-15.6076	-36.782829	0.000202	2.023728	0.685658	-0.000081
1398	1.3900e+02	-15.6509	-36.866334	0.000208	2.084745	0.706331	-0.000084
1399	1.3910e+02	-15.6814	-36.947395	0.000202	2.023728	0.685658	-0.000081
1400	1.3920e+02	-15.7215	-37.028456	0.000202	2.023728	0.685658	-0.000081
1401	1.3930e+02	-15.7744	-37.112369	0.000209	2.094915	0.709776	-0.000084
1402	1.3940e+02	-15.8065	-37.188949	0.000191	1.911864	0.647757	-0.000077
1403	1.3950e+02	-15.8498	-37.276121	0.000218	2.176271	0.737340	-0.000088
1404	1.3960e+02	-15.8691	-37.346998	0.000177	1.769491	0.599520	-0.000071
1405	1.3970e+02	-15.9076	-37.432540	0.000214	2.135593	0.723558	-0.000086
1406	1.3980e+02	-15.9637	-37.510750	0.000195	1.952542	0.661539	-0.000079
1407	1.3990e+02	-15.9974	-37.590996	0.000200	2.003389	0.678767	-0.000081
1408	1.4000e+02	-16.0423	-37.677760	0.000217	2.166101	0.733895	-0.000087
1409	1.4010e+02	-16.0808	-37.755563	0.000194	1.942372	0.658094	-0.000078
1410	1.4020e+02	-16.1033	-37.833365	0.000194	1.942372	0.658094	-0.000078
1411	1.4029e+02	-16.1290	-37.918092	0.000212	2.115254	0.716667	-0.000085
1412	1.4039e+02	-16.1915	-37.999561	0.000203	2.033898	0.689103	-0.000082
1413	1.4049e+02	-16.2477	-38.078585	0.000197	1.972881	0.668430	-0.000079
1414	1.4059e+02	-16.2798	-38.160054	0.000203	2.033898	0.689103	-0.000082
1415	1.4069e+02	-16.2846	-38.236634	0.000191	1.911864	0.647757	-0.000077
1416	1.4079e+02	-16.3600	-38.319732	0.000207	2.074576	0.702885	-0.000084
1417	1.4089e+02	-16.4081	-38.399164	0.000198	1.983050	0.671876	-0.000080
1418	1.4099e+02	-16.4161	-38.479003	0.000199	1.993220	0.675321	-0.000080
1419	1.4109e+02	-16.4915	-38.551510	0.000181	1.810169	0.613302	-0.000073
1420	1.4119e+02	-16.5043	-38.638681	0.000218	2.176271	0.737340	-0.000088
1421	1.4129e+02	-16.5493	-38.717299	0.000196	1.962711	0.664985	-0.000079
1422	1.4139e+02	-16.6006	-38.798360	0.000202	2.023728	0.685658	-0.000081
1423	1.4149e+02	-16.6519	-38.869237	0.000177	1.769491	0.599520	-0.000071
1424	1.4159e+02	-16.6728	-38.950706	0.000203	2.033898	0.689103	-0.000082
1425	1.4169e+02	-16.7113	-39.029323	0.000196	1.962711	0.664985	-0.000079
1426	1.4179e+02	-16.7482	-39.105496	0.000190	1.901694	0.644311	-0.000077
1427	1.4189e+02	-16.7883	-39.183298	0.000194	1.942372	0.658094	-0.000078
1428	1.4199e+02	-16.8348	-39.261101	0.000194	1.942372	0.658094	-0.000078
1429	1.4209e+02	-16.8846	-39.334015	0.000182	1.820338	0.616747	-0.000073
1430	1.4219e+02	-16.9423	-39.416706	0.000206	2.064406	0.699440	-0.000083
1431	1.4228e+02	-16.9744	-39.496545	0.000199	1.993220	0.675321	-0.000080
1432	1.4238e+02	-16.9840	-39.572718	0.000190	1.901694	0.644311	-0.000077
1433	1.4248e+02	-17.0450	-39.652557	0.000199	1.993220	0.675321	-0.000080
1434	1.4258e+02	-17.0658	-39.731581	0.000197	1.972881	0.668430	-0.000079
1435	1.4268e+02	-17.1043	-39.812235	0.000201	2.013559	0.682212	-0.000081
1436	1.4278e+02	-17.1717	-39.890445	0.000195	1.952542	0.661539	-0.000079
1437	1.4288e+02	-17.1942	-39.965803	0.000188	1.881355	0.637420	-0.000076
1438	1.4298e+02	-17.2519	-40.041569	0.000189	1.891525	0.640866	-0.000076
1439	1.4308e+02	-17.2712	-40.123445	0.000204	2.044067	0.692549	-0.000082
1440	1.4318e+02	-17.3241	-40.199211	0.000189	1.891525	0.640866	-0.000076
1441	1.4328e+02	-17.3482	-40.279865	0.000201	2.013559	0.682212	-0.000081
1442	1.4338e+02	-17.3706	-40.353594	0.000184	1.840677	0.623638	-0.000074
1443	1.4348e+02	-17.4460	-40.439543	0.000215	2.145762	0.727004	-0.000086
1444	1.4358e+02	-17.4877	-40.516938	0.000193	1.932203	0.654648	-0.000078
1445	1.4368e+02	-17.5327	-40.595148	0.000195	1.952542	0.661539	-0.000079
1446	1.4378e+02	-17.5471	-40.674987	0.000199	1.993220	0.675321	-0.000080
1447	1.4388e+02	-17.6000	-40.756455	0.000203	2.033898	0.689103	-0.000082
1448	1.4398e+02	-17.6305	-40.839146	0.000206	2.064406	0.699440	-0.000083
1449	1.4408e+02	-17.6883	-40.924280	0.000213	2.125423	0.720113	-0.000086
1450	1.4418e+02	-17.7252	-40.998417	0.000185	1.850847	0.627084	-0.000075
1451	1.4428e+02	-17.7573	-41.080293	0.000204	2.044067	0.692549	-0.000082
1452	1.4437e+02	-17.7974	-41.157280	0.000192	1.922033	0.651203	-0.000077
1453	1.4447e+02	-17.8503	-41.241600	0.000211	2.105084	0.713222	-0.000085
1454	1.4457e+02	-17.8647	-41.312478	0.000177	1.769491	0.599520	-0.000071
1455	1.4467e+02	-17.9161	-41.393539	0.000202	2.023728	0.685658	-0.000081
1456	1.4477e+02	-17.9546	-41.474600	0.000202	2.023728	0.685658	-0.000081
1457	1.4487e+02	-17.9834	-41.555254	0.000201	2.013559	0.682212	-0.000081
1458	1.4497e+02	-18.0396	-41.637945	0.000206	2.064406	0.699440	-0.000083
1459	1.4507e+02	-18.0669	-41.718191	0.000200	2.003389	0.678767	-0.000081
1460	1.4517e+02	-18.1214	-41.801289	0.000207	2.074576	0.702885	-0.000084
1461	1.4527e+02	-18.1535	-41.881535	0.000200	2.003389	0.678767	-0.000081
1462	1.4537e+02	-18.1856	-41.963411	0.000204	2.044067	0.692549	-0.000082
1463	1.4547e+02	-18.2161	-42.039992	0.000191	1.911864	0.647757	-0.000077
1464	1.4557e+02	-18.2706	-42.124312	0.000211	2.105084	0.713222	-0.000085
1465	1.4567e+02	-18.3011	-42.202114	0.000194	1.942372	0.658094	-0.000078
1466	1.4577e+02	-18.3572	-42.286841	0.000212	2.115254	0.716667	-0.000085
1467	1.4587e+02	-18.3733	-42.364644	0.000194	1.942372	0.658094	-0.000078
1468	1.4597e+02	-18.4198	-42.443668	0.000197	1.972881	0.668430	-0.000079
1469	1.4607e+02	-18.4679	-42.526766	0.000207	2.074576	0.702885	-0.000084
1470	1.4617e+02	-18.5064	-42.611493	0.000212	2.115254	0.716667	-0.000085
1471	1.4626e+02	-18.5578	-42.693776	0.000205	2.054237	0.695994	-0.000083
1472	1.4636e+02	-18.5898	-42.781762	0.000220	2.196610	0.744231	-0.000088
1473	1.4646e+02	-18.6492	-42.862824	0.000202	2.023728	0.685658	-0.000081
1474	1.4656e+02	-18.6797	-42.952439	0.000224	2.237288	0.758014	-0.000090
1475	1.4666e+02	-18.6909	-43.037574	0.000213	2.125423	0.720113	-0.000086
1476	1.4676e+02	-18.7615	-43.117413	0.000199	1.993220	0.675321	-0.000080
1477	1.4686e+02	-18.7840	-43.204584	0.000218	2.176271	0.737340	-0.000088
1478	1.4696e+02	-18.8193	-43.300310	0.000239	2.389830	0.809696	-0.000096
1479	1.4706e+02	-18.8562	-43.385037	0.000212	2.115254	0.716667	-0.000085
1480	1.4716e+02	-18.9091	-43.468135	0.000207	2.074576	0.702885	-0.000084
1481	1.4726e+02	-18.9396	-43.560194	0.000230	2.298304	0.778687	-0.000093
1482	1.4736e+02	-18.9957	-43.643699	0.000208	2.084745	0.706331	-0.000084
1483	1.4746e+02	-19.0374	-43.733722	0.000225	2.247457	0.761459	-0.000090
1484	1.4756e+02	-19.0711	-43.822115	0.000221	2.206779	0.747677	-0.000089
1485	1.4766e+02	-19.0904	-43.907657	0.000214	2.135593	0.723558	-0.000086
1486	1.4776e+02	-19.1513	-43.994829	0.000218	2.176271	0.737340	-0.000088
1487	1.4786e+02	-19.1962	-44.085259	0.000226	2.257626	0.764905	-0.000091
1488	1.4796e+02	-19.2299	-44.180577	0.000238	2.379660	0.806251	-0.000096
1489	1.4806e+02	-19.2733	-44.263267	0.000206	2.064406	0.699440	-0.000083
1490	1.4816e+02	-19.3053	-44.355327	0.000230	2.298304	0.778687	-0.000093
1491	1.4825e+02	-19.3374	-44.444535	0.000223	2.227118	0.754568	-0.000090
1492	1.4835e+02	-19.3904	-44.538631	0.000235	2.349152	0.795914	-0.000095
1493	1.4845e+02	-19.4321	-44.626617	0.000220	2.196610	0.744231	-0.000088
1494	1.4855e+02	-19.4561	-44.714603	0.000220	2.196610	0.744231	-0.000088
1495	1.4865e+02	-19.5123	-44.811550	0.000242	2.420338	0.820033	-0.000097
1496	1.4875e+02	-19.5460	-44.904832	0.000233	2.328813	0.789023	-0.000094
1497	1.4885e+02	-19.5781	-44.996891	0.000230	2.298304	0.778687	-0.000093
1498	1.4895e+02	-19.6230	-45.086507	0.000224	2.237288	0.758014	-0.000090
1499	1.4905e+02	-19.6807	-45.181825	0.000238	2.379660	0.806251	-0.000096
1500	1.4915e+02	-19.7000	-45.273477	0.000229	2.288135	0.775241	-0.000092
1501	1.4925e+02	-19.7513	-45.370424	0.000242	2.420338	0.820033	-0.000097
1502	1.4935e+02	-19.7802	-45.464521	0.000235	2.349152	0.795914	-0.000095
1503	1.4945e+02	-19.8139	-45.561875	0.000243	2.430508	0.823478	-0.000098
1504	1.4955e+02	-19.8748	-45.654342	0.000231	2.308474	0.782132	-0.000093
1505	1.4965e+02	-19.9005	-45.755770	0.000253	2.532203	0.857933	-0.000102
1506	1.4975e+02	-19.9663	-45.853533	0.000244	2.440677	0.826924	-0.000098
1507	1.4985e+02	-19.9855	-45.952110	0.000246	2.461016	0.833815	-0.000099
1508	1.4995e+02	-19.9518	-45.914634	0.000094	0.935593	0.316987	0.000038
1509	1.5005e+02	-19.9198	-45.869012	0.000114	1.138983	0.385898	0.000046
1510	1.5015e+02	-19.8636	-45.827870	0.000103	1.027118	0.347997	0.000041
1511	1.5025e+02	-19.8363	-45.777767	0.000125	1.250847	0.423798	0.000050
1512	1.5034e+02	-19.7754	-45.729293	0.000121	1.210169	0.410016	0.000049
1513	1.5044e+02	-19.7289	-45.686522	0.000107	1.067796	0.361779	0.000043
1514	1.5054e+02	-19.6887	-45.630716	0.000139	1.393220	0.472036	0.000056
1515	1.5064e+02	-19.6727	-45.576947	0.000134	1.342373	0.454808	0.000054
1516	1.5074e+02	-19.6294	-45.522363	0.000136	1.362711	0.461699	0.000055
1517	1.5084e+02	-19.5877	-45.466965	0.000138	1.383050	0.468590	0.000056
1518	1.5094e+02	-19.5347	-45.414825	0.000130	1.301695	0.441026	0.000052
1519	1.5104e+02	-19.4786	-45.360648	0.000135	1.352542	0.458254	0.000054
1520	1.5114e+02	-19.4626	-45.299954	0.000152	1.515254	0.513382	0.000061
1521	1.5124e+02	-19.4144	-45.254739	0.000113	1.128813	0.382452	0.000045
1522	1.5134e+02	-19.3904	-45.192008	0.000157	1.566101	0.530609	0.000063
1523	1.5144e+02	-19.3278	-45.132536	0.000148	1.484745	0.503045	0.000060
1524	1.5154e+02	-19.2925	-45.075101	0.000143	1.433898	0.485818	0.000058
1525	1.5164e+02	-19.2588	-45.018073	0.000142	1.423728	0.482372	0.000057
1526	1.5174e+02	-19.2492	-44.958194	0.000149	1.494915	0.506491	0.000060
1527	1.5184e+02	-19.1818	-44.896685	0.000154	1.535593	0.520273	0.000062
1528	1.5194e+02	-19.1529	-44.833954	0.000157	1.566101	0.530609	0.000063
1529	1.5204e+02	-19.1112	-44.769594	0.000161	1.606779	0.544392	0.000065
1530	1.5214e+02	-19.0823	-44.712159	0.000143	1.433898	0.485818	0.000058
1531	1.5224e+02	-19.0262	-44.641689	0.000176	1.759322	0.596074	0.000071
1532	1.5233e+02	-18.9893	-44.580995	0.000152	1.515254	0.513382	0.000061
1533	1.5243e+02	-18.9444	-44.518671	0.000156	1.555932	0.527164	0.000063
1534	1.5253e+02	-18.9123	-44.453904	0.000162	1.616949	0.547837	0.000065
1535	1.5263e+02	-18.8754	-44.391988	0.000155	1.545762	0.523718	0.000062
1536	1.5273e+02	-18.8177	-44.327627	0.000161	1.606779	0.544392	0.000065
1537	1.5283e+02	-18.8016	-44.264489	0.000158	1.576271	0.534055	0.000063
1538	1.5293e+02	-18.7374	-44.203388	0.000153	1.525423	0.516827	0.000061
1539	1.5303e+02	-18.7086	-44.134954	0.000171	1.708474	0.578847	0.000069
1540	1.5313e+02	-18.6749	-44.073038	0.000155	1.545762	0.523718	0.000062
1541	1.5323e+02	-18.6251	-44.006234	0.000167	1.667796	0.565065	0.000067
1542	1.5333e+02	-18.6059	-43.940652	0.000164	1.637288	0.554728	0.000066
1543	1.5343e+02	-18.5738	-43.874663	0.000165	1.647457	0.558174	0.000066
1544	1.5353e+02	-18.5193	-43.804600	0.000175	1.749152	0.592629	0.000070
1545	1.5363e+02	-18.4759	-43.746757	0.000144	1.444067	0.489263	0.000058
1546	1.5373e+02	-18.4342	-43.675472	0.000178	1.779661	0.602965	0.000072
1547	1.5383e+02	-18.3909	-43.609075	0.000166	1.657627	0.561619	0.000067
1548	1.5393e+02	-18.3460	-43.546344	0.000157	1.566101	0.530609	0.000063
1549	1.5403e+02	-18.3027	-43.481170	0.000163	1.627118	0.551283	0.000066
1550	1.5413e+02	-18.2754	-43.413143	0.000170	1.698305	0.575401	0.000068
1551	1.5422e+02	-18.2465	-43.346339	0.000167	1.667796	0.565065	0.000067
1552	1.5432e+02	-18.2193	-43.277906	0.000171	1.708474	0.578847	0.000069
1553	1.5442e+02	-18.1663	-43.208250	0.000174	1.738983	0.589183	0.000070
1554	1.5452e+02	-18.1246	-43.136965	0.000178	1.779661	0.602965	0.000072
1555	1.5462e+02	-18.0556	-43.073420	0.000159	1.586440	0.537501	0.000064
1556	1.5472e+02	-18.0492	-43.004579	0.000172	1.718644	0.582292	0.000069
1557	1.5482e+02	-17.9899	-42.933701	0.000177	1.769491	0.599520	0.000071
1558	1.5492e+02	-17.9498	-42.865268	0.000171	1.708474	0.578847	0.000069
1559	1.5502e+02	-17.9305	-42.791539	0.000184	1.840677	0.623638	0.000074
1560	1.5512e+02	-17.8583	-42.717810	0.000184	1.840677	0.623638	0.000074
1561	1.5522e+02	-17.8487	-42.649376	0.000171	1.708474	0.578847	0.000069
1562	1.5532e+02	-17.7717	-42.579721	0.000174	1.738983	0.589183	0.000070
1563	1.5542e+02	-17.7524	-42.510065	0.000174	1.738983	0.589183	0.000070
1564	1.5552e+02	-17.7396	-42.435521	0.000186	1.861016	0.630529	0.000075
1565	1.5562e+02	-17.6722	-42.363422	0.000180	1.799999	0.609856	0.000072
1566	1.5572e+02	-17.6434	-42.291729	0.000179	1.789830	0.606411	0.000072
1567	1.5582e+02	-17.5888	-42.222889	0.000172	1.718644	0.582292	0.000069
1568	1.5592e+02	-17.5535	-42.147123	0.000189	1.891525	0.640866	0.000076
1569	1.5602e+02	-17.5214	-42.078282	0.000172	1.718644	0.582292	0.000069
1570	1.5612e+02	-17.4893	-42.006590	0.000179	1.789830	0.606411	0.000072
1571	1.5622e+02	-17.4428	-41.935305	0.000178	1.779661	0.602965	0.000072
1572	1.5631e+02	-17.3899	-41.862390	0.000182	1.820338	0.616747	0.000073
1573	1.5641e+02	-17.3642	-41.791920	0.000176	1.759322	0.596074	0.000071
1574	1.5651e+02	-17.3225	-41.719413	0.000181	1.810169	0.613302	0.000073
1575	1.5661e+02	-17.2968	-41.642833	0.000191	1.911864	0.647757	0.000077
1576	1.5671e+02	-17.2439	-41.571548	0.000178	1.779661	0.602965	0.000072
1577	1.5681e+02	-17.2166	-41.499448	0.000180	1.799999	0.609856	0.000072
1578	1.5691e+02	-17.1637	-41.424497	0.000187	1.871186	0.633975	0.000075
1579	1.5701e+02	-17.1043	-41.350361	0.000185	1.850847	0.627084	0.000075
1580	1.5711e+02	-17.0787	-41.278668	0.000179	1.789830	0.606411	0.000072
1581	1.5721e+02	-17.0386	-41.200051	0.000196	1.962711	0.664985	0.000079
1582	1.5731e+02	-17.0097	-41.129174	0.000177	1.769491	0.599520	0.000071
1583	1.5741e+02	-16.9423	-41.056259	0.000182	1.820338	0.616747	0.000073
1584	1.5751e+02	-16.9038	-40.981716	0.000186	1.861016	0.630529	0.000075
1585	1.5761e+02	-16.8797	-40.908801	0.000182	1.820338	0.616747	0.000073
1586	1.5771e+02	-16.8525	-40.833850	0.000187	1.871186	0.633975	0.000075
1587	1.5781e+02	-16.8027	-40.761343	0.000181	1.810169	0.613302	0.000073
1588	1.5791e+02	-16.7578	-40.687614	0.000184	1.840677	0.623638	0.000074
1589	1.5801e+02	-16.7177	-40.603702	0.000209	2.094915	0.709776	0.000084
1590	1.5811e+02	-16.6760	-40.531195	0.000181	1.810169	0.613302	0.000073
1591	1.5821e+02	-16.6343	-40.455022	0.000190	1.901694	0.644311	0.000077
1592	1.5830e+02	-16.5862	-40.378849	0.000190	1.901694	0.644311	0.000077
1593	1.5840e+02	-16.5685	-40.297788	0.000202	2.023728	0.685658	0.000081
1594	1.5850e+02	-16.5124	-40.225281	0.000181	1.810169	0.613302	0.000073
1595	1.5860e+02	-16.5076	-40.145849	0.000198	1.983050	0.671876	0.000080
1596	1.5870e+02	-16.4434	-40.072527	0.000183	1.830508	0.620193	0.000074
1597	1.5880e+02	-16.4209	-39.993910	0.000196	1.962711	0.664985	0.000079
1598	1.5890e+02	-16.3455	-39.917737	0.000190	1.901694	0.644311	0.000077
1599	1.5900e+02	-16.3199	-39.833824	0.000209	2.094915	0.709776	0.000084
1600	1.5910e+02	-16.2717	-39.768650	0.000163	1.627118	0.551283	0.000066
1601	1.5920e+02	-16.2589	-39.690440	0.000195	1.952542	0.661539	0.000079
1602	1.5930e+02	-16.2300	-39.607749	0.000206	2.064406	0.699440	0.000083
1603	1.5940e+02	-16.1642	-39.528318	0.000198	1.983050	0.671876	0.000080
1604	1.5950e+02	-16.1402	-39.450515	0.000194	1.942372	0.658094	0.000078
1605	1.5960e+02	-16.0872	-39.376786	0.000184	1.840677	0.623638	0.000074
1606	1.5970e+02	-16.0407	-39.304686	0.000180	1.799999	0.609856	0.000072
1607	1.5980e+02	-16.0006	-39.217515	0.000218	2.176271	0.737340	0.000088
1608	1.5990e+02	-15.9589	-39.139713	0.000194	1.942372	0.658094	0.000078
1609	1.6000e+02	-15.9332	-39.070057	0.000174	1.738983	0.589183	0.000070
1610	1.6010e+02	-15.8963	-38.989403	0.000201	2.013559	0.682212	0.000081
1611	1.6019e+02	-15.8530	-38.911601	0.000194	1.942372	0.658094	0.000078
1612	1.6029e+02	-15.7857	-38.835021	0.000191	1.911864	0.647757	0.000077
1613	1.6039e+02	-15.7552	-38.762514	0.000181	1.810169	0.613302	0.000073
1614	1.6049e+02	-15.7471	-38.685933	0.000191	1.911864	0.647757	0.000077
1615	1.6059e+02	-15.6718	-38.605687	0.000200	2.003389	0.678767	0.000081
1616	1.6069e+02	-15.6429	-38.527477	0.000195	1.952542	0.661539	0.000079
1617	1.6079e+02	-15.5867	-38.452526	0.000187	1.871186	0.633975	0.000075
1618	1.6089e+02	-15.5643	-38.378390	0.000185	1.850847	0.627084	0.000075
1619	1.6099e+02	-15.5129	-38.304661	0.000184	1.840677	0.623638	0.000074
1620	1.6109e+02	-15.4841	-38.222785	0.000204	2.044067	0.692549	0.000082
1621	1.6119e+02	-15.4520	-38.139687	0.000207	2.074576	0.702885	0.000084
1622	1.6129e+02	-15.4087	-38.063106	0.000191	1.911864	0.647757	0.000077
1623	1.6139e+02	-15.3541	-37.984082	0.000197	1.972881	0.668430	0.000079
1624	1.6149e+02	-15.3188	-37.909946	0.000185	1.850847	0.627084	0.000075
1625	1.6159e+02	-15.2851	-37.828884	0.000202	2.023728	0.685658	0.000081
1626	1.6169e+02	-15.2514	-37.746601	0.000205	2.054237	0.695994	0.000083
1627	1.6179e+02	-15.1921	-37.670428	0.000190	1.901694	0.644311	0.000077
1628	1.6189e+02	-15.1712	-37.599958	0.000176	1.759322	0.596074	0.000071
1629	1.6199e+02	-15.1375	-37.514823	0.000213	2.125423	0.720113	0.000086
1630	1.6209e+02	-15.1006	-37.433355	0.000203	2.033898	0.689103	0.000082
1631	1.6219e+02	-15.0461	-37.357182	0.000190	1.901694	0.644311	0.000077
1632	1.6228e+02	-15.0092	-37.278972	0.000195	1.952542	0.661539	0.000079
1633	1.6238e+02	-14.9258	-37.198725	0.000200	2.003389	0.678767	0.000081
1634	1.6248e+02	-14.9354	-37.120516	-0.000195	-1.952542	-0.661539	0.000079
1635	1.6258e+02	-14.8809	-37.038640	0.000204	2.044067	0.692549	0.000082
1636	1.6268e+02	-14.8440	-36.967762	0.000177	1.769491	0.599520	0.000071
1637	1.6278e+02	-14.7974	-36.879369	0.000221	2.206779	0.747677	0.000089
1638	1.6288e+02	-14.7654	-36.803603	0.000189	1.891525	0.640866	0.000076
1639	1.6298e+02	-14.7285	-36.727023	0.000191	1.911864	0.647757	0.000077
1640	1.6308e+02	-14.6707	-36.654923	0.000180	1.799999	0.609856	0.000072
1641	1.6318e+02	-14.6402	-36.573047	0.000204	2.044067	0.692549	0.000082
1642	1.6328e+02	-14.6017	-36.492801	0.000200	2.003389	0.678767	0.000081
1643	1.6338e+02	-14.5809	-36.420294	0.000181	1.810169	0.613302	0.000073
1644	1.6348e+02	-14.5183	-36.340862	0.000198	1.983050	0.671876	0.000080
1645	1.6358e+02	-14.5183	-36.264689	-0.000190	-1.901694	-0.644311	0.000077
1646	1.6368e+02	-14.4413	-36.184443	0.000200	2.003389	0.678767	0.000081
1647	1.6378e+02	-14.4076	-36.110714	0.000184	1.840677	0.623638	0.000074
1648	1.6388e+02	-14.3803	-36.036577	0.000185	1.850847	0.627084	0.000075
1649	1.6398e+02	-14.3114	-35.961219	0.000188	1.881355	0.637420	0.000076
1650	1.6408e+02	-14.3065	-35.880972	0.000200	2.003389	0.678767	0.000081
1651	1.6418e+02	-14.2456	-35.803577	0.000193	1.932203	0.654648	0.000078
1652	1.6427e+02	-14.2135	-35.720887	0.000206	2.064406	0.699440	0.000083
1653	1.6437e+02	-14.1782	-35.649194	0.000179	1.789830	0.606411	0.000072
1654	1.6447e+02	-14.1156	-35.569355	0.000199	1.993220	0.675321	0.000080
1655	1.6457e+02	-14.0771	-35.488701	0.000201	2.013559	0.682212	0.000081
1656	1.6467e+02	-14.0306	-35.412936	0.000189	1.891525	0.640866	0.000076
1657	1.6477e+02	-14.0146	-35.339207	0.000184	1.840677	0.623638	0.000074
1658	1.6487e+02	-13.9809	-35.261812	0.000193	1.932203	0.654648	0.000078
1659	1.6497e+02	-13.9215	-35.184417	0.000193	1.932203	0.654648	0.000078
1660	1.6507e+02	-13.8798	-35.105392	0.000197	1.972881	0.668430	0.000079
1661	1.6517e+02	-13.8509	-35.027182	0.000195	1.952542	0.661539	0.000079
1662	1.6527e+02	-13.8108	-34.948973	0.000195	1.952542	0.661539	0.000079
1663	1.6537e+02	-13.7804	-34.874429	0.000186	1.861016	0.630529	0.000075
1664	1.6547e+02	-13.7114	-34.792960	0.000203	2.033898	0.689103	0.000082
1665	1.6557e+02	-13.7130	-34.712714	-0.000200	-2.003389	-0.678767	0.000081
1666	1.6567e+02	-13.6424	-34.635726	0.000192	1.922033	0.651203	0.000077
1667	1.6577e+02	-13.6103	-34.561590	0.000185	1.850847	0.627084	0.000075
1668	1.6587e+02	-13.5686	-34.479714	0.000204	2.044067	0.692549	0.000082
1669	1.6597e+02	-13.5317	-34.401912	0.000194	1.942372	0.658094	0.000078
1670	1.6607e+02	-13.4852	-34.321665	0.000200	2.003389	0.678767	0.000081
1671	1.6616e+02	-13.4515	-34.252009	0.000174	1.738983	0.589183	0.000070
1672	1.6626e+02	-13.4146	-34.168504	0.000208	2.084745	0.706331	0.000084
1673	1.6636e+02	-13.3617	-34.092331	0.000190	1.901694	0.644311	0.000077
1674	1.6646e+02	-13.3215	-34.016158	0.000190	1.901694	0.644311	0.000077
1675	1.6656e+02	-13.2782	-33.946095	0.000175	1.749152	0.592629	0.000070
1676	1.6666e+02	-13.2670	-33.865849	0.000200	2.003389	0.678767	0.000081
1677	1.6676e+02	-13.2157	-33.787639	0.000195	1.952542	0.661539	0.000079
1678	1.6686e+02	-13.1740	-33.708614	0.000197	1.972881	0.668430	0.000079
1679	1.6696e+02	-13.1226	-33.637737	0.000177	1.769491	0.599520	0.000071
1680	1.6706e+02	-13.0921	-33.557898	0.000199	1.993220	0.675321	0.000080
1681	1.6716e+02	-13.0360	-33.476837	0.000202	2.023728	0.685658	0.000081
1682	1.6726e+02	-13.0183	-33.400664	0.000190	1.901694	0.644311	0.000077
1683	1.6736e+02	-12.9670	-33.324083	0.000191	1.911864	0.647757	0.000077
1684	1.6746e+02	-12.9285	-33.250761	0.000183	1.830508	0.620193	0.000074
1685	1.6756e+02	-12.9061	-33.168478	0.000205	2.054237	0.695994	0.000083
1686	1.6766e+02	-12.8643	-33.097193	0.000178	1.779661	0.602965	0.000072
1687	1.6776e+02	-12.8018	-33.016539	0.000201	2.013559	0.682212	0.000081
1688	1.6786e+02	-12.7777	-32.942810	0.000184	1.840677	0.623638	0.000074
1689	1.6796e+02	-12.7392	-32.868267	0.000186	1.861016	0.630529	0.000075
1690	1.6806e+02	-12.7039	-32.787613	0.000201	2.013559	0.682212	0.000081
1691	1.6816e+02	-12.6574	-32.706552	0.000202	2.023728	0.685658	0.000081
1692	1.6825e+02	-12.6317	-32.631193	0.000188	1.881355	0.637420	0.000076
1693	1.6835e+02	-12.5595	-32.554613	0.000191	1.911864	0.647757	0.000077
1694	1.6845e+02	-12.5275	-32.475996	0.000196	1.962711	0.664985	0.000079
1695	1.6855e+02	-12.5002	-32.392898	0.000207	2.074576	0.702885	0.000084
1696	1.6865e+02	-12.4697	-32.315503	0.000193	1.932203	0.654648	0.000078
1697	1.6875e+02	-12.4280	-32.237701	0.000194	1.942372	0.658094	0.000078
1698	1.6885e+02	-12.3847	-32.157047	0.000201	2.013559	0.682212	0.000081
1699	1.6895e+02	-12.3317	-32.071097	0.000215	2.145762	0.727004	0.000086
1700	1.6905e+02	-12.2820	-31.992073	0.000197	1.972881	0.668430	0.000079
1701	1.6915e+02	-12.2355	-31.911012	0.000202	2.023728	0.685658	0.000081
1702	1.6925e+02	-12.2194	-31.844208	0.000167	1.667796	0.565065	0.000067
1703	1.6935e+02	-12.1986	-31.761517	0.000206	2.064406	0.699440	0.000083
1704	1.6945e+02	-12.1505	-31.678012	0.000208	2.084745	0.706331	0.000084
1705	1.6955e+02	-12.0863	-31.598987	0.000197	1.972881	0.668430	0.000079
1706	1.6965e+02	-12.0799	-31.522407	0.000191	1.911864	0.647757	0.000077
1707	1.6975e+02	-12.0205	-31.442568	0.000199	1.993220	0.675321	0.000080
1708	1.6985e+02	-11.9900	-31.360692	0.000204	2.044067	0.692549	0.000082
1709	1.6995e+02	-11.9547	-31.282482	0.000195	1.952542	0.661539	0.000079
1710	1.7005e+02	-11.9114	-31.204680	0.000194	1.942372	0.658094	0.000078
1711	1.7015e+02	-11.8681	-31.118731	0.000215	2.145762	0.727004	0.000086
1712	1.7024e+02	-11.8232	-31.040113	0.000196	1.962711	0.664985	0.000079
1713	1.7034e+02	-11.7815	-30.961904	0.000195	1.952542	0.661539	0.000079
1714	1.7044e+02	-11.7430	-30.879620	0.000205	2.054237	0.695994	0.000083
1715	1.7054e+02	-11.6884	-30.798152	0.000203	2.033898	0.689103	0.000082
1716	1.7064e+02	-11.6596	-30.717905	0.000200	2.003389	0.678767	0.000081
1717	1.7074e+02	-11.6227	-30.638474	0.000198	1.983050	0.671876	0.000080
1718	1.7084e+02	-11.5713	-30.556190	0.000205	2.054237	0.695994	0.000083
1719	1.7094e+02	-11.5425	-30.480017	0.000190	1.901694	0.644311	0.000077
1720	1.7104e+02	-11.5007	-30.395698	0.000211	2.105084	0.713222	0.000085
1721	1.7114e+02	-11.4494	-30.321154	0.000186	1.861016	0.630529	0.000075
1722	1.7124e+02	-11.4221	-30.232353	0.000222	2.216949	0.751122	0.000089
1723	1.7134e+02	-11.3917	-30.150477	0.000204	2.044067	0.692549	0.000082
1724	1.7144e+02	-11.3548	-30.068194	0.000205	2.054237	0.695994	0.000083
1725	1.7154e+02	-11.3018	-29.990392	0.000194	1.942372	0.658094	0.000078
1726	1.7164e+02	-11.2633	-29.900776	0.000224	2.237288	0.758014	0.000090
1727	1.7174e+02	-11.2040	-29.818086	0.000206	2.064406	0.699440	0.000083
1728	1.7184e+02	-11.1895	-29.733359	0.000212	2.115254	0.716667	0.000085
1729	1.7194e+02	-11.1286	-29.651890	0.000203	2.033898	0.689103	0.000082
1730	1.7204e+02	-11.1061	-29.569199	0.000206	2.064406	0.699440	0.000083
1731	1.7213e+02	-11.0644	-29.485694	0.000208	2.084745	0.706331	0.000084
1732	1.7223e+02	-11.0195	-29.401374	0.000211	2.105084	0.713222	0.000085
1733	1.7233e+02	-10.9874	-29.313796	0.000219	2.186440	0.740786	0.000088
1734	1.7243e+02	-10.9441	-29.234364	0.000198	1.983050	0.671876	0.000080
1735	1.7253e+02	-10.9104	-29.146378	0.000220	2.196610	0.744231	0.000088
1736	1.7263e+02	-10.8815	-29.063687	0.000206	2.064406	0.699440	0.000083
1737	1.7273e+02	-10.7965	-28.979367	0.000211	2.105084	0.713222	0.000085
1738	1.7283e+02	-10.7837	-28.897899	0.000203	2.033898	0.689103	0.000082
1739	1.7293e+02	-10.7307	-28.809098	0.000222	2.216949	0.751122	0.000089
1740	1.7303e+02	-10.7018	-28.728852	0.000200	2.003389	0.678767	0.000081
1741	1.7313e+02	-10.6537	-28.640458	0.000221	2.206779	0.747677	0.000089
1742	1.7323e+02	-10.6184	-28.558175	0.000205	2.054237	0.695994	0.000083
1743	1.7333e+02	-10.5703	-28.472226	0.000215	2.145762	0.727004	0.000086
1744	1.7343e+02	-10.5655	-28.384240	0.000220	2.196610	0.744231	0.000088
1745	1.7353e+02	-10.5077	-28.295847	0.000221	2.206779	0.747677	0.000089
1746	1.7363e+02	-10.4805	-28.214378	0.000203	2.033898	0.689103	0.000082
1747	1.7373e+02	-10.4243	-28.128022	0.000216	2.155932	0.730449	0.000087
1748	1.7383e+02	-10.3778	-28.044109	0.000209	2.094915	0.709776	0.000084
1749	1.7393e+02	-10.3409	-27.952864	0.000228	2.277965	0.771796	0.000092
1750	1.7403e+02	-10.3297	-27.874247	0.000196	1.962711	0.664985	0.000079
1751	1.7413e+02	-10.2607	-27.787076	0.000218	2.176271	0.737340	0.000088
1752	1.7422e+02	-10.2366	-27.704385	0.000206	2.064406	0.699440	0.000083
1753	1.7432e+02	-10.1837	-27.610289	0.000235	2.349152	0.795914	0.000095
1754	1.7442e+02	-10.1484	-27.530857	0.000198	1.983050	0.671876	0.000080
1755	1.7452e+02	-10.1291	-27.444093	0.000217	2.166101	0.733895	0.000087
1756	1.7462e+02	-10.0810	-27.358144	0.000215	2.145762	0.727004	0.000086
1757	1.7472e+02	-9.9976	-27.264048	0.000235	2.349152	0.795914	0.000095
1758	1.7482e+02	-9.9719	-27.174433	0.000224	2.237288	0.758014	0.000090
1759	1.7492e+02	-9.9446	-27.092964	0.000203	2.033898	0.689103	0.000082
1760	1.7502e+02	-9.9013	-27.001719	0.000228	2.277965	0.771796	0.000092
1761	1.7512e+02	-9.8708	-26.912919	0.000222	2.216949	0.751122	0.000089
1762	1.7522e+02	-9.8291	-26.822489	0.000226	2.257626	0.764905	0.000091
1763	1.7532e+02	-9.7762	-26.736539	0.000215	2.145762	0.727004	0.000086
1764	1.7542e+02	-9.7569	-26.648146	0.000221	2.206779	0.747677	0.000089
1765	1.7552e+02	-9.7152	-26.562604	0.000214	2.135593	0.723558	0.000086
1766	1.7562e+02	-9.6719	-26.470545	0.000230	2.298304	0.778687	0.000093
1767	1.7572e+02	-9.6318	-26.380522	0.000225	2.247457	0.761459	0.000090
1768	1.7582e+02	-9.5949	-26.293758	0.000217	2.166101	0.733895	0.000087
1769	1.7592e+02	-9.5692	-26.213104	0.000201	2.013559	0.682212	0.000081
1770	1.7602e+02	-9.5019	-26.117379	0.000239	2.389830	0.809696	0.000096
1771	1.7612e+02	-9.4537	-26.027356	0.000225	2.247457	0.761459	0.000090
1772	1.7621e+02	-9.4217	-25.938148	0.000223	2.227118	0.754568	0.000090
1773	1.7631e+02	-9.3976	-25.851791	0.000216	2.155932	0.730449	0.000087
1774	1.7641e+02	-9.3559	-25.756473	0.000238	2.379660	0.806251	0.000096
1775	1.7651e+02	-9.3078	-25.672153	0.000211	2.105084	0.713222	0.000085
1776	1.7661e+02	-9.2741	-25.588241	0.000209	2.094915	0.709776	0.000084
1777	1.7671e+02	-9.2099	-25.494145	0.000235	2.349152	0.795914	0.000095
1778	1.7681e+02	-9.1858	-25.405344	0.000222	2.216949	0.751122	0.000089
1779	1.7691e+02	-9.1201	-25.319802	0.000214	2.135593	0.723558	0.000086
1780	1.7701e+02	-9.1008	-25.228965	0.000227	2.267796	0.768350	0.000091
1781	1.7711e+02	-9.0687	-25.141793	0.000218	2.176271	0.737340	0.000088
1782	1.7721e+02	-9.0174	-25.055844	0.000215	2.145762	0.727004	0.000086
1783	1.7731e+02	-8.9677	-24.965414	0.000226	2.257626	0.764905	0.000091
1784	1.7741e+02	-8.9516	-24.883945	0.000203	2.033898	0.689103	0.000082
1785	1.7751e+02	-8.9163	-24.792701	0.000228	2.277965	0.771796	0.000092
1786	1.7761e+02	-8.8538	-24.702678	0.000225	2.247457	0.761459	0.000090
1787	1.7771e+02	-8.8345	-24.612248	0.000226	2.257626	0.764905	0.000091
1788	1.7781e+02	-8.7800	-24.526706	0.000214	2.135593	0.723558	0.000086
1789	1.7791e+02	-8.7607	-24.429351	0.000243	2.430508	0.823478	0.000098
1790	1.7801e+02	-8.7014	-24.345846	0.000208	2.084745	0.706331	0.000084
1791	1.7810e+02	-8.6645	-24.252157	0.000234	2.338982	0.792469	0.000094
1792	1.7820e+02	-8.6147	-24.167430	0.000212	2.115254	0.716667	0.000085
1793	1.7830e+02	-8.5618	-24.072519	0.000237	2.369491	0.802805	0.000095
1794	1.7840e+02	-8.5586	-23.985755	0.000217	2.166101	0.733895	0.000087
1795	1.7850e+02	-8.4752	-23.892881	0.000232	2.318643	0.785578	0.000093
1796	1.7860e+02	-8.4671	-23.806524	0.000216	2.155932	0.730449	0.000087
1797	1.7870e+02	-8.4270	-23.717316	0.000223	2.227118	0.754568	0.000090
1798	1.7880e+02	-8.3950	-23.627294	0.000225	2.247457	0.761459	0.000090
1799	1.7890e+02	-8.3244	-23.534827	0.000231	2.308474	0.782132	0.000093
1800	1.7900e+02	-8.3196	-23.448470	0.000216	2.155932	0.730449	0.000087
1801	1.7910e+02	-8.3019	-23.355189	0.000233	2.328813	0.789023	0.000094
1802	1.7920e+02	-8.2201	-23.265166	0.000225	2.247457	0.761459	0.000090
1803	1.7930e+02	-8.1928	-23.172699	0.000231	2.308474	0.782132	0.000093
1804	1.7940e+02	-8.1591	-23.088787	0.000209	2.094915	0.709776	0.000084
1805	1.7950e+02	-8.1062	-22.999171	0.000224	2.237288	0.758014	0.000090
1806	1.7960e+02	-8.0789	-22.911593	0.000219	2.186440	0.740786	0.000088
1807	1.7970e+02	-8.0452	-22.822792	0.000222	2.216949	0.751122	0.000089
1808	1.7980e+02	-8.0051	-22.732769	0.000225	2.247457	0.761459	0.000090
1809	1.7990e+02	-7.9586	-22.647635	0.000213	2.125423	0.720113	0.000086
1810	1.8000e+02	-7.9249	-22.551095	0.000241	2.410169	0.816587	0.000097
1811	1.8009e+02	-7.8816	-22.461887	0.000223	2.227118	0.754568	0.000090
1812	1.8019e+02	-7.8238	-22.379603	0.000205	2.054237	0.695994	0.000083
1813	1.8029e+02	-7.7966	-22.294469	0.000213	2.125423	0.720113	0.000086
1814	1.8039e+02	-7.7452	-22.205261	0.000223	2.227118	0.754568	0.000090
1815	1.8049e+02	-7.7132	-22.115645	0.000224	2.237288	0.758014	0.000090
1816	1.8059e+02	-7.6795	-22.026030	0.000224	2.237288	0.758014	0.000090
1817	1.8069e+02	-7.6201	-21.939266	0.000217	2.166101	0.733895	0.000087
1818	1.8079e+02	-7.5896	-21.850058	0.000223	2.227118	0.754568	0.000090
1819	1.8089e+02	-7.5383	-21.762479	0.000219	2.186440	0.740786	0.000088
1820	1.8099e+02	-7.5190	-21.678567	0.000209	2.094915	0.709776	0.000084
1821	1.8109e+02	-7.4918	-21.583249	0.000238	2.379660	0.806251	0.000096
1822	1.8119e+02	-7.4436	-21.497707	0.000214	2.135593	0.723558	0.000086
1823	1.8129e+02	-7.3731	-21.411758	0.000215	2.145762	0.727004	0.000086
1824	1.8139e+02	-7.3650	-21.320513	0.000228	2.277965	0.771796	0.000092
1825	1.8149e+02	-7.3137	-21.232934	0.000219	2.186440	0.740786	0.000088
1826	1.8159e+02	-7.2672	-21.143726	0.000223	2.227118	0.754568	0.000090
1827	1.8169e+02	-7.2319	-21.056148	0.000219	2.186440	0.740786	0.000088
1828	1.8179e+02	-7.2014	-20.967754	0.000221	2.206779	0.747677	0.000089
1829	1.8189e+02	-7.1565	-20.881805	0.000215	2.145762	0.727004	0.000086
1830	1.8199e+02	-7.1228	-20.792597	0.000223	2.227118	0.754568	0.000090
1831	1.8209e+02	-7.0971	-20.709092	0.000208	2.084745	0.706331	0.000084
1832	1.8218e+02	-7.0314	-20.611329	0.000244	2.440677	0.826924	0.000098
1833	1.8228e+02	-6.9961	-20.526602	0.000212	2.115254	0.716667	0.000085
1834	1.8238e+02	-6.9880	-20.442282	0.000211	2.105084	0.713222	0.000085
1835	1.8248e+02	-6.9447	-20.346149	0.000240	2.399999	0.813142	0.000097
1836	1.8258e+02	-6.8741	-20.260200	0.000215	2.145762	0.727004	0.000086
1837	1.8268e+02	-6.8276	-20.169770	0.000226	2.257626	0.764905	0.000091
1838	1.8278e+02	-6.7955	-20.084228	0.000214	2.135593	0.723558	0.000086
1839	1.8288e+02	-6.7795	-19.988095	0.000240	2.399999	0.813142	0.000097
1840	1.8298e+02	-6.7089	-19.905405	0.000206	2.064406	0.699440	0.000083
1841	1.8308e+02	-6.6736	-19.814160	0.000228	2.277965	0.771796	0.000092
1842	1.8318e+02	-6.6335	-19.730655	0.000208	2.084745	0.706331	0.000084
1843	1.8328e+02	-6.6255	-19.641447	0.000223	2.227118	0.754568	0.000090
1844	1.8338e+02	-6.5581	-19.558756	0.000206	2.064406	0.699440	0.000083
1845	1.8348e+02	-6.5116	-19.470363	0.000221	2.206779	0.747677	0.000089
1846	1.8358e+02	-6.4763	-19.381970	0.000221	2.206779	0.747677	0.000089
1847	1.8368e+02	-6.4217	-19.294391	0.000219	2.186440	0.740786	0.000088
1848	1.8378e+02	-6.3913	-19.214552	0.000199	1.993220	0.675321	0.000080
1849	1.8388e+02	-6.3463	-19.129825	0.000212	2.115254	0.716667	0.000085
1850	1.8398e+02	-6.3191	-19.037765	0.000230	2.298304	0.778687	0.000093
1851	1.8407e+02	-6.2854	-18.954667	0.000207	2.074576	0.702885	0.000084
1852	1.8417e+02	-6.2709	-18.864237	0.000226	2.257626	0.764905	0.000091
1853	1.8427e+02	-6.2068	-18.773807	0.000226	2.257626	0.764905	0.000091
1854	1.8437e+02	-6.1651	-18.685821	0.000220	2.196610	0.744231	0.000088
1855	1.8447e+02	-6.1201	-18.596206	0.000224	2.237288	0.758014	0.000090
1856	1.8457e+02	-6.0672	-18.515959	0.000200	2.003389	0.678767	0.000081
1857	1.8467e+02	-6.0319	-18.425529	0.000226	2.257626	0.764905	0.000091
1858	1.8477e+02	-6.0159	-18.337543	0.000220	2.196610	0.744231	0.000088
1859	1.8487e+02	-5.9533	-18.248335	0.000223	2.227118	0.754568	0.000090
1860	1.8497e+02	-5.9196	-18.157905	0.000226	2.257626	0.764905	0.000091
1861	1.8507e+02	-5.8811	-18.073178	0.000212	2.115254	0.716667	0.000085
1862	1.8517e+02	-5.8603	-17.975416	0.000244	2.440677	0.826924	0.000098
1863	1.8527e+02	-5.8169	-17.888244	0.000218	2.176271	0.737340	0.000088
1864	1.8537e+02	-5.7544	-17.793741	0.000236	2.359321	0.799360	0.000095
1865	1.8547e+02	-5.7127	-17.712680	0.000202	2.023728	0.685658	0.000081
1866	1.8557e+02	-5.6886	-17.619806	0.000232	2.318643	0.785578	0.000093
1867	1.8567e+02	-5.6309	-17.529376	0.000226	2.257626	0.764905	0.000091
1868	1.8577e+02	-5.5988	-17.432021	0.000243	2.430508	0.823478	0.000098
1869	1.8587e+02	-5.5843	-17.344442	0.000219	2.186440	0.740786	0.000088
1870	1.8597e+02	-5.5137	-17.253197	0.000228	2.277965	0.771796	0.000092
1871	1.8606e+02	-5.4993	-17.171322	0.000204	2.044067	0.692549	0.000082
1872	1.8616e+02	-5.4496	-17.074781	0.000241	2.410169	0.816587	0.000097
1873	1.8626e+02	-5.4095	-16.992091	0.000206	2.064406	0.699440	0.000083
1874	1.8636e+02	-5.3485	-16.900439	0.000229	2.288135	0.775241	0.000092
1875	1.8646e+02	-5.3052	-16.811638	0.000222	2.216949	0.751122	0.000089
1876	1.8656e+02	-5.2924	-16.719579	0.000230	2.298304	0.778687	0.000093
1877	1.8666e+02	-5.2394	-16.629963	0.000224	2.237288	0.758014	0.000090
1878	1.8676e+02	-5.2041	-16.536682	0.000233	2.328813	0.789023	0.000094
1879	1.8686e+02	-5.1656	-16.447067	0.000224	2.237288	0.758014	0.000090
1880	1.8696e+02	-5.1335	-16.354192	0.000232	2.318643	0.785578	0.000093
1881	1.8706e+02	-5.0902	-16.268243	0.000215	2.145762	0.727004	0.000086
1882	1.8716e+02	-5.0565	-16.176184	0.000230	2.298304	0.778687	0.000093
1883	1.8726e+02	-5.0084	-16.087383	0.000222	2.216949	0.751122	0.000089
1884	1.8736e+02	-4.9491	-15.994916	0.000231	2.308474	0.782132	0.000093
1885	1.8746e+02	-4.9619	-15.900820	-0.000235	-2.349152	-0.795914	0.000095
1886	1.8756e+02	-4.8592	-15.818130	0.000206	2.064406	0.699440	0.000083
1887	1.8766e+02	-4.8656	-15.722404	-0.000239	-2.389830	-0.809696	0.000096
1888	1.8776e+02	-4.8143	-15.629530	0.000232	2.318643	0.785578	0.000093
1889	1.8786e+02	-4.7758	-15.533397	0.000240	2.399999	0.813142	0.000097
1890	1.8796e+02	-4.7116	-15.447855	0.000214	2.135593	0.723558	0.000086
1891	1.8806e+02	-4.6812	-15.352537	0.000238	2.379660	0.806251	0.000096
1892	1.8815e+02	-4.6779	-15.265366	0.000218	2.176271	0.737340	0.000088
1893	1.8825e+02	-4.6074	-15.168011	0.000243	2.430508	0.823478	0.000098
1894	1.8835e+02	-4.5689	-15.074322	0.000234	2.338982	0.792469	0.000094
1895	1.8845e+02	-4.5271	-14.978597	0.000239	2.389830	0.809696	0.000096
1896	1.8855e+02	-4.5063	-14.889389	0.000223	2.227118	0.754568	0.000090
1897	1.8865e+02	-4.4437	-14.789590	0.000249	2.491525	0.844151	0.000100
1898	1.8875e+02	-4.4229	-14.696308	0.000233	2.328813	0.789023	0.000094
1899	1.8885e+02	-4.3555	-14.601805	0.000236	2.359321	0.799360	0.000095
1900	1.8895e+02	-4.3330	-14.510560	0.000228	2.277965	0.771796	0.000092
1901	1.8905e+02	-4.2993	-14.418501	0.000230	2.298304	0.778687	0.000093
1902	1.8915e+02	-4.2239	-14.319516	0.000247	2.471186	0.837260	0.000099
1903	1.8925e+02	-4.2031	-14.225420	0.000235	2.349152	0.795914	0.000095
1904	1.8935e+02	-4.1678	-14.134990	0.000226	2.257626	0.764905	0.000091
1905	1.8945e+02	-4.1277	-14.040487	0.000236	2.359321	0.799360	0.000095
1906	1.8955e+02	-4.0796	-13.942317	0.000245	2.450847	0.830369	0.000099
1907	1.8965e+02	-4.0539	-13.848628	0.000234	2.338982	0.792469	0.000094
1908	1.8975e+02	-3.9881	-13.752903	0.000239	2.389830	0.809696	0.000096
1909	1.8985e+02	-3.9592	-13.655955	0.000242	2.420338	0.820033	0.000097
1910	1.8995e+02	-3.9368	-13.563489	0.000231	2.308474	0.782132	0.000093
1911	1.9004e+02	-3.8855	-13.466948	0.000241	2.410169	0.816587	0.000097
1912	1.9014e+02	-3.8582	-13.369186	0.000244	2.440677	0.826924	0.000098
1913	1.9024e+02	-3.8245	-13.275090	0.000235	2.349152	0.795914	0.000095
1914	1.9034e+02	-3.7507	-13.178957	0.000240	2.399999	0.813142	0.000097
1915	1.9044e+02	-3.7411	-13.083639	0.000238	2.379660	0.806251	0.000096
1916	1.9054e+02	-3.6769	-12.986284	0.000243	2.430508	0.823478	0.000098
1917	1.9064e+02	-3.6544	-12.898298	0.000220	2.196610	0.744231	0.000088
1918	1.9074e+02	-3.6143	-12.799721	0.000246	2.461016	0.833815	0.000099
1919	1.9084e+02	-3.5726	-12.706847	0.000232	2.318643	0.785578	0.000093
1920	1.9094e+02	-3.5438	-12.607863	0.000247	2.471186	0.837260	0.000099
1921	1.9104e+02	-3.4844	-12.512952	0.000237	2.369491	0.802805	0.000095
1922	1.9114e+02	-3.4331	-12.415190	0.000244	2.440677	0.826924	0.000098
1923	1.9124e+02	-3.4186	-12.319464	0.000239	2.389830	0.809696	0.000096
1924	1.9134e+02	-3.3769	-12.217221	0.000255	2.552542	0.864825	0.000103
1925	1.9144e+02	-3.3416	-12.122718	0.000236	2.359321	0.799360	0.000095
1926	1.9154e+02	-3.3176	-12.023326	0.000248	2.481355	0.840706	0.000100
1927	1.9164e+02	-3.2566	-11.927601	0.000239	2.389830	0.809696	0.000096
1928	1.9174e+02	-3.2149	-11.824136	0.000258	2.583050	0.875161	0.000104
1929	1.9184e+02	-3.1716	-11.729225	0.000237	2.369491	0.802805	0.000095
1930	1.9194e+02	-3.1331	-11.632278	0.000242	2.420338	0.820033	0.000097
1931	1.9203e+02	-3.0898	-11.537774	0.000236	2.359321	0.799360	0.000095
1932	1.9213e+02	-3.0464	-11.433494	0.000260	2.603389	0.882052	0.000105
1933	1.9223e+02	-3.0256	-11.339806	0.000234	2.338982	0.792469	0.000094
1934	1.9233e+02	-2.9823	-11.244487	0.000238	2.379660	0.806251	0.000096
1935	1.9243e+02	-2.9502	-11.147947	0.000241	2.410169	0.816587	0.000097
1936	1.9253e+02	-2.8860	-11.045704	0.000255	2.552542	0.864825	0.000103
1937	1.9263e+02	-2.8571	-10.941832	0.000259	2.593220	0.878607	0.000104
1938	1.9273e+02	-2.8090	-10.845292	0.000241	2.410169	0.816587	0.000097
1939	1.9283e+02	-2.7657	-10.747122	0.000245	2.450847	0.830369	0.000099
1940	1.9293e+02	-2.7384	-10.648953	0.000245	2.450847	0.830369	0.000099
1941	1.9303e+02	-2.6903	-10.545895	0.000257	2.572881	0.871716	0.000104
1942	1.9313e+02	-2.6566	-10.450984	0.000237	2.369491	0.802805	0.000095
1943	1.9323e+02	-2.6021	-10.349963	0.000252	2.522033	0.854488	0.000102
1944	1.9333e+02	-2.5908	-10.255052	0.000237	2.369491	0.802805	0.000095
1945	1.9343e+02	-2.5395	-10.158105	0.000242	2.420338	0.820033	0.000097
1946	1.9353e+02	-2.4994	-10.059121	0.000247	2.471186	0.837260	0.000099
1947	1.9363e+02	-2.4593	-9.958507	0.000251	2.511864	0.851042	0.000101
1948	1.9373e+02	-2.4080	-9.865226	0.000233	2.328813	0.789023	0.000094
1949	1.9383e+02	-2.3598	-9.771129	0.000235	2.349152	0.795914	0.000095
1950	1.9393e+02	-2.3390	-9.667664	0.000258	2.583050	0.875161	0.000104
1951	1.9403e+02	-2.2828	-9.573568	0.000235	2.349152	0.795914	0.000095
1952	1.9412e+02	-2.2892	-9.479472	-0.000235	-2.349152	-0.795914	0.000095
1953	1.9422e+02	-2.2411	-9.376822	0.000256	2.562711	0.868270	0.000103
1954	1.9432e+02	-2.1785	-9.282318	0.000236	2.359321	0.799360	0.000095
1955	1.9442e+02	-2.1529	-9.179261	0.000257	2.572881	0.871716	0.000104
1956	1.9452e+02	-2.0903	-9.081906	0.000243	2.430508	0.823478	0.000098
1957	1.9462e+02	-2.0582	-8.978848	0.000257	2.572881	0.871716	0.000104
1958	1.9472e+02	-2.0133	-8.882715	0.000240	2.399999	0.813142	0.000097
1959	1.9482e+02	-1.9780	-8.784546	0.000245	2.450847	0.830369	0.000099
1960	1.9492e+02	-1.9219	-8.682710	0.000254	2.542372	0.861379	0.000102
1961	1.9502e+02	-1.8834	-8.587799	0.000237	2.369491	0.802805	0.000095
1962	1.9512e+02	-1.8513	-8.486371	0.000253	2.532203	0.857933	0.000102
1963	1.9522e+02	-1.8192	-8.388609	0.000244	2.440677	0.826924	0.000098
1964	1.9532e+02	-1.8032	-8.286773	0.000254	2.542372	0.861379	0.000102
1965	1.9542e+02	-1.7342	-8.191862	0.000237	2.369491	0.802805	0.000095
1966	1.9552e+02	-1.6973	-8.093285	0.000246	2.461016	0.833815	0.000099
1967	1.9562e+02	-1.6588	-7.991043	0.000255	2.552542	0.864825	0.000103
1968	1.9572e+02	-1.6123	-7.894095	0.000242	2.420338	0.820033	0.000097
1969	1.9582e+02	-1.5866	-7.795111	0.000247	2.471186	0.837260	0.000099
1970	1.9592e+02	-1.5385	-7.695312	0.000249	2.491525	0.844151	0.000100
1971	1.9601e+02	-1.4887	-7.601623	0.000234	2.338982	0.792469	0.000094
1972	1.9611e+02	-1.4599	-7.499380	0.000255	2.552542	0.864825	0.000103
1973	1.9621e+02	-1.4262	-7.403247	0.000240	2.399999	0.813142	0.000097
1974	1.9631e+02	-1.3941	-7.306707	0.000241	2.410169	0.816587	0.000097
1975	1.9641e+02	-1.3427	-7.211389	0.000238	2.379660	0.806251	0.000096
1976	1.9651e+02	-1.3042	-7.107924	0.000258	2.583050	0.875161	0.000104
1977	1.9661e+02	-1.2465	-7.013013	0.000237	2.369491	0.802805	0.000095
1978	1.9671e+02	-1.2192	-6.912807	0.000250	2.501694	0.847597	0.000101
1979	1.9681e+02	-1.2048	-6.817489	0.000238	2.379660	0.806251	0.000096
1980	1.9691e+02	-1.1454	-6.722578	0.000237	2.369491	0.802805	0.000095
1981	1.9701e+02	-1.0813	-6.623594	0.000247	2.471186	0.837260	0.000099
1982	1.9711e+02	-1.0748	-6.525017	0.000246	2.461016	0.833815	0.000099
1983	1.9721e+02	-1.0235	-6.430513	0.000236	2.359321	0.799360	0.000095
1984	1.9731e+02	-0.9850	-6.337232	0.000233	2.328813	0.789023	0.000094
1985	1.9741e+02	-0.9545	-6.237840	0.000248	2.481355	0.840706	0.000100
1986	1.9751e+02	-0.9128	-6.138449	0.000248	2.481355	0.840706	0.000100
1987	1.9761e+02	-0.8663	-6.041908	0.000241	2.410169	0.816587	0.000097
1988	1.9771e+02	-0.8053	-5.947405	0.000236	2.359321	0.799360	0.000095
1989	1.9781e+02	-0.7732	-5.846384	0.000252	2.522033	0.854488	0.000102
1990	1.9791e+02	-0.7492	-5.750658	0.000239	2.389830	0.809696	0.000096
1991	1.9800e+02	-0.6866	-5.654933	0.000239	2.389830	0.809696	0.000096
1992	1.9810e+02	-0.6513	-5.557985	0.000242	2.420338	0.820033	0.000097
1993	1.9820e+02	-0.6176	-5.462260	0.000239	2.389830	0.809696	0.000096
1994	1.9830e+02	-0.5823	-5.364090	0.000245	2.450847	0.830369	0.000099
1995	1.9840e+02	-0.5390	-5.263069	0.000252	2.522033	0.854488	0.000102
1996	1.9850e+02	-0.5310	-5.175898	0.000218	2.176271	0.737340	0.000088
1997	1.9860e+02	-0.4620	-5.075285	0.000251	2.511864	0.851042	0.000101
1998	1.9870e+02	-0.4203	-4.978337	0.000242	2.420338	0.820033	0.000097
1999	1.9880e+02	-0.3802	-4.882611	0.000239	2.389830	0.809696	0.000096
2000	1.9890e+02	-0.3433	-4.782813	0.000249	2.491525	0.844151	0.000100
2001	1.9900e+02	-0.3144	-4.690346	0.000231	2.308474	0.782132	0.000093
2002	1.9910e+02	-0.2583	-4.590954	0.000248	2.481355	0.840706	0.000100
2003	1.9920e+02	-0.2182	-4.492785	0.000245	2.450847	0.830369	0.000099
2004	1.9930e+02	-0.1813	-4.394208	0.000246	2.461016	0.833815	0.000099
2005	1.9940e+02	-0.1588	-4.296038	0.000245	2.450847	0.830369	0.000099
2006	1.9950e+02	-0.1123	-4.200720	0.000238	2.379660	0.806251	0.000096
2007	1.9960e+02	-0.0770	-4.106624	0.000235	2.349152	0.795914	0.000095
2008	1.9970e+02	-0.0032	-4.009676	0.000242	2.420338	0.820033	0.000097
2009	1.9980e+02	0.0160	-3.912322	0.000242	2.420338	0.820033	0.000098

PMax (uC/cm2):	4.81e+01
Pr (uC/cm2):	1.13e+00
-Pr (uC/cm2):	-1.72e+00
PLoss (uC/cm2):	-1.70e+00
-Vc:	-4.38e-01
C (Max-Eff) (nF):	2.41e-01
K (Eff):	8.15e+02
Vert. (+/-Pr) Shift (uC/cm2):	-2.92e-01
Offset (uC/cm2):	2.20e+00

A (Loop Area - uC/cm2·Volts):	-3.28e-02



Hysteresis Version: 5.48.1 - Radiant Technologies, Inc., 1999 - 9/12/24

