»»»»»»»»»»»»»»»»»»»»»»»»»»»»»»»»»»»» Hysteresis ««««««««««««««««««««««««««««««««««««
»»»  Executed Version:	5.48.1
»»»  Vision Version:	5.48.4 (R)
»»»  Vision Compiled:	9/18/24
»»»  Driver Version:	5.47.0
»»»  Windows Version:	Windows 8 or 8.1
»»»  Processor Information:	x86 (AMD or Intel) - 32 Processors
»»»  Tester Name:	PMF21124-494 (100V)
»»»  Tester S/N:	PMF21124-494
»»»  Internal Amp Type:	100V RevK 270k
»»»  Internal Amp S/N:	iAB2-596/K     
»»»  Execution Count:	1
»»»»»»»»»»»»»»»»»»»»»»»»»»»»»»»»»»»»»»»»»»««««««««««««««««««««««««««««««««««««««««««

Stored:	6/30/2025 - 10:26:47
Configured:	06/30/25 10:19:58 AM
Executed:	06/30/25 10:26:16 AM

»»»»»»»»»»»»»»»»»»»»»»»»»»»»»»»»»»» Sample Info ««««««««««««««««««««««««««««««««««««
Sample Name:	
Lot Name:	
Wafer Name:	
Die Row/Column:	0/0
Capacitor Number:	0
Sample Area (cm2):	1.00e-04
Sample Thickness (microns):	1.50e-01

Amplifier:	Internal

»»»»»»»»»»»»»»»»»»»»»»»»»»»»»»»»»»» Tester Info «««««««««««««««««««««««««««««««««««
Tester Name:	PMF21124-494 (100V)
Tester Serial Number:	PMF21124-494
Return Signal Amp. Level:	1.9 [Index: 2]

»»»»»»»»»»»»»»»»»»»»»»»»»»»»»»»» Hysteresis Info ««««««««««««««««««««««««««««««««««
Task Name:	Hyst-1804
Volts:	10.00
Field:	666.67 (kV/cm)
DCBias:	0.00
DCField:	0.00 (kV/cm)
Hysteresis Period (ms):	2.00e+02
Preset:	Enabled
Preset Delay (ms):	1.00e+03
Profile:	Standard Monopolar

»»»»»»»»»»»»»»»»»»»»»»»»»»»»»»»»»»»»»» Data «««««««««««««««««««««««««««««««««««««««
Points:	2011

Valid Data

Point	Time (ms)	Drive Voltage	Measured Polarization (uC/cm2)	Capacitance (uF)	Normalized Capacitance (uF/cm2)	Dielectric Constant	Instantaneous Current (mA)
   1	0.0000e+00	-0.0037	-21.705044	0.000331	3.314922	0.561563	0.000033
   2	9.9500e-02	0.0069	-21.672049	0.000331	3.314922	0.561563	0.000033
   3	1.9900e-01	0.0146	-21.636611	0.000356	3.560472	0.603160	0.000036
   4	2.9850e-01	0.0259	-21.596284	0.000405	4.051572	0.686355	0.000041
   5	3.9800e-01	0.0390	-21.563696	0.000327	3.273998	0.554630	0.000033
   6	4.9750e-01	0.0488	-21.520111	0.000438	4.378972	0.741818	0.000044
   7	5.9700e-01	0.0542	-21.482635	0.000377	3.765097	0.637825	0.000038
   8	6.9650e-01	0.0660	-21.442308	0.000405	4.051572	0.686355	0.000041
   9	7.9600e-01	0.0774	-21.408499	0.000340	3.396772	0.575429	0.000034
  10	8.9550e-01	0.0880	-21.370209	0.000385	3.846947	0.651690	0.000038
  11	9.9500e-01	0.0962	-21.334362	0.000360	3.601397	0.610093	0.000036
  12	1.0945e+00	0.1083	-21.298109	0.000364	3.642322	0.617026	0.000036
  13	1.1940e+00	0.1154	-21.257375	0.000409	4.092497	0.693288	0.000041
  14	1.2935e+00	0.1276	-21.222751	0.000348	3.478622	0.589295	0.000035
  15	1.3930e+00	0.1353	-21.185275	0.000377	3.765097	0.637825	0.000038
  16	1.4925e+00	0.1442	-21.147800	0.000377	3.765097	0.637825	0.000038
  17	1.5920e+00	0.1564	-21.108695	0.000393	3.928797	0.665556	0.000039
  18	1.6915e+00	0.1642	-21.063480	0.000454	4.542672	0.769549	0.000045
  19	1.7910e+00	0.1762	-21.028448	0.000352	3.519547	0.596227	0.000035
  20	1.8905e+00	0.1855	-20.990158	0.000385	3.846947	0.651690	0.000038
  21	1.9900e+00	0.1962	-20.949831	0.000405	4.051572	0.686355	0.000041
  22	2.0895e+00	0.2039	-20.908689	0.000413	4.133422	0.700221	0.000041
  23	2.1890e+00	0.2147	-20.869585	0.000393	3.928797	0.665556	0.000039
  24	2.2885e+00	0.2264	-20.824777	0.000450	4.501747	0.762617	0.000045
  25	2.3880e+00	0.2374	-20.787709	0.000372	3.724172	0.630892	0.000037
  26	2.4875e+00	0.2454	-20.746975	0.000409	4.092497	0.693288	0.000041
  27	2.5870e+00	0.2533	-20.704204	0.000430	4.297122	0.727952	0.000043
  28	2.6865e+00	0.2667	-20.663877	0.000405	4.051572	0.686355	0.000041
  29	2.7860e+00	0.2752	-20.625179	0.000389	3.887872	0.658623	0.000039
  30	2.8855e+00	0.2843	-20.582408	0.000430	4.297122	0.727952	0.000043
  31	2.9850e+00	0.2940	-20.541674	0.000409	4.092497	0.693288	0.000041
  32	3.0845e+00	0.3071	-20.504606	0.000372	3.724172	0.630892	0.000037
  33	3.1840e+00	0.3125	-20.461835	0.000430	4.297122	0.727952	0.000043
  34	3.2835e+00	0.3258	-20.422730	0.000393	3.928797	0.665556	0.000039
  35	3.3830e+00	0.3351	-20.381996	0.000409	4.092497	0.693288	0.000041
  36	3.4825e+00	0.3446	-20.341261	0.000409	4.092497	0.693288	0.000041
  37	3.5820e+00	0.3561	-20.305008	0.000364	3.642322	0.617026	0.000036
  38	3.6815e+00	0.3651	-20.267532	0.000377	3.765097	0.637825	0.000038
  39	3.7810e+00	0.3775	-20.232501	0.000352	3.519547	0.596227	0.000035
  40	3.8805e+00	0.3858	-20.186064	0.000467	4.665446	0.790348	0.000047
  41	3.9800e+00	0.3955	-20.146144	0.000401	4.010647	0.679422	0.000040
  42	4.0795e+00	0.4034	-20.106225	0.000401	4.010647	0.679422	0.000040
  43	4.1790e+00	0.4175	-20.068749	0.000377	3.765097	0.637825	0.000038
  44	4.2785e+00	0.4259	-20.033718	0.000352	3.519547	0.596227	0.000035
  45	4.3780e+00	0.4344	-19.989317	0.000446	4.460822	0.755684	0.000045
  46	4.4775e+00	0.4459	-19.952657	0.000368	3.683247	0.623959	0.000037
  47	4.5770e+00	0.4522	-19.913144	0.000397	3.969722	0.672489	0.000040
  48	4.6765e+00	0.4609	-19.874447	0.000389	3.887872	0.658623	0.000039
  49	4.7760e+00	0.4774	-19.836564	0.000381	3.806022	0.644758	0.000038
  50	4.8755e+00	0.4842	-19.795830	0.000409	4.092497	0.693288	0.000041
  51	4.9750e+00	0.4982	-19.754281	0.000417	4.174347	0.707153	0.000042
  52	5.0745e+00	0.5053	-19.714768	0.000397	3.969722	0.672489	0.000040
  53	5.1740e+00	0.5163	-19.673627	0.000413	4.133422	0.700221	0.000041
  54	5.2735e+00	0.5250	-19.630041	0.000438	4.378972	0.741818	0.000044
  55	5.3730e+00	0.5335	-19.586048	0.000442	4.419897	0.748751	0.000044
  56	5.4725e+00	0.5442	-19.547758	0.000385	3.846947	0.651690	0.000038
  57	5.5720e+00	0.5531	-19.508246	0.000397	3.969722	0.672489	0.000040
  58	5.6715e+00	0.5663	-19.465067	0.000434	4.338047	0.734885	0.000043
  59	5.7710e+00	0.5752	-19.421482	0.000438	4.378972	0.741818	0.000044
  60	5.8705e+00	0.5866	-19.382784	0.000389	3.887872	0.658623	0.000039
  61	5.9700e+00	0.5961	-19.339199	0.000438	4.378972	0.741818	0.000044
  62	6.0695e+00	0.6042	-19.296428	0.000430	4.297122	0.727952	0.000043
  63	6.1690e+00	0.6145	-19.255286	0.000413	4.133422	0.700221	0.000041
  64	6.2685e+00	0.6244	-19.214552	0.000409	4.092497	0.693288	0.000041
  65	6.3680e+00	0.6342	-19.174225	0.000405	4.051572	0.686355	0.000041
  66	6.4675e+00	0.6442	-19.125751	0.000487	4.870071	0.825012	0.000049
  67	6.5670e+00	0.6526	-19.087868	0.000381	3.806022	0.644758	0.000038
  68	6.6665e+00	0.6647	-19.045097	0.000430	4.297122	0.727952	0.000043
  69	6.7660e+00	0.6758	-19.004770	0.000405	4.051572	0.686355	0.000041
  70	6.8655e+00	0.6858	-18.961592	0.000434	4.338047	0.734885	0.000043
  71	6.9650e+00	0.6942	-18.916784	0.000450	4.501747	0.762617	0.000045
  72	7.0645e+00	0.7040	-18.873199	0.000438	4.378972	0.741818	0.000044
  73	7.1640e+00	0.7149	-18.834909	0.000385	3.846947	0.651690	0.000038
  74	7.2635e+00	0.7260	-18.792138	0.000430	4.297122	0.727952	0.000043
  75	7.3630e+00	0.7316	-18.752625	0.000397	3.969722	0.672489	0.000040
  76	7.4625e+00	0.7443	-18.704152	0.000487	4.870071	0.825012	0.000049
  77	7.5620e+00	0.7533	-18.665047	0.000393	3.928797	0.665556	0.000039
  78	7.6615e+00	0.7626	-18.623905	0.000413	4.133422	0.700221	0.000041
  79	7.7610e+00	0.7710	-18.580319	0.000438	4.378972	0.741818	0.000044
  80	7.8605e+00	0.7840	-18.537141	0.000434	4.338047	0.734885	0.000043
  81	7.9600e+00	0.7929	-18.492741	0.000446	4.460822	0.755684	0.000045
  82	8.0595e+00	0.8045	-18.451192	0.000417	4.174347	0.707153	0.000042
  83	8.1590e+00	0.8141	-18.406384	0.000450	4.501747	0.762617	0.000045
  84	8.2585e+00	0.8244	-18.366057	0.000405	4.051572	0.686355	0.000041
  85	8.3580e+00	0.8321	-18.320842	0.000454	4.542672	0.769549	0.000045
  86	8.4575e+00	0.8421	-18.273183	0.000479	4.788221	0.811147	0.000048
  87	8.5570e+00	0.8538	-18.230412	0.000430	4.297122	0.727952	0.000043
  88	8.6565e+00	0.8617	-18.186012	0.000446	4.460822	0.755684	0.000045
  89	8.7560e+00	0.8740	-18.140390	0.000458	4.583597	0.776482	0.000046
  90	8.8555e+00	0.8831	-18.091916	0.000487	4.870071	0.825012	0.000049
  91	8.9550e+00	0.8935	-18.049959	0.000422	4.215272	0.714086	0.000042
  92	9.0545e+00	0.9040	-18.009225	0.000409	4.092497	0.693288	0.000041
  93	9.1540e+00	0.9100	-17.964418	0.000450	4.501747	0.762617	0.000045
  94	9.2535e+00	0.9222	-17.914722	0.000499	4.992846	0.845811	0.000050
  95	9.3530e+00	0.9325	-17.872765	0.000422	4.215272	0.714086	0.000042
  96	9.4525e+00	0.9422	-17.827958	0.000450	4.501747	0.762617	0.000045
  97	9.5520e+00	0.9517	-17.786001	0.000422	4.215272	0.714086	0.000042
  98	9.6515e+00	0.9626	-17.742009	0.000442	4.419897	0.748751	0.000044
  99	9.7510e+00	0.9699	-17.698423	0.000438	4.378972	0.741818	0.000044
 100	9.8505e+00	0.9846	-17.651578	0.000471	4.706371	0.797281	0.000047
 101	9.9500e+00	0.9917	-17.607178	0.000446	4.460822	0.755684	0.000045
 102	1.0050e+01	1.0037	-17.566851	0.000405	4.051572	0.686355	0.000041
 103	1.0149e+01	1.0127	-17.521229	0.000458	4.583597	0.776482	0.000046
 104	1.0248e+01	1.0232	-17.480087	0.000413	4.133422	0.700221	0.000041
 105	1.0348e+01	1.0335	-17.438131	0.000422	4.215272	0.714086	0.000042
 106	1.0447e+01	1.0426	-17.390472	0.000479	4.788221	0.811147	0.000048
 107	1.0547e+01	1.0526	-17.354626	0.000360	3.601397	0.610093	0.000036
 108	1.0646e+01	1.0606	-17.311040	0.000438	4.378972	0.741818	0.000044
 109	1.0746e+01	1.0744	-17.266640	0.000446	4.460822	0.755684	0.000045
 110	1.0845e+01	1.0815	-17.225905	0.000409	4.092497	0.693288	0.000041
 111	1.0945e+01	1.0948	-17.182727	0.000434	4.338047	0.734885	0.000043
 112	1.1044e+01	1.1022	-17.142808	0.000401	4.010647	0.679422	0.000040
 113	1.1144e+01	1.1104	-17.101666	0.000413	4.133422	0.700221	0.000041
 114	1.1243e+01	1.1219	-17.057266	0.000446	4.460822	0.755684	0.000045
 115	1.1343e+01	1.1347	-17.018975	0.000385	3.846947	0.651690	0.000038
 116	1.1443e+01	1.1404	-16.977834	0.000413	4.133422	0.700221	0.000041
 117	1.1542e+01	1.1513	-16.933841	0.000442	4.419897	0.748751	0.000044
 118	1.1642e+01	1.1597	-16.891477	0.000426	4.256197	0.721019	0.000043
 119	1.1741e+01	1.1732	-16.850743	0.000409	4.092497	0.693288	0.000041
 120	1.1841e+01	1.1800	-16.806343	0.000446	4.460822	0.755684	0.000045
 121	1.1940e+01	1.1944	-16.759906	0.000467	4.665446	0.790348	0.000047
 122	1.2040e+01	1.2032	-16.719171	0.000409	4.092497	0.693288	0.000041
 123	1.2139e+01	1.2142	-16.673549	0.000458	4.583597	0.776482	0.000046
 124	1.2239e+01	1.2202	-16.632407	0.000413	4.133422	0.700221	0.000041
 125	1.2338e+01	1.2306	-16.590044	0.000426	4.256197	0.721019	0.000043
 126	1.2438e+01	1.2423	-16.546458	0.000438	4.378972	0.741818	0.000044
 127	1.2537e+01	1.2505	-16.503687	0.000430	4.297122	0.727952	0.000043
 128	1.2636e+01	1.2626	-16.465804	0.000381	3.806022	0.644758	0.000038
 129	1.2736e+01	1.2728	-16.423441	0.000426	4.256197	0.721019	0.000043
 130	1.2835e+01	1.2823	-16.382299	0.000413	4.133422	0.700221	0.000041
 131	1.2935e+01	1.2910	-16.337084	0.000454	4.542672	0.769549	0.000045
 132	1.3034e+01	1.3020	-16.292276	0.000450	4.501747	0.762617	0.000045
 133	1.3134e+01	1.3097	-16.252357	0.000401	4.010647	0.679422	0.000040
 134	1.3233e+01	1.3214	-16.207142	0.000454	4.542672	0.769549	0.000045
 135	1.3333e+01	1.3300	-16.166815	0.000405	4.051572	0.686355	0.000041
 136	1.3432e+01	1.3438	-16.125266	0.000417	4.174347	0.707153	0.000042
 137	1.3532e+01	1.3522	-16.086161	0.000393	3.928797	0.665556	0.000039
 138	1.3632e+01	1.3591	-16.045427	0.000409	4.092497	0.693288	0.000041
 139	1.3731e+01	1.3703	-16.006729	0.000389	3.887872	0.658623	0.000039
 140	1.3831e+01	1.3795	-15.963551	0.000434	4.338047	0.734885	0.000043
 141	1.3930e+01	1.3906	-15.926075	0.000377	3.765097	0.637825	0.000038
 142	1.4030e+01	1.4013	-15.887378	0.000389	3.887872	0.658623	0.000039
 143	1.4129e+01	1.4062	-15.846236	0.000413	4.133422	0.700221	0.000041
 144	1.4229e+01	1.4208	-15.806724	0.000397	3.969722	0.672489	0.000040
 145	1.4328e+01	1.4323	-15.767619	0.000393	3.928797	0.665556	0.000039
 146	1.4428e+01	1.4412	-15.726478	0.000413	4.133422	0.700221	0.000041
 147	1.4527e+01	1.4490	-15.687373	0.000393	3.928797	0.665556	0.000039
 148	1.4627e+01	1.4601	-15.645824	0.000417	4.174347	0.707153	0.000042
 149	1.4726e+01	1.4685	-15.608756	0.000372	3.724172	0.630892	0.000037
 150	1.4825e+01	1.4794	-15.568836	0.000401	4.010647	0.679422	0.000040
 151	1.4925e+01	1.4925	-15.530546	0.000385	3.846947	0.651690	0.000038
 152	1.5024e+01	1.4990	-15.488590	0.000422	4.215272	0.714086	0.000042
 153	1.5124e+01	1.5117	-15.451929	0.000368	3.683247	0.623959	0.000037
 154	1.5223e+01	1.5197	-15.414046	0.000381	3.806022	0.644758	0.000038
 155	1.5323e+01	1.5331	-15.369645	0.000446	4.460822	0.755684	0.000045
 156	1.5422e+01	1.5417	-15.333392	0.000364	3.642322	0.617026	0.000036
 157	1.5522e+01	1.5513	-15.296324	0.000372	3.724172	0.630892	0.000037
 158	1.5621e+01	1.5619	-15.257626	0.000389	3.887872	0.658623	0.000039
 159	1.5721e+01	1.5726	-15.218929	0.000389	3.887872	0.658623	0.000039
 160	1.5820e+01	1.5795	-15.183083	0.000360	3.601397	0.610093	0.000036
 161	1.5920e+01	1.5896	-15.141534	0.000417	4.174347	0.707153	0.000042
 162	1.6020e+01	1.5995	-15.104058	0.000377	3.765097	0.637825	0.000038
 163	1.6119e+01	1.6091	-15.066990	0.000372	3.724172	0.630892	0.000037
 164	1.6218e+01	1.6198	-15.027070	0.000401	4.010647	0.679422	0.000040
 165	1.6318e+01	1.6299	-14.985114	0.000422	4.215272	0.714086	0.000042
 166	1.6418e+01	1.6430	-14.950490	0.000348	3.478622	0.589295	0.000035
 167	1.6517e+01	1.6480	-14.915459	0.000352	3.519547	0.596227	0.000035
 168	1.6616e+01	1.6605	-14.878390	0.000372	3.724172	0.630892	0.000037
 169	1.6716e+01	1.6718	-14.839285	0.000393	3.928797	0.665556	0.000039
 170	1.6816e+01	1.6816	-14.801403	0.000381	3.806022	0.644758	0.000038
 171	1.6915e+01	1.6906	-14.770445	0.000311	3.110298	0.526899	0.000031
 172	1.7015e+01	1.6991	-14.732562	0.000381	3.806022	0.644758	0.000038
 173	1.7114e+01	1.7077	-14.698752	0.000340	3.396772	0.575429	0.000034
 174	1.7213e+01	1.7187	-14.658018	0.000409	4.092497	0.693288	0.000041
 175	1.7313e+01	1.7297	-14.625838	0.000323	3.233073	0.547697	0.000032
 176	1.7413e+01	1.7361	-14.589177	0.000368	3.683247	0.623959	0.000037
 177	1.7512e+01	1.7490	-14.550887	0.000385	3.846947	0.651690	0.000038
 178	1.7611e+01	1.7584	-14.517078	0.000340	3.396772	0.575429	0.000034
 179	1.7711e+01	1.7687	-14.480009	0.000372	3.724172	0.630892	0.000037
 180	1.7811e+01	1.7792	-14.444978	0.000352	3.519547	0.596227	0.000035
 181	1.7910e+01	1.7904	-14.411168	0.000340	3.396772	0.575429	0.000034
 182	1.8009e+01	1.7996	-14.371656	0.000397	3.969722	0.672489	0.000040
 183	1.8109e+01	1.8107	-14.337439	0.000344	3.437697	0.582362	0.000034
 184	1.8209e+01	1.8176	-14.300371	0.000372	3.724172	0.630892	0.000037
 185	1.8308e+01	1.8290	-14.266562	0.000340	3.396772	0.575429	0.000034
 186	1.8407e+01	1.8394	-14.227457	0.000393	3.928797	0.665556	0.000039
 187	1.8507e+01	1.8478	-14.194462	0.000331	3.314922	0.561563	0.000033
 188	1.8607e+01	1.8578	-14.148433	0.000462	4.624521	0.783415	0.000046
 189	1.8706e+01	1.8679	-14.113808	0.000348	3.478622	0.589295	0.000035
 190	1.8805e+01	1.8792	-14.076740	0.000372	3.724172	0.630892	0.000037
 191	1.8905e+01	1.8890	-14.039672	0.000372	3.724172	0.630892	0.000037
 192	1.9005e+01	1.8970	-14.000975	0.000389	3.887872	0.658623	0.000039
 193	1.9104e+01	1.9106	-13.965943	0.000352	3.519547	0.596227	0.000035
 194	1.9203e+01	1.9216	-13.927246	0.000389	3.887872	0.658623	0.000039
 195	1.9303e+01	1.9257	-13.888141	0.000393	3.928797	0.665556	0.000039
 196	1.9402e+01	1.9387	-13.848221	0.000401	4.010647	0.679422	0.000040
 197	1.9502e+01	1.9469	-13.810746	0.000377	3.765097	0.637825	0.000038
 198	1.9602e+01	1.9598	-13.773270	0.000377	3.765097	0.637825	0.000038
 199	1.9701e+01	1.9677	-13.733758	0.000397	3.969722	0.672489	0.000040
 200	1.9800e+01	1.9787	-13.699134	0.000348	3.478622	0.589295	0.000035
 201	1.9900e+01	1.9863	-13.654733	0.000446	4.460822	0.755684	0.000045
 202	2.0000e+01	2.0005	-13.624590	0.000303	3.028448	0.513033	0.000030
 203	2.0099e+01	2.0065	-13.585078	0.000397	3.969722	0.672489	0.000040
 204	2.0198e+01	2.0150	-13.552490	0.000327	3.273998	0.554630	0.000033
 205	2.0298e+01	2.0269	-13.515422	0.000372	3.724172	0.630892	0.000037
 206	2.0398e+01	2.0391	-13.480391	0.000352	3.519547	0.596227	0.000035
 207	2.0497e+01	2.0504	-13.443323	0.000372	3.724172	0.630892	0.000037
 208	2.0596e+01	2.0584	-13.407069	0.000364	3.642322	0.617026	0.000036
 209	2.0696e+01	2.0705	-13.373667	0.000336	3.355847	0.568496	0.000034
 210	2.0796e+01	2.0795	-13.331303	0.000426	4.256197	0.721019	0.000043
 211	2.0895e+01	2.0892	-13.292198	0.000393	3.928797	0.665556	0.000039
 212	2.0994e+01	2.0979	-13.256352	0.000360	3.601397	0.610093	0.000036
 213	2.1094e+01	2.1088	-13.222543	0.000340	3.396772	0.575429	0.000034
 214	2.1194e+01	2.1152	-13.182216	0.000405	4.051572	0.686355	0.000041
 215	2.1293e+01	2.1275	-13.150443	0.000319	3.192148	0.540764	0.000032
 216	2.1392e+01	2.1390	-13.114190	0.000364	3.642322	0.617026	0.000036
 217	2.1492e+01	2.1474	-13.077122	0.000372	3.724172	0.630892	0.000037
 218	2.1591e+01	2.1569	-13.039646	0.000377	3.765097	0.637825	0.000038
 219	2.1691e+01	2.1676	-13.002985	0.000368	3.683247	0.623959	0.000037
 220	2.1791e+01	2.1775	-12.964288	0.000389	3.887872	0.658623	0.000039
 221	2.1890e+01	2.1866	-12.926405	0.000381	3.806022	0.644758	0.000038
 222	2.1989e+01	2.1996	-12.894225	0.000323	3.233073	0.547697	0.000032
 223	2.2089e+01	2.2048	-12.852269	0.000422	4.215272	0.714086	0.000042
 224	2.2189e+01	2.2167	-12.813571	0.000389	3.887872	0.658623	0.000039
 225	2.2288e+01	2.2272	-12.773244	0.000405	4.051572	0.686355	0.000041
 226	2.2387e+01	2.2387	-12.733324	0.000401	4.010647	0.679422	0.000040
 227	2.2487e+01	2.2456	-12.693405	0.000401	4.010647	0.679422	0.000040
 228	2.2587e+01	2.2591	-12.653078	0.000405	4.051572	0.686355	0.000041
 229	2.2686e+01	2.2662	-12.616010	0.000372	3.724172	0.630892	0.000037
 230	2.2785e+01	2.2750	-12.583015	0.000331	3.314922	0.561563	0.000033
 231	2.2885e+01	2.2887	-12.539022	0.000442	4.419897	0.748751	0.000044
 232	2.2985e+01	2.2942	-12.504398	0.000348	3.478622	0.589295	0.000035
 233	2.3084e+01	2.3067	-12.464071	0.000405	4.051572	0.686355	0.000041
 234	2.3183e+01	2.3162	-12.421300	0.000430	4.297122	0.727952	0.000043
 235	2.3283e+01	2.3271	-12.383825	0.000377	3.765097	0.637825	0.000038
 236	2.3383e+01	2.3360	-12.343905	0.000401	4.010647	0.679422	0.000040
 237	2.3482e+01	2.3475	-12.301949	0.000422	4.215272	0.714086	0.000042
 238	2.3581e+01	2.3556	-12.264473	0.000377	3.765097	0.637825	0.000038
 239	2.3681e+01	2.3629	-12.226590	0.000381	3.806022	0.644758	0.000038
 240	2.3780e+01	2.3743	-12.187485	0.000393	3.928797	0.665556	0.000039
 241	2.3880e+01	2.3895	-12.145529	0.000422	4.215272	0.714086	0.000042
 242	2.3980e+01	2.3930	-12.110498	0.000352	3.519547	0.596227	0.000035
 243	2.4079e+01	2.4038	-12.072208	0.000385	3.846947	0.651690	0.000038
 244	2.4178e+01	2.4172	-12.030251	0.000422	4.215272	0.714086	0.000042
 245	2.4278e+01	2.4248	-11.992776	0.000377	3.765097	0.637825	0.000038
 246	2.4378e+01	2.4364	-11.953264	0.000397	3.969722	0.672489	0.000040
 247	2.4477e+01	2.4447	-11.912122	0.000413	4.133422	0.700221	0.000041
 248	2.4576e+01	2.4557	-11.873017	0.000393	3.928797	0.665556	0.000039
 249	2.4676e+01	2.4633	-11.835134	0.000381	3.806022	0.644758	0.000038
 250	2.4776e+01	2.4752	-11.796437	0.000389	3.887872	0.658623	0.000039
 251	2.4875e+01	2.4867	-11.754888	0.000417	4.174347	0.707153	0.000042
 252	2.4974e+01	2.4947	-11.712117	0.000430	4.297122	0.727952	0.000043
 253	2.5074e+01	2.5053	-11.672604	0.000397	3.969722	0.672489	0.000040
 254	2.5174e+01	2.5152	-11.632685	0.000401	4.010647	0.679422	0.000040
 255	2.5273e+01	2.5225	-11.592358	0.000405	4.051572	0.686355	0.000041
 256	2.5372e+01	2.5327	-11.547550	0.000450	4.501747	0.762617	0.000045
 257	2.5472e+01	2.5455	-11.506816	0.000409	4.092497	0.693288	0.000041
 258	2.5572e+01	2.5559	-11.464860	0.000422	4.215272	0.714086	0.000042
 259	2.5671e+01	2.5674	-11.424126	0.000409	4.092497	0.693288	0.000041
 260	2.5770e+01	2.5747	-11.387465	0.000368	3.683247	0.623959	0.000037
 261	2.5870e+01	2.5838	-11.345101	0.000426	4.256197	0.721019	0.000043
 262	2.5970e+01	2.5932	-11.303552	0.000417	4.174347	0.707153	0.000042
 263	2.6069e+01	2.6037	-11.260374	0.000434	4.338047	0.734885	0.000043
 264	2.6169e+01	2.6149	-11.223306	0.000372	3.724172	0.630892	0.000037
 265	2.6268e+01	2.6266	-11.178091	0.000454	4.542672	0.769549	0.000045
 266	2.6367e+01	2.6356	-11.138578	0.000397	3.969722	0.672489	0.000040
 267	2.6467e+01	2.6447	-11.098251	0.000405	4.051572	0.686355	0.000041
 268	2.6567e+01	2.6540	-11.057517	0.000409	4.092497	0.693288	0.000041
 269	2.6666e+01	2.6662	-11.017190	0.000405	4.051572	0.686355	0.000041
 270	2.6765e+01	2.6751	-10.976456	0.000409	4.092497	0.693288	0.000041
 271	2.6865e+01	2.6849	-10.940610	0.000360	3.601397	0.610093	0.000036
 272	2.6965e+01	2.6949	-10.895802	0.000450	4.501747	0.762617	0.000045
 273	2.7064e+01	2.7056	-10.859141	0.000368	3.683247	0.623959	0.000037
 274	2.7163e+01	2.7139	-10.818407	0.000409	4.092497	0.693288	0.000041
 275	2.7263e+01	2.7254	-10.779302	0.000393	3.928797	0.665556	0.000039
 276	2.7363e+01	2.7355	-10.740197	0.000393	3.928797	0.665556	0.000039
 277	2.7462e+01	2.7447	-10.703537	0.000368	3.683247	0.623959	0.000037
 278	2.7561e+01	2.7563	-10.666468	0.000372	3.724172	0.630892	0.000037
 279	2.7661e+01	2.7633	-10.625734	0.000409	4.092497	0.693288	0.000041
 280	2.7761e+01	2.7743	-10.590703	0.000352	3.519547	0.596227	0.000035
 281	2.7860e+01	2.7843	-10.552412	0.000385	3.846947	0.651690	0.000038
 282	2.7959e+01	2.7954	-10.516566	0.000360	3.601397	0.610093	0.000036
 283	2.8059e+01	2.8032	-10.473795	0.000430	4.297122	0.727952	0.000043
 284	2.8159e+01	2.8127	-10.439171	0.000348	3.478622	0.589295	0.000035
 285	2.8258e+01	2.8237	-10.397215	0.000422	4.215272	0.714086	0.000042
 286	2.8358e+01	2.8365	-10.358925	0.000385	3.846947	0.651690	0.000038
 287	2.8457e+01	2.8454	-10.319820	0.000393	3.928797	0.665556	0.000039
 288	2.8556e+01	2.8564	-10.275827	0.000442	4.419897	0.748751	0.000044
 289	2.8656e+01	2.8637	-10.239166	0.000368	3.683247	0.623959	0.000037
 290	2.8756e+01	2.8740	-10.200061	0.000393	3.928797	0.665556	0.000039
 291	2.8855e+01	2.8838	-10.161771	0.000385	3.846947	0.651690	0.000038
 292	2.8954e+01	2.8936	-10.121037	0.000409	4.092497	0.693288	0.000041
 293	2.9054e+01	2.9033	-10.083561	0.000377	3.765097	0.637825	0.000038
 294	2.9154e+01	2.9116	-10.044049	0.000397	3.969722	0.672489	0.000040
 295	2.9253e+01	2.9221	-10.002093	0.000422	4.215272	0.714086	0.000042
 296	2.9352e+01	2.9331	-9.963802	0.000385	3.846947	0.651690	0.000038
 297	2.9452e+01	2.9430	-9.926327	0.000377	3.765097	0.637825	0.000038
 298	2.9552e+01	2.9543	-9.890073	0.000364	3.642322	0.617026	0.000036
 299	2.9651e+01	2.9644	-9.846080	0.000442	4.419897	0.748751	0.000044
 300	2.9750e+01	2.9705	-9.806976	0.000393	3.928797	0.665556	0.000039
 301	2.9850e+01	2.9818	-9.768685	0.000385	3.846947	0.651690	0.000038
 302	2.9950e+01	2.9929	-9.729581	0.000393	3.928797	0.665556	0.000039
 303	3.0049e+01	3.0035	-9.690476	0.000393	3.928797	0.665556	0.000039
 304	3.0148e+01	3.0107	-9.655852	0.000348	3.478622	0.589295	0.000035
 305	3.0248e+01	3.0254	-9.618783	0.000372	3.724172	0.630892	0.000037
 306	3.0348e+01	3.0358	-9.580493	0.000385	3.846947	0.651690	0.000038
 307	3.0447e+01	3.0454	-9.545054	0.000356	3.560472	0.603160	0.000036
 308	3.0547e+01	3.0540	-9.507171	0.000381	3.806022	0.644758	0.000038
 309	3.0646e+01	3.0614	-9.470918	0.000364	3.642322	0.617026	0.000036
 310	3.0745e+01	3.0758	-9.439553	0.000315	3.151223	0.533832	0.000032
 311	3.0845e+01	3.0856	-9.401670	0.000381	3.806022	0.644758	0.000038
 312	3.0945e+01	3.0926	-9.366638	0.000352	3.519547	0.596227	0.000035
 313	3.1044e+01	3.1048	-9.327941	0.000389	3.887872	0.658623	0.000039
 314	3.1143e+01	3.1118	-9.290873	0.000372	3.724172	0.630892	0.000037
 315	3.1243e+01	3.1254	-9.253804	0.000372	3.724172	0.630892	0.000037
 316	3.1343e+01	3.1316	-9.217144	0.000368	3.683247	0.623959	0.000037
 317	3.1442e+01	3.1451	-9.186186	0.000311	3.110298	0.526899	0.000031
 318	3.1541e+01	3.1541	-9.148710	0.000377	3.765097	0.637825	0.000038
 319	3.1641e+01	3.1609	-9.112049	0.000368	3.683247	0.623959	0.000037
 320	3.1741e+01	3.1725	-9.078240	0.000340	3.396772	0.575429	0.000034
 321	3.1840e+01	3.1809	-9.039950	0.000385	3.846947	0.651690	0.000038
 322	3.1939e+01	3.1973	-9.009399	0.000307	3.069373	0.519966	0.000031
 323	3.2039e+01	3.2027	-8.972738	0.000368	3.683247	0.623959	0.000037
 324	3.2139e+01	3.2133	-8.932004	0.000409	4.092497	0.693288	0.000041
 325	3.2238e+01	3.2194	-8.901453	0.000307	3.069373	0.519966	0.000031
 326	3.2337e+01	3.2339	-8.866829	0.000348	3.478622	0.589295	0.000035
 327	3.2437e+01	3.2424	-8.828131	0.000389	3.887872	0.658623	0.000039
 328	3.2536e+01	3.2543	-8.797173	0.000311	3.110298	0.526899	0.000031
 329	3.2636e+01	3.2616	-8.762142	0.000352	3.519547	0.596227	0.000035
 330	3.2736e+01	3.2738	-8.725888	0.000364	3.642322	0.617026	0.000036
 331	3.2835e+01	3.2805	-8.690857	0.000352	3.519547	0.596227	0.000035
 332	3.2934e+01	3.2909	-8.657048	0.000340	3.396772	0.575429	0.000034
 333	3.3034e+01	3.3007	-8.620794	0.000364	3.642322	0.617026	0.000036
 334	3.3133e+01	3.3096	-8.586985	0.000340	3.396772	0.575429	0.000034
 335	3.3233e+01	3.3219	-8.556841	0.000303	3.028448	0.513033	0.000030
 336	3.3333e+01	3.3270	-8.521810	0.000352	3.519547	0.596227	0.000035
 337	3.3432e+01	3.3407	-8.487186	0.000348	3.478622	0.589295	0.000035
 338	3.3532e+01	3.3495	-8.457042	0.000303	3.028448	0.513033	0.000030
 339	3.3631e+01	3.3642	-8.426899	0.000303	3.028448	0.513033	0.000030
 340	3.3730e+01	3.3709	-8.394719	0.000323	3.233073	0.547697	0.000032
 341	3.3830e+01	3.3813	-8.358873	0.000360	3.601397	0.610093	0.000036
 342	3.3929e+01	3.3892	-8.330359	0.000286	2.864748	0.485301	0.000029
 343	3.4029e+01	3.4007	-8.295327	0.000352	3.519547	0.596227	0.000035
 344	3.4129e+01	3.4121	-8.260296	0.000352	3.519547	0.596227	0.000035
 345	3.4228e+01	3.4228	-8.227709	0.000327	3.273998	0.554630	0.000033
 346	3.4328e+01	3.4307	-8.199602	0.000282	2.823823	0.478369	0.000028
 347	3.4427e+01	3.4374	-8.168644	0.000311	3.110298	0.526899	0.000031
 348	3.4526e+01	3.4515	-8.135242	0.000336	3.355847	0.568496	0.000034
 349	3.4626e+01	3.4640	-8.101025	0.000344	3.437697	0.582362	0.000034
 350	3.4725e+01	3.4690	-8.068845	0.000323	3.233073	0.547697	0.000032
 351	3.4825e+01	3.4820	-8.037072	0.000319	3.192148	0.540764	0.000032
 352	3.4925e+01	3.4917	-8.006114	0.000311	3.110298	0.526899	0.000031
 353	3.5024e+01	3.4991	-7.970268	0.000360	3.601397	0.610093	0.000036
 354	3.5123e+01	3.5104	-7.938903	0.000315	3.151223	0.533832	0.000032
 355	3.5223e+01	3.5212	-7.903464	0.000356	3.560472	0.603160	0.000036
 356	3.5322e+01	3.5299	-7.870062	0.000336	3.355847	0.568496	0.000034
 357	3.5422e+01	3.5394	-7.836252	0.000340	3.396772	0.575429	0.000034
 358	3.5522e+01	3.5493	-7.803258	0.000331	3.314922	0.561563	0.000033
 359	3.5621e+01	3.5595	-7.765782	0.000377	3.765097	0.637825	0.000038
 360	3.5721e+01	3.5722	-7.734417	0.000315	3.151223	0.533832	0.000032
 361	3.5820e+01	3.5796	-7.698163	0.000364	3.642322	0.617026	0.000036
 362	3.5919e+01	3.5903	-7.664761	0.000336	3.355847	0.568496	0.000034
 363	3.6019e+01	3.6002	-7.630137	0.000348	3.478622	0.589295	0.000035
 364	3.6118e+01	3.6108	-7.595513	0.000348	3.478622	0.589295	0.000035
 365	3.6218e+01	3.6210	-7.560481	0.000352	3.519547	0.596227	0.000035
 366	3.6318e+01	3.6321	-7.520562	0.000401	4.010647	0.679422	0.000040
 367	3.6417e+01	3.6413	-7.492863	0.000278	2.782898	0.471436	0.000028
 368	3.6517e+01	3.6520	-7.458646	0.000344	3.437697	0.582362	0.000034
 369	3.6616e+01	3.6620	-7.425244	0.000336	3.355847	0.568496	0.000034
 370	3.6715e+01	3.6700	-7.392249	0.000331	3.314922	0.561563	0.000033
 371	3.6815e+01	3.6813	-7.359662	0.000327	3.273998	0.554630	0.000033
 372	3.6914e+01	3.6903	-7.325852	0.000340	3.396772	0.575429	0.000034
 373	3.7014e+01	3.7009	-7.295301	0.000307	3.069373	0.519966	0.000031
 374	3.7114e+01	3.7090	-7.261085	0.000344	3.437697	0.582362	0.000034
 375	3.7213e+01	3.7190	-7.227275	0.000340	3.396772	0.575429	0.000034
 376	3.7313e+01	3.7319	-7.195503	0.000319	3.192148	0.540764	0.000032
 377	3.7412e+01	3.7402	-7.162915	0.000327	3.273998	0.554630	0.000033
 378	3.7511e+01	3.7496	-7.130328	0.000327	3.273998	0.554630	0.000033
 379	3.7611e+01	3.7606	-7.096111	0.000344	3.437697	0.582362	0.000034
 380	3.7711e+01	3.7695	-7.064338	0.000319	3.192148	0.540764	0.000032
 381	3.7810e+01	3.7795	-7.030936	0.000336	3.355847	0.568496	0.000034
 382	3.7910e+01	3.7884	-7.000793	0.000303	3.028448	0.513033	0.000030
 383	3.8009e+01	3.8006	-6.968613	0.000323	3.233073	0.547697	0.000032
 384	3.8108e+01	3.8096	-6.934396	0.000344	3.437697	0.582362	0.000034
 385	3.8208e+01	3.8187	-6.901401	0.000331	3.314922	0.561563	0.000033
 386	3.8307e+01	3.8290	-6.866777	0.000348	3.478622	0.589295	0.000035
 387	3.8407e+01	3.8363	-6.837856	0.000291	2.905673	0.492234	0.000029
 388	3.8507e+01	3.8506	-6.800380	0.000377	3.765097	0.637825	0.000038
 389	3.8606e+01	3.8596	-6.764127	0.000364	3.642322	0.617026	0.000036
 390	3.8706e+01	3.8683	-6.729503	0.000348	3.478622	0.589295	0.000035
 391	3.8805e+01	3.8805	-6.697730	0.000319	3.192148	0.540764	0.000032
 392	3.8904e+01	3.8892	-6.657403	0.000405	4.051572	0.686355	0.000041
 393	3.9004e+01	3.9004	-6.624408	0.000331	3.314922	0.561563	0.000033
 394	3.9103e+01	3.9083	-6.591821	0.000327	3.273998	0.554630	0.000033
 395	3.9203e+01	3.9214	-6.555975	0.000360	3.601397	0.610093	0.000036
 396	3.9303e+01	3.9310	-6.518092	0.000381	3.806022	0.644758	0.000038
 397	3.9402e+01	3.9373	-6.483060	0.000352	3.519547	0.596227	0.000035
 398	3.9502e+01	3.9495	-6.447214	0.000360	3.601397	0.610093	0.000036
 399	3.9601e+01	3.9571	-6.414627	0.000327	3.273998	0.554630	0.000033
 400	3.9700e+01	3.9697	-6.379595	0.000352	3.519547	0.596227	0.000035
 401	3.9800e+01	3.9800	-6.341713	0.000381	3.806022	0.644758	0.000038
 402	3.9900e+01	3.9895	-6.309125	0.000327	3.273998	0.554630	0.000033
 403	3.9999e+01	3.9989	-6.272057	0.000372	3.724172	0.630892	0.000037
 404	4.0099e+01	4.0076	-6.237840	0.000344	3.437697	0.582362	0.000034
 405	4.0198e+01	4.0163	-6.203623	0.000344	3.437697	0.582362	0.000034
 406	4.0297e+01	4.0312	-6.162482	0.000413	4.133422	0.700221	0.000041
 407	4.0397e+01	4.0347	-6.127450	0.000352	3.519547	0.596227	0.000035
 408	4.0496e+01	4.0478	-6.094048	0.000336	3.355847	0.568496	0.000034
 409	4.0596e+01	4.0591	-6.059831	0.000344	3.437697	0.582362	0.000034
 410	4.0696e+01	4.0682	-6.025207	0.000348	3.478622	0.589295	0.000035
 411	4.0795e+01	4.0792	-5.988547	0.000368	3.683247	0.623959	0.000037
 412	4.0895e+01	4.0859	-5.951886	0.000368	3.683247	0.623959	0.000037
 413	4.0994e+01	4.0978	-5.915225	0.000368	3.683247	0.623959	0.000037
 414	4.1093e+01	4.1051	-5.885489	0.000299	2.987523	0.506100	0.000030
 415	4.1193e+01	4.1183	-5.847199	0.000385	3.846947	0.651690	0.000038
 416	4.1292e+01	4.1277	-5.810945	0.000364	3.642322	0.617026	0.000036
 417	4.1392e+01	4.1383	-5.773877	0.000372	3.724172	0.630892	0.000037
 418	4.1492e+01	4.1503	-5.738438	0.000356	3.560472	0.603160	0.000036
 419	4.1591e+01	4.1607	-5.700555	0.000381	3.806022	0.644758	0.000038
 420	4.1691e+01	4.1667	-5.662265	0.000385	3.846947	0.651690	0.000038
 421	4.1790e+01	4.1766	-5.623160	0.000393	3.928797	0.665556	0.000039
 422	4.1889e+01	4.1894	-5.588129	0.000352	3.519547	0.596227	0.000035
 423	4.1989e+01	4.1961	-5.549431	0.000389	3.887872	0.658623	0.000039
 424	4.2089e+01	4.2076	-5.510326	0.000393	3.928797	0.665556	0.000039
 425	4.2188e+01	4.2168	-5.474073	0.000364	3.642322	0.617026	0.000036
 426	4.2288e+01	4.2257	-5.433339	0.000409	4.092497	0.693288	0.000041
 427	4.2387e+01	4.2376	-5.401159	0.000323	3.233073	0.547697	0.000032
 428	4.2486e+01	4.2461	-5.361239	0.000401	4.010647	0.679422	0.000040
 429	4.2586e+01	4.2556	-5.324171	0.000372	3.724172	0.630892	0.000037
 430	4.2685e+01	4.2681	-5.285473	0.000389	3.887872	0.658623	0.000039
 431	4.2785e+01	4.2773	-5.247183	0.000385	3.846947	0.651690	0.000038
 432	4.2885e+01	4.2858	-5.209708	0.000377	3.765097	0.637825	0.000038
 433	4.2984e+01	4.2986	-5.173861	0.000360	3.601397	0.610093	0.000036
 434	4.3084e+01	4.3075	-5.133535	0.000405	4.051572	0.686355	0.000041
 435	4.3183e+01	4.3186	-5.100540	0.000331	3.314922	0.561563	0.000033
 436	4.3282e+01	4.3267	-5.064286	0.000364	3.642322	0.617026	0.000036
 437	4.3382e+01	4.3349	-5.026811	0.000377	3.765097	0.637825	0.000038
 438	4.3481e+01	4.3465	-4.989335	0.000377	3.765097	0.637825	0.000038
 439	4.3581e+01	4.3572	-4.953082	0.000364	3.642322	0.617026	0.000036
 440	4.3681e+01	4.3668	-4.919272	0.000340	3.396772	0.575429	0.000034
 441	4.3780e+01	4.3786	-4.881389	0.000381	3.806022	0.644758	0.000038
 442	4.3880e+01	4.3859	-4.850431	0.000311	3.110298	0.526899	0.000031
 443	4.3979e+01	4.3969	-4.812956	0.000377	3.765097	0.637825	0.000038
 444	4.4078e+01	4.4059	-4.776295	0.000368	3.683247	0.623959	0.000037
 445	4.4178e+01	4.4198	-4.741671	0.000348	3.478622	0.589295	0.000035
 446	4.4278e+01	4.4259	-4.711120	0.000307	3.069373	0.519966	0.000031
 447	4.4377e+01	4.4350	-4.674459	0.000368	3.683247	0.623959	0.000037
 448	4.4477e+01	4.4462	-4.640650	0.000340	3.396772	0.575429	0.000034
 449	4.4576e+01	4.4546	-4.604804	0.000360	3.601397	0.610093	0.000036
 450	4.4675e+01	4.4642	-4.572216	0.000327	3.273998	0.554630	0.000033
 451	4.4775e+01	4.4767	-4.536370	0.000360	3.601397	0.610093	0.000036
 452	4.4874e+01	4.4891	-4.502968	0.000336	3.355847	0.568496	0.000034
 453	4.4974e+01	4.4969	-4.463049	0.000401	4.010647	0.679422	0.000040
 454	4.5074e+01	4.5068	-4.427610	0.000356	3.560472	0.603160	0.000036
 455	4.5173e+01	4.5168	-4.396244	0.000315	3.151223	0.533832	0.000032
 456	4.5273e+01	4.5272	-4.357140	0.000393	3.928797	0.665556	0.000039
 457	4.5372e+01	4.5339	-4.320479	0.000368	3.683247	0.623959	0.000037
 458	4.5471e+01	4.5483	-4.284225	0.000364	3.642322	0.617026	0.000036
 459	4.5571e+01	4.5568	-4.249601	0.000348	3.478622	0.589295	0.000035
 460	4.5670e+01	4.5660	-4.211311	0.000385	3.846947	0.651690	0.000038
 461	4.5770e+01	4.5782	-4.178724	0.000327	3.273998	0.554630	0.000033
 462	4.5870e+01	4.5881	-4.142063	0.000368	3.683247	0.623959	0.000037
 463	4.5969e+01	4.5977	-4.107846	0.000344	3.437697	0.582362	0.000034
 464	4.6069e+01	4.6056	-4.071185	0.000368	3.683247	0.623959	0.000037
 465	4.6168e+01	4.6154	-4.038190	0.000331	3.314922	0.561563	0.000033
 466	4.6267e+01	4.6258	-4.000308	0.000381	3.806022	0.644758	0.000038
 467	4.6367e+01	4.6365	-3.963647	0.000368	3.683247	0.623959	0.000037
 468	4.6467e+01	4.6435	-3.926171	0.000377	3.765097	0.637825	0.000038
 469	4.6566e+01	4.6551	-3.891547	0.000348	3.478622	0.589295	0.000035
 470	4.6666e+01	4.6630	-3.860589	0.000311	3.110298	0.526899	0.000031
 471	4.6765e+01	4.6770	-3.821484	0.000393	3.928797	0.665556	0.000039
 472	4.6864e+01	4.6857	-3.788897	0.000327	3.273998	0.554630	0.000033
 473	4.6964e+01	4.6966	-3.753865	0.000352	3.519547	0.596227	0.000035
 474	4.7063e+01	4.7039	-3.726166	0.000278	2.782898	0.471436	0.000028
 475	4.7163e+01	4.7131	-3.690727	0.000356	3.560472	0.603160	0.000036
 476	4.7263e+01	4.7265	-3.658547	0.000323	3.233073	0.547697	0.000032
 477	4.7362e+01	4.7353	-3.625552	0.000331	3.314922	0.561563	0.000033
 478	4.7462e+01	4.7436	-3.592965	0.000327	3.273998	0.554630	0.000033
 479	4.7561e+01	4.7552	-3.556304	0.000368	3.683247	0.623959	0.000037
 480	4.7660e+01	4.7649	-3.528198	0.000282	2.823823	0.478369	0.000028
 481	4.7760e+01	4.7768	-3.493166	0.000352	3.519547	0.596227	0.000035
 482	4.7859e+01	4.7868	-3.461393	0.000319	3.192148	0.540764	0.000032
 483	4.7959e+01	4.7936	-3.429621	0.000319	3.192148	0.540764	0.000032
 484	4.8059e+01	4.8045	-3.397033	0.000327	3.273998	0.554630	0.000033
 485	4.8158e+01	4.8149	-3.366483	0.000307	3.069373	0.519966	0.000031
 486	4.8258e+01	4.8254	-3.331044	0.000356	3.560472	0.603160	0.000036
 487	4.8357e+01	4.8351	-3.298456	0.000327	3.273998	0.554630	0.000033
 488	4.8456e+01	4.8440	-3.269535	0.000291	2.905673	0.492234	0.000029
 489	4.8556e+01	4.8559	-3.240206	0.000295	2.946598	0.499167	0.000029
 490	4.8656e+01	4.8663	-3.203545	0.000368	3.683247	0.623959	0.000037
 491	4.8755e+01	4.8756	-3.172587	0.000311	3.110298	0.526899	0.000031
 492	4.8855e+01	4.8861	-3.142851	0.000299	2.987523	0.506100	0.000030
 493	4.8954e+01	4.8931	-3.111079	0.000319	3.192148	0.540764	0.000032
 494	4.9053e+01	4.9035	-3.080121	0.000311	3.110298	0.526899	0.000031
 495	4.9153e+01	4.9139	-3.045497	0.000348	3.478622	0.589295	0.000035
 496	4.9252e+01	4.9258	-3.016168	0.000295	2.946598	0.499167	0.000029
 497	4.9352e+01	4.9355	-2.983173	0.000331	3.314922	0.561563	0.000033
 498	4.9452e+01	4.9453	-2.951400	0.000319	3.192148	0.540764	0.000032
 499	4.9551e+01	4.9548	-2.920850	0.000307	3.069373	0.519966	0.000031
 500	4.9651e+01	4.9645	-2.889892	0.000311	3.110298	0.526899	0.000031
 501	4.9750e+01	4.9764	-2.857712	0.000323	3.233073	0.547697	0.000032
 502	4.9849e+01	4.9841	-2.827161	0.000307	3.069373	0.519966	0.000031
 503	4.9949e+01	4.9950	-2.794574	0.000327	3.273998	0.554630	0.000033
 504	5.0048e+01	5.0036	-2.770540	0.000241	2.414573	0.409040	0.000024
 505	5.0148e+01	5.0127	-2.739990	0.000307	3.069373	0.519966	0.000031
 506	5.0248e+01	5.0249	-2.711476	0.000286	2.864748	0.485301	0.000029
 507	5.0347e+01	5.0335	-2.679703	0.000319	3.192148	0.540764	0.000032
 508	5.0447e+01	5.0445	-2.655262	0.000246	2.455498	0.415973	0.000025
 509	5.0546e+01	5.0524	-2.625934	0.000295	2.946598	0.499167	0.000029
 510	5.0645e+01	5.0643	-2.599456	0.000266	2.660123	0.450637	0.000027
 511	5.0745e+01	5.0726	-2.568091	0.000315	3.151223	0.533832	0.000032
 512	5.0844e+01	5.0817	-2.537948	0.000303	3.028448	0.513033	0.000030
 513	5.0944e+01	5.0936	-2.505768	0.000323	3.233073	0.547697	0.000032
 514	5.1044e+01	5.1019	-2.478883	0.000270	2.701048	0.457570	0.000027
 515	5.1143e+01	5.1113	-2.452406	0.000266	2.660123	0.450637	0.000027
 516	5.1242e+01	5.1247	-2.422262	0.000303	3.028448	0.513033	0.000030
 517	5.1342e+01	5.1342	-2.394156	0.000282	2.823823	0.478369	0.000028
 518	5.1441e+01	5.1458	-2.361568	0.000327	3.273998	0.554630	0.000033
 519	5.1541e+01	5.1531	-2.334684	0.000270	2.701048	0.457570	0.000027
 520	5.1641e+01	5.1617	-2.303726	0.000311	3.110298	0.526899	0.000031
 521	5.1740e+01	5.1736	-2.273582	0.000303	3.028448	0.513033	0.000030
 522	5.1840e+01	5.1827	-2.246698	0.000270	2.701048	0.457570	0.000027
 523	5.1939e+01	5.1949	-2.213703	0.000331	3.314922	0.561563	0.000033
 524	5.2038e+01	5.2050	-2.182745	0.000311	3.110298	0.526899	0.000031
 525	5.2138e+01	5.2117	-2.151787	0.000311	3.110298	0.526899	0.000031
 526	5.2237e+01	5.2230	-2.123273	0.000286	2.864748	0.485301	0.000029
 527	5.2337e+01	5.2337	-2.093537	0.000299	2.987523	0.506100	0.000030
 528	5.2437e+01	5.2447	-2.060950	0.000327	3.273998	0.554630	0.000033
 529	5.2536e+01	5.2563	-2.029177	0.000319	3.192148	0.540764	0.000032
 530	5.2636e+01	5.2612	-1.997812	0.000315	3.151223	0.533832	0.000032
 531	5.2735e+01	5.2743	-1.965631	0.000323	3.233073	0.547697	0.000032
 532	5.2834e+01	5.2837	-1.932637	0.000331	3.314922	0.561563	0.000033
 533	5.2934e+01	5.2917	-1.900457	0.000323	3.233073	0.547697	0.000032
 534	5.3033e+01	5.3008	-1.871943	0.000286	2.864748	0.485301	0.000029
 535	5.3133e+01	5.3112	-1.841799	0.000303	3.028448	0.513033	0.000030
 536	5.3233e+01	5.3225	-1.811249	0.000307	3.069373	0.519966	0.000031
 537	5.3332e+01	5.3356	-1.779883	0.000315	3.151223	0.533832	0.000032
 538	5.3431e+01	5.3459	-1.750962	0.000291	2.905673	0.492234	0.000029
 539	5.3531e+01	5.3536	-1.721633	0.000295	2.946598	0.499167	0.000029
 540	5.3630e+01	5.3637	-1.694749	0.000270	2.701048	0.457570	0.000027
 541	5.3730e+01	5.3741	-1.660939	0.000340	3.396772	0.575429	0.000034
 542	5.3830e+01	5.3838	-1.634869	0.000262	2.619198	0.443704	0.000026
 543	5.3929e+01	5.3912	-1.606763	0.000282	2.823823	0.478369	0.000028
 544	5.4029e+01	5.4025	-1.573768	0.000331	3.314922	0.561563	0.000033
 545	5.4128e+01	5.4125	-1.545254	0.000286	2.864748	0.485301	0.000029
 546	5.4227e+01	5.4226	-1.511852	0.000336	3.355847	0.568496	0.000034
 547	5.4327e+01	5.4284	-1.484153	0.000278	2.782898	0.471436	0.000028
 548	5.4426e+01	5.4406	-1.455231	0.000291	2.905673	0.492234	0.000029
 549	5.4526e+01	5.4528	-1.423459	0.000319	3.192148	0.540764	0.000032
 550	5.4626e+01	5.4629	-1.397796	0.000258	2.578273	0.436771	0.000026
 551	5.4725e+01	5.4702	-1.364801	0.000331	3.314922	0.561563	0.000033
 552	5.4825e+01	5.4815	-1.336287	0.000286	2.864748	0.485301	0.000029
 553	5.4924e+01	5.4897	-1.306144	0.000303	3.028448	0.513033	0.000030
 554	5.5023e+01	5.5025	-1.277223	0.000291	2.905673	0.492234	0.000029
 555	5.5123e+01	5.5105	-1.245450	0.000319	3.192148	0.540764	0.000032
 556	5.5222e+01	5.5199	-1.213270	0.000323	3.233073	0.547697	0.000032
 557	5.5322e+01	5.5309	-1.181090	0.000323	3.233073	0.547697	0.000032
 558	5.5422e+01	5.5425	-1.149317	0.000319	3.192148	0.540764	0.000032
 559	5.5521e+01	5.5523	-1.114693	0.000348	3.478622	0.589295	0.000035
 560	5.5620e+01	5.5590	-1.082513	0.000323	3.233073	0.547697	0.000032
 561	5.5720e+01	5.5689	-1.054814	0.000278	2.782898	0.471436	0.000028
 562	5.5819e+01	5.5819	-1.020189	0.000348	3.478622	0.589295	0.000035
 563	5.5919e+01	5.5895	-0.988824	0.000315	3.151223	0.533832	0.000032
 564	5.6019e+01	5.5987	-0.955829	0.000331	3.314922	0.561563	0.000033
 565	5.6118e+01	5.6115	-0.924464	0.000315	3.151223	0.533832	0.000032
 566	5.6218e+01	5.6199	-0.893099	0.000315	3.151223	0.533832	0.000032
 567	5.6317e+01	5.6316	-0.856845	0.000364	3.642322	0.617026	0.000036
 568	5.6416e+01	5.6460	-0.825072	0.000319	3.192148	0.540764	0.000032
 569	5.6516e+01	5.6524	-0.794114	0.000311	3.110298	0.526899	0.000031
 570	5.6615e+01	5.6622	-0.765193	0.000291	2.905673	0.492234	0.000029
 571	5.6715e+01	5.6731	-0.728532	0.000368	3.683247	0.623959	0.000037
 572	5.6815e+01	5.6799	-0.695130	0.000336	3.355847	0.568496	0.000034
 573	5.6914e+01	5.6905	-0.666616	0.000286	2.864748	0.485301	0.000029
 574	5.7014e+01	5.7005	-0.629548	0.000372	3.724172	0.630892	0.000037
 575	5.7113e+01	5.7095	-0.598997	0.000307	3.069373	0.519966	0.000031
 576	5.7212e+01	5.7207	-0.567225	0.000319	3.192148	0.540764	0.000032
 577	5.7312e+01	5.7302	-0.535859	0.000315	3.151223	0.533832	0.000032
 578	5.7411e+01	5.7421	-0.502050	0.000340	3.396772	0.575429	0.000034
 579	5.7511e+01	5.7485	-0.467833	0.000344	3.437697	0.582362	0.000034
 580	5.7611e+01	5.7586	-0.440134	0.000278	2.782898	0.471436	0.000028
 581	5.7710e+01	5.7693	-0.402251	0.000381	3.806022	0.644758	0.000038
 582	5.7809e+01	5.7790	-0.369256	0.000331	3.314922	0.561563	0.000033
 583	5.7909e+01	5.7903	-0.337891	0.000315	3.151223	0.533832	0.000032
 584	5.8008e+01	5.8007	-0.307340	0.000307	3.069373	0.519966	0.000031
 585	5.8108e+01	5.8092	-0.272308	0.000352	3.519547	0.596227	0.000035
 586	5.8208e+01	5.8196	-0.236870	0.000356	3.560472	0.603160	0.000036
 587	5.8307e+01	5.8294	-0.203875	0.000331	3.314922	0.561563	0.000033
 588	5.8407e+01	5.8410	-0.171288	0.000327	3.273998	0.554630	0.000033
 589	5.8506e+01	5.8517	-0.131368	0.000401	4.010647	0.679422	0.000040
 590	5.8605e+01	5.8630	-0.100410	0.000311	3.110298	0.526899	0.000031
 591	5.8705e+01	5.8715	-0.064971	0.000356	3.560472	0.603160	0.000036
 592	5.8804e+01	5.8825	-0.026274	0.000389	3.887872	0.658623	0.000039
 593	5.8904e+01	5.8901	0.006314	0.000327	3.273998	0.554630	0.000033
 594	5.9004e+01	5.9002	0.042160	0.000360	3.601397	0.610093	0.000036
 595	5.9103e+01	5.9081	0.075155	0.000331	3.314922	0.561563	0.000033
 596	5.9203e+01	5.9191	0.108964	0.000340	3.396772	0.575429	0.000034
 597	5.9302e+01	5.9295	0.144403	0.000356	3.560472	0.603160	0.000036
 598	5.9401e+01	5.9368	0.178212	0.000340	3.396772	0.575429	0.000034
 599	5.9501e+01	5.9478	0.214873	0.000368	3.683247	0.623959	0.000037
 600	5.9600e+01	5.9592	0.251941	0.000372	3.724172	0.630892	0.000037
 601	5.9700e+01	5.9679	0.284121	0.000323	3.233073	0.547697	0.000032
 602	5.9800e+01	5.9763	0.317116	0.000331	3.314922	0.561563	0.000033
 603	5.9899e+01	5.9916	0.353777	0.000368	3.683247	0.623959	0.000037
 604	5.9998e+01	5.9966	0.386772	0.000331	3.314922	0.561563	0.000033
 605	6.0098e+01	6.0101	0.421803	0.000352	3.519547	0.596227	0.000035
 606	6.0197e+01	6.0192	0.454391	0.000327	3.273998	0.554630	0.000033
 607	6.0297e+01	6.0290	0.487385	0.000331	3.314922	0.561563	0.000033
 608	6.0397e+01	6.0412	0.519565	0.000323	3.233073	0.547697	0.000032
 609	6.0496e+01	6.0506	0.553375	0.000340	3.396772	0.575429	0.000034
 610	6.0596e+01	6.0601	0.584333	0.000311	3.110298	0.526899	0.000031
 611	6.0695e+01	6.0705	0.616513	0.000323	3.233073	0.547697	0.000032
 612	6.0794e+01	6.0784	0.648286	0.000319	3.192148	0.540764	0.000032
 613	6.0894e+01	6.0882	0.680466	0.000323	3.233073	0.547697	0.000032
 614	6.0993e+01	6.0992	0.711016	0.000307	3.069373	0.519966	0.000031
 615	6.1093e+01	6.1094	0.745641	0.000348	3.478622	0.589295	0.000035
 616	6.1193e+01	6.1205	0.780672	0.000352	3.519547	0.596227	0.000035
 617	6.1292e+01	6.1306	0.813667	0.000331	3.314922	0.561563	0.000033
 618	6.1392e+01	6.1395	0.842181	0.000286	2.864748	0.485301	0.000029
 619	6.1491e+01	6.1480	0.875175	0.000331	3.314922	0.561563	0.000033
 620	6.1590e+01	6.1608	0.904911	0.000299	2.987523	0.506100	0.000030
 621	6.1690e+01	6.1687	0.942794	0.000381	3.806022	0.644758	0.000038
 622	6.1789e+01	6.1785	0.976604	0.000340	3.396772	0.575429	0.000034
 623	6.1889e+01	6.1880	1.014079	0.000377	3.765097	0.637825	0.000038
 624	6.1989e+01	6.1991	1.044630	0.000307	3.069373	0.519966	0.000031
 625	6.2088e+01	6.2066	1.078439	0.000340	3.396772	0.575429	0.000034
 626	6.2188e+01	6.2182	1.110212	0.000319	3.192148	0.540764	0.000032
 627	6.2287e+01	6.2280	1.143614	0.000336	3.355847	0.568496	0.000034
 628	6.2386e+01	6.2371	1.177424	0.000340	3.396772	0.575429	0.000034
 629	6.2486e+01	6.2457	1.212048	0.000348	3.478622	0.589295	0.000035
 630	6.2586e+01	6.2560	1.241376	0.000295	2.946598	0.499167	0.000029
 631	6.2685e+01	6.2682	1.279667	0.000385	3.846947	0.651690	0.000038
 632	6.2785e+01	6.2761	1.308181	0.000286	2.864748	0.485301	0.000029
 633	6.2884e+01	6.2862	1.348508	0.000405	4.051572	0.686355	0.000041
 634	6.2983e+01	6.2994	1.378651	0.000303	3.028448	0.513033	0.000030
 635	6.3083e+01	6.3061	1.409202	0.000307	3.069373	0.519966	0.000031
 636	6.3182e+01	6.3158	1.446677	0.000377	3.765097	0.637825	0.000038
 637	6.3282e+01	6.3268	1.478857	0.000323	3.233073	0.547697	0.000032
 638	6.3382e+01	6.3354	1.510630	0.000319	3.192148	0.540764	0.000032
 639	6.3481e+01	6.3479	1.542810	0.000323	3.233073	0.547697	0.000032
 640	6.3581e+01	6.3578	1.570917	0.000282	2.823823	0.478369	0.000028
 641	6.3680e+01	6.3653	1.604319	0.000336	3.355847	0.568496	0.000034
 642	6.3779e+01	6.3750	1.634462	0.000303	3.028448	0.513033	0.000030
 643	6.3879e+01	6.3860	1.669493	0.000352	3.519547	0.596227	0.000035
 644	6.3978e+01	6.3995	1.696378	0.000270	2.701048	0.457570	0.000027
 645	6.4078e+01	6.4063	1.729373	0.000331	3.314922	0.561563	0.000033
 646	6.4177e+01	6.4172	1.757479	0.000282	2.823823	0.478369	0.000028
 647	6.4277e+01	6.4269	1.788437	0.000311	3.110298	0.526899	0.000031
 648	6.4376e+01	6.4373	1.819803	0.000315	3.151223	0.533832	0.000032
 649	6.4476e+01	6.4452	1.849539	0.000299	2.987523	0.506100	0.000030
 650	6.4576e+01	6.4556	1.884163	0.000348	3.478622	0.589295	0.000035
 651	6.4675e+01	6.4678	1.913084	0.000291	2.905673	0.492234	0.000029
 652	6.4775e+01	6.4764	1.942413	0.000295	2.946598	0.499167	0.000029
 653	6.4874e+01	6.4874	1.975000	0.000327	3.273998	0.554630	0.000033
 654	6.4974e+01	6.4941	2.005144	0.000303	3.028448	0.513033	0.000030
 655	6.5073e+01	6.5075	2.032028	0.000270	2.701048	0.457570	0.000027
 656	6.5172e+01	6.5157	2.066245	0.000344	3.437697	0.582362	0.000034
 657	6.5272e+01	6.5301	2.095981	0.000299	2.987523	0.506100	0.000030
 658	6.5371e+01	6.5365	2.126532	0.000307	3.069373	0.519966	0.000031
 659	6.5471e+01	6.5441	2.155860	0.000295	2.946598	0.499167	0.000029
 660	6.5570e+01	6.5546	2.186411	0.000307	3.069373	0.519966	0.000031
 661	6.5670e+01	6.5655	2.216962	0.000307	3.069373	0.519966	0.000031
 662	6.5769e+01	6.5765	2.247513	0.000307	3.069373	0.519966	0.000031
 663	6.5869e+01	6.5844	2.277656	0.000303	3.028448	0.513033	0.000030
 664	6.5969e+01	6.5972	2.309836	0.000323	3.233073	0.547697	0.000032
 665	6.6068e+01	6.6048	2.341201	0.000315	3.151223	0.533832	0.000032
 666	6.6168e+01	6.6146	2.373789	0.000327	3.273998	0.554630	0.000033
 667	6.6267e+01	6.6244	2.402303	0.000286	2.864748	0.485301	0.000029
 668	6.6367e+01	6.6357	2.428780	0.000266	2.660123	0.450637	0.000027
 669	6.6466e+01	6.6442	2.460960	0.000323	3.233073	0.547697	0.000032
 670	6.6566e+01	6.6564	2.490289	0.000295	2.946598	0.499167	0.000029
 671	6.6665e+01	6.6662	2.517581	0.000274	2.741973	0.464503	0.000027
 672	6.6764e+01	6.6747	2.546095	0.000286	2.864748	0.485301	0.000029
 673	6.6864e+01	6.6863	2.570128	0.000241	2.414573	0.409040	0.000024
 674	6.6963e+01	6.6956	2.600679	0.000307	3.069373	0.519966	0.000031
 675	6.7063e+01	6.7040	2.627970	0.000274	2.741973	0.464503	0.000027
 676	6.7162e+01	6.7150	2.656077	0.000282	2.823823	0.478369	0.000028
 677	6.7262e+01	6.7245	2.685406	0.000295	2.946598	0.499167	0.000029
 678	6.7362e+01	6.7352	2.712698	0.000274	2.741973	0.464503	0.000027
 679	6.7461e+01	6.7480	2.739990	0.000274	2.741973	0.464503	0.000027
 680	6.7561e+01	6.7577	2.773799	0.000340	3.396772	0.575429	0.000034
 681	6.7660e+01	6.7672	2.800276	0.000266	2.660123	0.450637	0.000027
 682	6.7760e+01	6.7754	2.825532	0.000254	2.537348	0.429838	0.000025
 683	6.7859e+01	6.7840	2.854453	0.000291	2.905673	0.492234	0.000029
 684	6.7959e+01	6.7934	2.885411	0.000311	3.110298	0.526899	0.000031
 685	6.8058e+01	6.8069	2.913110	0.000278	2.782898	0.471436	0.000028
 686	6.8157e+01	6.8176	2.942032	0.000291	2.905673	0.492234	0.000029
 687	6.8257e+01	6.8249	2.970953	0.000291	2.905673	0.492234	0.000029
 688	6.8356e+01	6.8357	2.999060	0.000282	2.823823	0.478369	0.000028
 689	6.8456e+01	6.8459	3.029610	0.000307	3.069373	0.519966	0.000031
 690	6.8555e+01	6.8572	3.055273	0.000258	2.578273	0.436771	0.000026
 691	6.8655e+01	6.8658	3.087860	0.000327	3.273998	0.554630	0.000033
 692	6.8754e+01	6.8749	3.116374	0.000286	2.864748	0.485301	0.000029
 693	6.8854e+01	6.8833	3.144888	0.000286	2.864748	0.485301	0.000029
 694	6.8954e+01	6.8941	3.177068	0.000323	3.233073	0.547697	0.000032
 695	6.9053e+01	6.9035	3.207619	0.000307	3.069373	0.519966	0.000031
 696	6.9153e+01	6.9152	3.240206	0.000327	3.273998	0.554630	0.000033
 697	6.9252e+01	6.9244	3.272386	0.000323	3.233073	0.547697	0.000032
 698	6.9352e+01	6.9341	3.302122	0.000299	2.987523	0.506100	0.000030
 699	6.9451e+01	6.9463	3.332266	0.000303	3.028448	0.513033	0.000030
 700	6.9550e+01	6.9558	3.361594	0.000295	2.946598	0.499167	0.000029
 701	6.9650e+01	6.9628	3.394996	0.000336	3.355847	0.568496	0.000034
 702	6.9749e+01	6.9750	3.429213	0.000344	3.437697	0.582362	0.000034
 703	6.9849e+01	6.9842	3.457727	0.000286	2.864748	0.485301	0.000029
 704	6.9948e+01	6.9949	3.487871	0.000303	3.028448	0.513033	0.000030
 705	7.0048e+01	7.0019	3.517199	0.000295	2.946598	0.499167	0.000029
 706	7.0147e+01	7.0110	3.547343	0.000303	3.028448	0.513033	0.000030
 707	7.0247e+01	7.0263	3.576671	0.000295	2.946598	0.499167	0.000029
 708	7.0347e+01	7.0312	3.606815	0.000303	3.028448	0.513033	0.000030
 709	7.0446e+01	7.0422	3.637365	0.000307	3.069373	0.519966	0.000031
 710	7.0546e+01	7.0544	3.666287	0.000291	2.905673	0.492234	0.000029
 711	7.0645e+01	7.0628	3.698059	0.000319	3.192148	0.540764	0.000032
 712	7.0745e+01	7.0745	3.728203	0.000303	3.028448	0.513033	0.000030
 713	7.0844e+01	7.0824	3.757124	0.000291	2.905673	0.492234	0.000029
 714	7.0944e+01	7.0950	3.790933	0.000340	3.396772	0.575429	0.000034
 715	7.1043e+01	7.1047	3.822299	0.000315	3.151223	0.533832	0.000032
 716	7.1142e+01	7.1136	3.849998	0.000278	2.782898	0.471436	0.000028
 717	7.1242e+01	7.1209	3.880549	0.000307	3.069373	0.519966	0.000031
 718	7.1341e+01	7.1355	3.909877	0.000295	2.946598	0.499167	0.000029
 719	7.1441e+01	7.1429	3.940428	0.000307	3.069373	0.519966	0.000031
 720	7.1540e+01	7.1551	3.972608	0.000323	3.233073	0.547697	0.000032
 721	7.1640e+01	7.1600	4.003974	0.000315	3.151223	0.533832	0.000032
 722	7.1740e+01	7.1717	4.034524	0.000307	3.069373	0.519966	0.000031
 723	7.1839e+01	7.1795	4.066297	0.000319	3.192148	0.540764	0.000032
 724	7.1939e+01	7.1952	4.101328	0.000352	3.519547	0.596227	0.000035
 725	7.2038e+01	7.2033	4.131879	0.000307	3.069373	0.519966	0.000031
 726	7.2138e+01	7.2124	4.166096	0.000344	3.437697	0.582362	0.000034
 727	7.2237e+01	7.2234	4.200313	0.000344	3.437697	0.582362	0.000034
 728	7.2337e+01	7.2332	4.232493	0.000323	3.233073	0.547697	0.000032
 729	7.2436e+01	7.2414	4.268339	0.000360	3.601397	0.610093	0.000036
 730	7.2535e+01	7.2533	4.301741	0.000336	3.355847	0.568496	0.000034
 731	7.2635e+01	7.2637	4.337587	0.000360	3.601397	0.610093	0.000036
 732	7.2734e+01	7.2717	4.369767	0.000323	3.233073	0.547697	0.000032
 733	7.2834e+01	7.2836	4.401540	0.000319	3.192148	0.540764	0.000032
 734	7.2933e+01	7.2948	4.433720	0.000323	3.233073	0.547697	0.000032
 735	7.3033e+01	7.3034	4.471603	0.000381	3.806022	0.644758	0.000038
 736	7.3132e+01	7.3144	4.502561	0.000311	3.110298	0.526899	0.000031
 737	7.3232e+01	7.3241	4.537185	0.000348	3.478622	0.589295	0.000035
 738	7.3332e+01	7.3302	4.572624	0.000356	3.560472	0.603160	0.000036
 739	7.3431e+01	7.3412	4.608063	0.000356	3.560472	0.603160	0.000036
 740	7.3531e+01	7.3528	4.642687	0.000348	3.478622	0.589295	0.000035
 741	7.3630e+01	7.3629	4.675274	0.000327	3.273998	0.554630	0.000033
 742	7.3730e+01	7.3705	4.711528	0.000364	3.642322	0.617026	0.000036
 743	7.3829e+01	7.3815	4.742486	0.000311	3.110298	0.526899	0.000031
 744	7.3928e+01	7.3937	4.780369	0.000381	3.806022	0.644758	0.000038
 745	7.4028e+01	7.4023	4.812549	0.000323	3.233073	0.547697	0.000032
 746	7.4127e+01	7.4163	4.849617	0.000372	3.724172	0.630892	0.000037
 747	7.4227e+01	7.4255	4.885870	0.000364	3.642322	0.617026	0.000036
 748	7.4326e+01	7.4316	4.916828	0.000311	3.110298	0.526899	0.000031
 749	7.4426e+01	7.4413	4.953896	0.000372	3.724172	0.630892	0.000037
 750	7.4525e+01	7.4529	4.988521	0.000348	3.478622	0.589295	0.000035
 751	7.4625e+01	7.4651	5.023959	0.000356	3.560472	0.603160	0.000036
 752	7.4725e+01	7.4728	5.059398	0.000356	3.560472	0.603160	0.000036
 753	7.4824e+01	7.4828	5.094022	0.000348	3.478622	0.589295	0.000035
 754	7.4924e+01	7.4944	5.132720	0.000389	3.887872	0.658623	0.000039
 755	7.5023e+01	7.5018	5.172639	0.000401	4.010647	0.679422	0.000040
 756	7.5123e+01	7.5103	5.208893	0.000364	3.642322	0.617026	0.000036
 757	7.5222e+01	7.5201	5.247998	0.000393	3.928797	0.665556	0.000039
 758	7.5322e+01	7.5304	5.285473	0.000377	3.765097	0.637825	0.000038
 759	7.5421e+01	7.5408	5.324578	0.000393	3.928797	0.665556	0.000039
 760	7.5520e+01	7.5507	5.362461	0.000381	3.806022	0.644758	0.000038
 761	7.5620e+01	7.5616	5.399937	0.000377	3.765097	0.637825	0.000038
 762	7.5719e+01	7.5695	5.439041	0.000393	3.928797	0.665556	0.000039
 763	7.5819e+01	7.5826	5.472851	0.000340	3.396772	0.575429	0.000034
 764	7.5918e+01	7.5896	5.513585	0.000409	4.092497	0.693288	0.000041
 765	7.6018e+01	7.6043	5.553912	0.000405	4.051572	0.686355	0.000041
 766	7.6118e+01	7.6110	5.593017	0.000393	3.928797	0.665556	0.000039
 767	7.6217e+01	7.6208	5.631307	0.000385	3.846947	0.651690	0.000038
 768	7.6317e+01	7.6310	5.670819	0.000397	3.969722	0.672489	0.000040
 769	7.6416e+01	7.6397	5.707073	0.000364	3.642322	0.617026	0.000036
 770	7.6516e+01	7.6492	5.745770	0.000389	3.887872	0.658623	0.000039
 771	7.6615e+01	7.6592	5.785283	0.000397	3.969722	0.672489	0.000040
 772	7.6715e+01	7.6702	5.822758	0.000377	3.765097	0.637825	0.000038
 773	7.6814e+01	7.6785	5.859826	0.000372	3.724172	0.630892	0.000037
 774	7.6913e+01	7.6897	5.895265	0.000356	3.560472	0.603160	0.000036
 775	7.7013e+01	7.6995	5.931926	0.000368	3.683247	0.623959	0.000037
 776	7.7112e+01	7.7123	5.970216	0.000385	3.846947	0.651690	0.000038
 777	7.7212e+01	7.7215	6.006062	0.000360	3.601397	0.610093	0.000036
 778	7.7311e+01	7.7312	6.045574	0.000397	3.969722	0.672489	0.000040
 779	7.7411e+01	7.7398	6.082235	0.000368	3.683247	0.623959	0.000037
 780	7.7510e+01	7.7514	6.120933	0.000389	3.887872	0.658623	0.000039
 781	7.7610e+01	7.7608	6.155150	0.000344	3.437697	0.582362	0.000034
 782	7.7710e+01	7.7721	6.195477	0.000405	4.051572	0.686355	0.000041
 783	7.7809e+01	7.7789	6.230508	0.000352	3.519547	0.596227	0.000035
 784	7.7909e+01	7.7901	6.267576	0.000372	3.724172	0.630892	0.000037
 785	7.8008e+01	7.7984	6.305052	0.000377	3.765097	0.637825	0.000038
 786	7.8108e+01	7.8100	6.342120	0.000372	3.724172	0.630892	0.000037
 787	7.8207e+01	7.8191	6.378373	0.000364	3.642322	0.617026	0.000036
 788	7.8306e+01	7.8295	6.417886	0.000397	3.969722	0.672489	0.000040
 789	7.8406e+01	7.8399	6.454546	0.000368	3.683247	0.623959	0.000037
 790	7.8505e+01	7.8495	6.492429	0.000381	3.806022	0.644758	0.000038
 791	7.8605e+01	7.8606	6.531127	0.000389	3.887872	0.658623	0.000039
 792	7.8704e+01	7.8695	6.572268	0.000413	4.133422	0.700221	0.000041
 793	7.8804e+01	7.8802	6.610559	0.000385	3.846947	0.651690	0.000038
 794	7.8903e+01	7.8896	6.650478	0.000401	4.010647	0.679422	0.000040
 795	7.9003e+01	7.8996	6.688768	0.000385	3.846947	0.651690	0.000038
 796	7.9103e+01	7.9104	6.724615	0.000360	3.601397	0.610093	0.000036
 797	7.9202e+01	7.9192	6.765349	0.000409	4.092497	0.693288	0.000041
 798	7.9302e+01	7.9293	6.802417	0.000372	3.724172	0.630892	0.000037
 799	7.9401e+01	7.9406	6.843966	0.000417	4.174347	0.707153	0.000042
 800	7.9501e+01	7.9479	6.883885	0.000401	4.010647	0.679422	0.000040
 801	7.9600e+01	7.9575	6.927878	0.000442	4.419897	0.748751	0.000044
 802	7.9700e+01	7.9678	6.967391	0.000397	3.969722	0.672489	0.000040
 803	7.9799e+01	7.9815	7.007718	0.000405	4.051572	0.686355	0.000041
 804	7.9898e+01	7.9906	7.046415	0.000389	3.887872	0.658623	0.000039
 805	7.9998e+01	7.9992	7.092445	0.000462	4.624521	0.783415	0.000046
 806	8.0097e+01	8.0087	7.130735	0.000385	3.846947	0.651690	0.000038
 807	8.0197e+01	8.0181	7.167396	0.000368	3.683247	0.623959	0.000037
 808	8.0296e+01	8.0271	7.201613	0.000344	3.437697	0.582362	0.000034
 809	8.0396e+01	8.0393	7.242347	0.000409	4.092497	0.693288	0.000041
 810	8.0496e+01	8.0486	7.279008	0.000368	3.683247	0.623959	0.000037
 811	8.0595e+01	8.0572	7.316891	0.000381	3.806022	0.644758	0.000038
 812	8.0695e+01	8.0682	7.353144	0.000364	3.642322	0.617026	0.000036
 813	8.0794e+01	8.0795	7.391027	0.000381	3.806022	0.644758	0.000038
 814	8.0894e+01	8.0889	7.428502	0.000377	3.765097	0.637825	0.000038
 815	8.0993e+01	8.0956	7.463534	0.000352	3.519547	0.596227	0.000035
 816	8.1093e+01	8.1091	7.501824	0.000385	3.846947	0.651690	0.000038
 817	8.1192e+01	8.1176	7.535226	0.000336	3.355847	0.568496	0.000034
 818	8.1291e+01	8.1274	7.574331	0.000393	3.928797	0.665556	0.000039
 819	8.1391e+01	8.1377	7.615473	0.000413	4.133422	0.700221	0.000041
 820	8.1490e+01	8.1493	7.651319	0.000360	3.601397	0.610093	0.000036
 821	8.1590e+01	8.1579	7.684314	0.000331	3.314922	0.561563	0.000033
 822	8.1689e+01	8.1676	7.724640	0.000405	4.051572	0.686355	0.000041
 823	8.1789e+01	8.1753	7.762116	0.000377	3.765097	0.637825	0.000038
 824	8.1888e+01	8.1924	7.800814	0.000389	3.887872	0.658623	0.000039
 825	8.1988e+01	8.1994	7.837882	0.000372	3.724172	0.630892	0.000037
 826	8.2088e+01	8.2088	7.869247	0.000315	3.151223	0.533832	0.000032
 827	8.2187e+01	8.2177	7.908352	0.000393	3.928797	0.665556	0.000039
 828	8.2287e+01	8.2287	7.942976	0.000348	3.478622	0.589295	0.000035
 829	8.2386e+01	8.2384	7.984118	0.000413	4.133422	0.700221	0.000041
 830	8.2486e+01	8.2476	8.022408	0.000385	3.846947	0.651690	0.000038
 831	8.2585e+01	8.2568	8.057439	0.000352	3.519547	0.596227	0.000035
 832	8.2684e+01	8.2641	8.094508	0.000372	3.724172	0.630892	0.000037
 833	8.2784e+01	8.2757	8.134427	0.000401	4.010647	0.679422	0.000040
 834	8.2883e+01	8.2891	8.168644	0.000344	3.437697	0.582362	0.000034
 835	8.2983e+01	8.3016	8.206934	0.000385	3.846947	0.651690	0.000038
 836	8.3082e+01	8.3073	8.244817	0.000381	3.806022	0.644758	0.000038
 837	8.3182e+01	8.3166	8.280663	0.000360	3.601397	0.610093	0.000036
 838	8.3281e+01	8.3260	8.316102	0.000356	3.560472	0.603160	0.000036
 839	8.3381e+01	8.3331	8.349504	0.000336	3.355847	0.568496	0.000034
 840	8.3481e+01	8.3489	8.388201	0.000389	3.887872	0.658623	0.000039
 841	8.3580e+01	8.3562	8.422826	0.000348	3.478622	0.589295	0.000035
 842	8.3680e+01	8.3672	8.460301	0.000377	3.765097	0.637825	0.000038
 843	8.3779e+01	8.3758	8.496147	0.000360	3.601397	0.610093	0.000036
 844	8.3879e+01	8.3892	8.531586	0.000356	3.560472	0.603160	0.000036
 845	8.3978e+01	8.3962	8.567432	0.000360	3.601397	0.610093	0.000036
 846	8.4078e+01	8.4063	8.605722	0.000385	3.846947	0.651690	0.000038
 847	8.4177e+01	8.4188	8.645235	0.000397	3.969722	0.672489	0.000040
 848	8.4276e+01	8.4286	8.681488	0.000364	3.642322	0.617026	0.000036
 849	8.4376e+01	8.4365	8.717742	0.000364	3.642322	0.617026	0.000036
 850	8.4475e+01	8.4454	8.751551	0.000340	3.396772	0.575429	0.000034
 851	8.4575e+01	8.4570	8.787397	0.000360	3.601397	0.610093	0.000036
 852	8.4674e+01	8.4655	8.828131	0.000409	4.092497	0.693288	0.000041
 853	8.4774e+01	8.4759	8.868051	0.000401	4.010647	0.679422	0.000040
 854	8.4874e+01	8.4905	8.903897	0.000360	3.601397	0.610093	0.000036
 855	8.4973e+01	8.4972	8.942595	0.000389	3.887872	0.658623	0.000039
 856	8.5073e+01	8.5058	8.984551	0.000422	4.215272	0.714086	0.000042
 857	8.5172e+01	8.5186	9.022027	0.000377	3.765097	0.637825	0.000038
 858	8.5272e+01	8.5253	9.063168	0.000413	4.133422	0.700221	0.000041
 859	8.5371e+01	8.5372	9.103902	0.000409	4.092497	0.693288	0.000041
 860	8.5471e+01	8.5473	9.147488	0.000438	4.378972	0.741818	0.000044
 861	8.5570e+01	8.5558	9.189852	0.000426	4.256197	0.721019	0.000043
 862	8.5669e+01	8.5668	9.227327	0.000377	3.765097	0.637825	0.000038
 863	8.5769e+01	8.5784	9.266432	0.000393	3.928797	0.665556	0.000039
 864	8.5868e+01	8.5867	9.313684	0.000475	4.747296	0.804214	0.000047
 865	8.5968e+01	8.5986	9.355233	0.000417	4.174347	0.707153	0.000042
 866	8.6067e+01	8.6053	9.397189	0.000422	4.215272	0.714086	0.000042
 867	8.6167e+01	8.6156	9.440367	0.000434	4.338047	0.734885	0.000043
 868	8.6266e+01	8.6272	9.483546	0.000434	4.338047	0.734885	0.000043
 869	8.6366e+01	8.6333	9.523873	0.000405	4.051572	0.686355	0.000041
 870	8.6466e+01	8.6443	9.569088	0.000454	4.542672	0.769549	0.000045
 871	8.6565e+01	8.6541	9.610229	0.000413	4.133422	0.700221	0.000041
 872	8.6665e+01	8.6663	9.653407	0.000434	4.338047	0.734885	0.000043
 873	8.6764e+01	8.6736	9.698622	0.000454	4.542672	0.769549	0.000045
 874	8.6864e+01	8.6822	9.738949	0.000405	4.051572	0.686355	0.000041
 875	8.6963e+01	8.6974	9.785794	0.000471	4.706371	0.797281	0.000047
 876	8.7063e+01	8.7057	9.826121	0.000405	4.051572	0.686355	0.000041
 877	8.7162e+01	8.7136	9.869299	0.000434	4.338047	0.734885	0.000043
 878	8.7261e+01	8.7247	9.911255	0.000422	4.215272	0.714086	0.000042
 879	8.7361e+01	8.7368	9.953619	0.000426	4.256197	0.721019	0.000043
 880	8.7460e+01	8.7463	10.000463	0.000471	4.706371	0.797281	0.000047
 881	8.7560e+01	8.7554	10.043234	0.000430	4.297122	0.727952	0.000043
 882	8.7659e+01	8.7640	10.087635	0.000446	4.460822	0.755684	0.000045
 883	8.7759e+01	8.7749	10.130813	0.000434	4.338047	0.734885	0.000043
 884	8.7859e+01	8.7841	10.172769	0.000422	4.215272	0.714086	0.000042
 885	8.7958e+01	8.7981	10.219614	0.000471	4.706371	0.797281	0.000047
 886	8.8058e+01	8.8055	10.259941	0.000405	4.051572	0.686355	0.000041
 887	8.8157e+01	8.8143	10.308822	0.000491	4.910996	0.831945	0.000049
 888	8.8257e+01	8.8238	10.351185	0.000426	4.256197	0.721019	0.000043
 889	8.8356e+01	8.8317	10.398437	0.000475	4.747296	0.804214	0.000047
 890	8.8456e+01	8.8415	10.447725	0.000495	4.951921	0.838878	0.000050
 891	8.8555e+01	8.8537	10.494977	0.000475	4.747296	0.804214	0.000047
 892	8.8654e+01	8.8641	10.545488	0.000507	5.074696	0.859677	0.000051
 893	8.8754e+01	8.8744	10.592739	0.000475	4.747296	0.804214	0.000047
 894	8.8853e+01	8.8842	10.642028	0.000495	4.951921	0.838878	0.000050
 895	8.8953e+01	8.8943	10.689687	0.000479	4.788221	0.811147	0.000048
 896	8.9052e+01	8.9056	10.740605	0.000512	5.115621	0.866610	0.000051
 897	8.9152e+01	8.9144	10.790708	0.000503	5.033771	0.852744	0.000050
 898	8.9251e+01	8.9227	10.843662	0.000532	5.320246	0.901274	0.000053
 899	8.9351e+01	8.9342	10.892951	0.000495	4.951921	0.838878	0.000050
 900	8.9451e+01	8.9452	10.941832	0.000491	4.910996	0.831945	0.000049
 901	8.9550e+01	8.9526	10.990306	0.000487	4.870071	0.825012	0.000049
 902	8.9650e+01	8.9623	11.046519	0.000565	5.647646	0.956737	0.000056
 903	8.9749e+01	8.9758	11.094178	0.000479	4.788221	0.811147	0.000048
 904	8.9849e+01	8.9849	11.149577	0.000557	5.565796	0.942871	0.000056
 905	8.9948e+01	8.9977	11.198865	0.000495	4.951921	0.838878	0.000050
 906	9.0047e+01	9.0044	11.253856	0.000552	5.524871	0.935938	0.000055
 907	9.0147e+01	9.0105	11.309255	0.000557	5.565796	0.942871	0.000056
 908	9.0246e+01	9.0228	11.362209	0.000532	5.320246	0.901274	0.000053
 909	9.0346e+01	9.0319	11.415571	0.000536	5.361171	0.908207	0.000054
 910	9.0445e+01	9.0447	11.473007	0.000577	5.770421	0.977536	0.000058
 911	9.0545e+01	9.0545	11.530442	0.000577	5.770421	0.977536	0.000058
 912	9.0644e+01	9.0630	11.582989	0.000528	5.279321	0.894341	0.000053
 913	9.0744e+01	9.0759	11.640017	0.000573	5.729496	0.970603	0.000057
 914	9.0844e+01	9.0829	11.696230	0.000565	5.647646	0.956737	0.000056
 915	9.0943e+01	9.0929	11.750407	0.000544	5.443021	0.922073	0.000054
 916	9.1043e+01	9.1015	11.804991	0.000548	5.483946	0.929006	0.000055
 917	9.1142e+01	9.1131	11.866500	0.000618	6.179670	1.046864	0.000062
 918	9.1242e+01	9.1235	11.922305	0.000561	5.606721	0.949804	0.000056
 919	9.1341e+01	9.1326	11.980148	0.000581	5.811346	0.984469	0.000058
 920	9.1441e+01	9.1451	12.039620	0.000598	5.975045	1.012200	0.000060
 921	9.1540e+01	9.1534	12.101944	0.000626	6.261520	1.060730	0.000063
 922	9.1639e+01	9.1595	12.162230	0.000606	6.056895	1.026066	0.000061
 923	9.1739e+01	9.1747	12.226590	0.000647	6.466145	1.095395	0.000065
 924	9.1838e+01	9.1808	12.292580	0.000663	6.629845	1.123126	0.000066
 925	9.1938e+01	9.1961	12.357347	0.000651	6.507070	1.102328	0.000065
 926	9.2037e+01	9.2022	12.420893	0.000638	6.384295	1.081529	0.000064
 927	9.2137e+01	9.2129	12.484438	0.000638	6.384295	1.081529	0.000064
 928	9.2237e+01	9.2242	12.545947	0.000618	6.179670	1.046864	0.000062
 929	9.2336e+01	9.2339	12.611122	0.000655	6.547995	1.109260	0.000066
 930	9.2436e+01	9.2425	12.679555	0.000688	6.875395	1.164723	0.000069
 931	9.2535e+01	9.2529	12.738620	0.000593	5.934120	1.005267	0.000059
 932	9.2635e+01	9.2654	12.804609	0.000663	6.629845	1.123126	0.000066
 933	9.2734e+01	9.2715	12.867748	0.000634	6.343370	1.074596	0.000063
 934	9.2834e+01	9.2828	12.935774	0.000683	6.834470	1.157791	0.000068
 935	9.2933e+01	9.2937	13.003800	0.000683	6.834470	1.157791	0.000068
 936	9.3032e+01	9.3029	13.074270	0.000708	7.080020	1.199388	0.000071
 937	9.3132e+01	9.3127	13.139852	0.000659	6.588920	1.116193	0.000066
 938	9.3231e+01	9.3194	13.207879	0.000683	6.834470	1.157791	0.000068
 939	9.3331e+01	9.3319	13.276312	0.000688	6.875395	1.164723	0.000069
 940	9.3430e+01	9.3389	13.343524	0.000675	6.752620	1.143925	0.000068
 941	9.3530e+01	9.3530	13.412772	0.000696	6.957245	1.178589	0.000070
 942	9.3629e+01	9.3645	13.475910	0.000634	6.343370	1.074596	0.000063
 943	9.3729e+01	9.3719	13.541899	0.000663	6.629845	1.123126	0.000066
 944	9.3829e+01	9.3798	13.613184	0.000716	7.161870	1.213254	0.000072
 945	9.3928e+01	9.3908	13.679989	0.000671	6.711695	1.136992	0.000067
 946	9.4028e+01	9.4006	13.749237	0.000696	6.957245	1.178589	0.000070
 947	9.4127e+01	9.4115	13.823780	0.000749	7.489269	1.268717	0.000075
 948	9.4227e+01	9.4192	13.899139	0.000757	7.571119	1.282582	0.000076
 949	9.4326e+01	9.4317	13.971646	0.000728	7.284644	1.234052	0.000073
 950	9.4425e+01	9.4402	14.042116	0.000708	7.080020	1.199388	0.000071
 951	9.4525e+01	9.4537	14.116660	0.000749	7.489269	1.268717	0.000075
 952	9.4624e+01	9.4634	14.192426	0.000761	7.612044	1.289515	0.000076
 953	9.4724e+01	9.4707	14.270228	0.000782	7.816669	1.324180	0.000078
 954	9.4823e+01	9.4817	14.349660	0.000798	7.980369	1.351911	0.000080
 955	9.4923e+01	9.4903	14.426647	0.000773	7.734819	1.310314	0.000077
 956	9.5022e+01	9.5013	14.508931	0.000827	8.266844	1.400441	0.000083
 957	9.5122e+01	9.5150	14.585918	0.000773	7.734819	1.310314	0.000077
 958	9.5222e+01	9.5229	14.670646	0.000851	8.512394	1.442038	0.000085
 959	9.5321e+01	9.5293	14.746004	0.000757	7.571119	1.282582	0.000076
 960	9.5421e+01	9.5397	14.833990	0.000884	8.839793	1.497502	0.000088
 961	9.5520e+01	9.5513	14.915051	0.000814	8.144069	1.379643	0.000081
 962	9.5620e+01	9.5629	14.996520	0.000818	8.184994	1.386575	0.000082
 963	9.5719e+01	9.5715	15.079618	0.000835	8.348694	1.414307	0.000084
 964	9.5819e+01	9.5806	15.160679	0.000814	8.144069	1.379643	0.000081
 965	9.5918e+01	9.5898	15.245813	0.000855	8.553318	1.448971	0.000086
 966	9.6017e+01	9.6001	15.328504	0.000831	8.307769	1.407374	0.000083
 967	9.6117e+01	9.6124	15.409158	0.000810	8.103144	1.372710	0.000081
 968	9.6216e+01	9.6209	15.497144	0.000884	8.839793	1.497502	0.000088
 969	9.6316e+01	9.6313	15.584315	0.000876	8.757943	1.483636	0.000088
 970	9.6415e+01	9.6413	15.671079	0.000872	8.717018	1.476703	0.000087
 971	9.6515e+01	9.6523	15.750511	0.000798	7.980369	1.351911	0.000080
 972	9.6615e+01	9.6606	15.836460	0.000864	8.635168	1.462837	0.000086
 973	9.6714e+01	9.6667	15.921595	0.000855	8.553318	1.448971	0.000086
 974	9.6814e+01	9.6813	16.009581	0.000884	8.839793	1.497502	0.000088
 975	9.6913e+01	9.6908	16.095530	0.000864	8.635168	1.462837	0.000086
 976	9.7013e+01	9.6984	16.178628	0.000835	8.348694	1.414307	0.000084
 977	9.7112e+01	9.7137	16.274761	0.000966	9.658293	1.636159	0.000097
 978	9.7212e+01	9.7204	16.366005	0.000917	9.167193	1.552965	0.000092
 979	9.7311e+01	9.7289	16.460509	0.000949	9.494593	1.608428	0.000095
 980	9.7410e+01	9.7387	16.549310	0.000892	8.921643	1.511367	0.000089
 981	9.7510e+01	9.7497	16.647072	0.000982	9.821993	1.663891	0.000098
 982	9.7609e+01	9.7588	16.738316	0.000917	9.167193	1.552965	0.000092
 983	9.7709e+01	9.7689	16.832005	0.000941	9.412743	1.594562	0.000094
 984	9.7808e+01	9.7784	16.927731	0.000962	9.617368	1.629226	0.000096
 985	9.7908e+01	9.7900	17.022234	0.000949	9.494593	1.608428	0.000095
 986	9.8007e+01	9.7973	17.116330	0.000945	9.453668	1.601495	0.000095
 987	9.8107e+01	9.8083	17.206760	0.000909	9.085343	1.539099	0.000091
 988	9.8207e+01	9.8199	17.304523	0.000982	9.821993	1.663891	0.000098
 989	9.8306e+01	9.8266	17.398619	0.000945	9.453668	1.601495	0.000095
 990	9.8406e+01	9.8388	17.498010	0.000999	9.985692	1.691622	0.000100
 991	9.8505e+01	9.8498	17.597402	0.000999	9.985692	1.691622	0.000100
 992	9.8605e+01	9.8602	17.692313	0.000954	9.535518	1.615360	0.000095
 993	9.8704e+01	9.8660	17.786001	0.000941	9.412743	1.594562	0.000094
 994	9.8803e+01	9.8772	17.882134	0.000966	9.658293	1.636159	0.000097
 995	9.8903e+01	9.8882	17.981119	0.000994	9.944767	1.684689	0.000099
 996	9.9002e+01	9.8980	18.088250	0.001076	10.763267	1.823347	0.000108
 997	9.9102e+01	9.9105	18.192937	0.001052	10.517717	1.781749	0.000105
 998	9.9201e+01	9.9181	18.293550	0.001011	10.108467	1.712421	0.000101
 999	9.9301e+01	9.9297	18.403125	0.001101	11.008817	1.864944	0.000110
1000	9.9400e+01	9.9389	18.515552	0.001130	11.295291	1.913474	0.000113
1001	9.9500e+01	9.9523	18.628386	0.001134	11.336216	1.920407	0.000113
1002	9.9600e+01	9.9615	18.735110	0.001072	10.722342	1.816414	0.000107
1003	9.9699e+01	9.9706	18.840204	0.001056	10.558642	1.788682	0.000106
1004	9.9799e+01	9.9773	18.950187	0.001105	11.049742	1.871877	0.000111
1005	9.9898e+01	9.9895	19.062613	0.001130	11.295291	1.913474	0.000113
1006	9.9998e+01	9.9999	19.171781	0.001097	10.967892	1.858011	0.000110
1007	1.0010e+02	9.9892	19.242658	-0.000712	-7.120945	-1.206321	0.000071
1008	1.0020e+02	9.9804	19.310685	-0.000683	-6.834470	-1.157791	0.000068
1009	1.0030e+02	9.9664	19.376267	-0.000659	-6.588920	-1.116193	0.000066
1010	1.0040e+02	9.9596	19.438590	-0.000626	-6.261520	-1.060730	0.000063
1011	1.0050e+02	9.9493	19.492767	-0.000544	-5.443021	-0.922073	0.000054
1012	1.0059e+02	9.9407	19.555090	-0.000626	-6.261520	-1.060730	0.000063
1013	1.0069e+02	9.9297	19.616599	-0.000618	-6.179670	-1.046864	0.000062
1014	1.0079e+02	9.9200	19.674442	-0.000581	-5.811346	-0.984469	0.000058
1015	1.0089e+02	9.9096	19.727803	-0.000536	-5.361171	-0.908207	0.000054
1016	1.0099e+02	9.8986	19.779536	-0.000520	-5.197471	-0.880475	0.000052
1017	1.0109e+02	9.8901	19.828417	-0.000491	-4.910996	-0.831945	0.000049
1018	1.0119e+02	9.8809	19.877705	-0.000495	-4.951921	-0.838878	0.000050
1019	1.0129e+02	9.8696	19.930660	-0.000532	-5.320246	-0.901274	0.000053
1020	1.0139e+02	9.8602	19.980356	-0.000499	-4.992846	-0.845811	0.000050
1021	1.0149e+02	9.8492	20.025571	-0.000454	-4.542672	-0.769549	0.000045
1022	1.0159e+02	9.8406	20.071601	-0.000462	-4.624521	-0.783415	0.000046
1023	1.0169e+02	9.8290	20.116816	-0.000454	-4.542672	-0.769549	0.000045
1024	1.0179e+02	9.8223	20.162031	-0.000454	-4.542672	-0.769549	0.000045
1025	1.0189e+02	9.8089	20.206024	-0.000442	-4.419897	-0.748751	0.000044
1026	1.0199e+02	9.7976	20.252053	-0.000462	-4.624521	-0.783415	0.000046
1027	1.0209e+02	9.7900	20.293195	-0.000413	-4.133422	-0.700221	0.000041
1028	1.0219e+02	9.7802	20.335151	-0.000422	-4.215272	-0.714086	0.000042
1029	1.0229e+02	9.7686	20.375478	-0.000405	-4.051572	-0.686355	0.000041
1030	1.0239e+02	9.7594	20.414583	-0.000393	-3.928797	-0.665556	0.000039
1031	1.0248e+02	9.7515	20.454503	-0.000401	-4.010647	-0.679422	0.000040
1032	1.0258e+02	9.7411	20.501347	-0.000471	-4.706371	-0.797281	0.000047
1033	1.0268e+02	9.7320	20.538415	-0.000372	-3.724172	-0.630892	0.000037
1034	1.0278e+02	9.7222	20.577520	-0.000393	-3.928797	-0.665556	0.000039
1035	1.0288e+02	9.7112	20.614181	-0.000368	-3.683247	-0.623959	0.000037
1036	1.0298e+02	9.6981	20.656544	-0.000426	-4.256197	-0.721019	0.000043
1037	1.0308e+02	9.6880	20.691983	-0.000356	-3.560472	-0.603160	0.000036
1038	1.0318e+02	9.6777	20.726607	-0.000348	-3.478622	-0.589295	0.000035
1039	1.0328e+02	9.6691	20.763676	-0.000372	-3.724172	-0.630892	0.000037
1040	1.0338e+02	9.6606	20.799114	-0.000356	-3.560472	-0.603160	0.000036
1041	1.0348e+02	9.6539	20.828443	-0.000295	-2.946598	-0.499167	0.000029
1042	1.0358e+02	9.6429	20.854106	-0.000258	-2.578273	-0.436771	0.000026
1043	1.0368e+02	9.6301	20.880176	-0.000262	-2.619198	-0.443704	0.000026
1044	1.0378e+02	9.6203	20.905838	-0.000258	-2.578273	-0.436771	0.000026
1045	1.0388e+02	9.6117	20.936389	-0.000307	-3.069373	-0.519966	0.000031
1046	1.0398e+02	9.6035	20.961237	-0.000250	-2.496423	-0.422906	0.000025
1047	1.0408e+02	9.5910	20.988529	-0.000274	-2.741973	-0.464503	0.000027
1048	1.0418e+02	9.5818	21.012155	-0.000237	-2.373648	-0.402107	0.000024
1049	1.0428e+02	9.5696	21.037410	-0.000254	-2.537348	-0.429838	0.000025
1050	1.0438e+02	9.5605	21.058999	-0.000217	-2.169023	-0.367443	0.000022
1051	1.0447e+02	9.5525	21.081810	-0.000229	-2.291798	-0.388241	0.000023
1052	1.0457e+02	9.5409	21.101770	-0.000201	-2.005323	-0.339711	0.000020
1053	1.0467e+02	9.5330	21.118064	-0.000164	-1.636999	-0.277315	0.000016
1054	1.0477e+02	9.5214	21.142097	-0.000241	-2.414573	-0.409040	0.000024
1055	1.0487e+02	9.5107	21.160835	-0.000188	-1.882549	-0.318912	0.000019
1056	1.0497e+02	9.5000	21.177128	-0.000164	-1.636999	-0.277315	0.000016
1057	1.0507e+02	9.4903	21.197495	-0.000205	-2.046248	-0.346644	0.000020
1058	1.0517e+02	9.4830	21.212160	-0.000147	-1.473299	-0.249584	0.000015
1059	1.0527e+02	9.4726	21.232119	-0.000201	-2.005323	-0.339711	0.000020
1060	1.0537e+02	9.4598	21.248006	-0.000160	-1.596074	-0.270382	0.000016
1061	1.0547e+02	9.4512	21.267558	-0.000196	-1.964399	-0.332778	0.000020
1062	1.0557e+02	9.4424	21.285889	-0.000184	-1.841624	-0.311979	0.000018
1063	1.0567e+02	9.4326	21.304219	-0.000184	-1.841624	-0.311979	0.000018
1064	1.0577e+02	9.4204	21.320105	-0.000160	-1.596074	-0.270382	0.000016
1065	1.0587e+02	9.4115	21.334770	-0.000147	-1.473299	-0.249584	0.000015
1066	1.0597e+02	9.4061	21.352286	-0.000176	-1.759774	-0.298114	0.000018
1067	1.0607e+02	9.3890	21.366950	-0.000147	-1.473299	-0.249584	0.000015
1068	1.0617e+02	9.3804	21.382836	-0.000160	-1.596074	-0.270382	0.000016
1069	1.0627e+02	9.3719	21.397501	-0.000147	-1.473299	-0.249584	0.000015
1070	1.0637e+02	9.3627	21.408499	-0.000110	-1.104974	-0.187188	0.000011
1071	1.0647e+02	9.3497	21.424385	-0.000160	-1.596074	-0.270382	0.000016
1072	1.0656e+02	9.3438	21.442308	-0.000180	-1.800699	-0.305047	0.000018
1073	1.0666e+02	9.3304	21.458195	-0.000160	-1.596074	-0.270382	0.000016
1074	1.0676e+02	9.3203	21.470822	-0.000127	-1.268674	-0.214919	0.000013
1075	1.0686e+02	9.3118	21.487116	-0.000164	-1.636999	-0.277315	0.000016
1076	1.0696e+02	9.3023	21.499744	-0.000127	-1.268674	-0.214919	0.000013
1077	1.0706e+02	9.2925	21.511964	-0.000123	-1.227749	-0.207986	0.000012
1078	1.0716e+02	9.2834	21.519296	-0.000074	-0.736649	-0.124792	0.000007
1079	1.0726e+02	9.2696	21.529480	-0.000102	-1.023124	-0.173322	0.000010
1080	1.0736e+02	9.2583	21.536404	-0.000070	-0.695724	-0.117859	0.000007
1081	1.0746e+02	9.2510	21.548217	-0.000119	-1.186824	-0.201053	0.000012
1082	1.0756e+02	9.2410	21.555549	-0.000074	-0.736649	-0.124792	0.000007
1083	1.0766e+02	9.2300	21.558808	-0.000033	-0.327400	-0.055463	0.000003
1084	1.0776e+02	9.2217	21.568584	-0.000098	-0.982199	-0.166389	0.000010
1085	1.0786e+02	9.2144	21.579583	-0.000110	-1.104974	-0.187188	0.000011
1086	1.0796e+02	9.2034	21.583656	-0.000041	-0.409250	-0.069329	0.000004
1087	1.0806e+02	9.1933	21.594247	-0.000106	-1.064049	-0.180255	0.000011
1088	1.0816e+02	9.1833	21.599135	-0.000049	-0.491100	-0.083195	0.000005
1089	1.0826e+02	9.1723	21.608097	-0.000090	-0.900349	-0.152523	0.000009
1090	1.0836e+02	9.1637	21.619502	-0.000115	-1.145899	-0.194121	0.000011
1091	1.0845e+02	9.1521	21.622761	-0.000033	-0.327400	-0.055463	0.000003
1092	1.0855e+02	9.1430	21.630093	-0.000074	-0.736649	-0.124792	0.000007
1093	1.0865e+02	9.1335	21.643128	-0.000131	-1.309599	-0.221852	0.000013
1094	1.0875e+02	9.1222	21.650460	-0.000074	-0.736649	-0.124792	0.000007
1095	1.0885e+02	9.1113	21.656163	-0.000057	-0.572950	-0.097060	0.000006
1096	1.0895e+02	9.1039	21.661866	-0.000057	-0.572950	-0.097060	0.000006
1097	1.0905e+02	9.0936	21.664310	-0.000025	-0.245550	-0.041597	0.000002
1098	1.0915e+02	9.0813	21.670827	-0.000065	-0.654800	-0.110926	0.000007
1099	1.0925e+02	9.0710	21.674086	-0.000033	-0.327400	-0.055463	0.000003
1100	1.0935e+02	9.0636	21.683048	-0.000090	-0.900349	-0.152523	0.000009
1101	1.0945e+02	9.0563	21.682640	0.000004	0.040925	0.006933	-0.000000
1102	1.0955e+02	9.0435	21.687528	-0.000049	-0.491100	-0.083195	0.000005
1103	1.0965e+02	9.0313	21.693231	-0.000057	-0.572950	-0.097060	0.000006
1104	1.0975e+02	9.0240	21.691195	0.000020	0.204625	0.034664	-0.000002
1105	1.0985e+02	9.0166	21.696897	-0.000057	-0.572950	-0.097060	0.000006
1106	1.0995e+02	9.0026	21.699749	-0.000029	-0.286475	-0.048530	0.000003
1107	1.1005e+02	8.9947	21.700156	-0.000004	-0.040925	-0.006933	0.000000
1108	1.1015e+02	8.9867	21.705044	-0.000049	-0.491100	-0.083195	0.000005
1109	1.1025e+02	8.9764	21.701378	0.000037	0.368325	0.062396	-0.000004
1110	1.1035e+02	8.9635	21.701378	-0.000000	-0.000000	-0.000000	0.000000
1111	1.1044e+02	8.9526	21.702193	-0.000008	-0.081850	-0.013866	0.000001
1112	1.1054e+02	8.9440	21.700156	0.000020	0.204625	0.034664	-0.000002
1113	1.1064e+02	8.9342	21.699749	0.000004	0.040925	0.006933	-0.000000
1114	1.1074e+02	8.9257	21.692824	0.000070	0.695724	0.117859	-0.000007
1115	1.1084e+02	8.9135	21.687121	0.000057	0.572950	0.097060	-0.000006
1116	1.1094e+02	8.9053	21.687528	-0.000004	-0.040925	-0.006933	0.000000
1117	1.1104e+02	8.8921	21.681826	0.000057	0.572950	0.097060	-0.000006
1118	1.1114e+02	8.8842	21.678160	0.000037	0.368325	0.062396	-0.000004
1119	1.1124e+02	8.8738	21.669605	0.000086	0.859424	0.145590	-0.000009
1120	1.1134e+02	8.8647	21.668383	0.000012	0.122775	0.020799	-0.000001
1121	1.1144e+02	8.8537	21.664310	0.000041	0.409250	0.069329	-0.000004
1122	1.1154e+02	8.8421	21.661051	0.000033	0.327400	0.055463	-0.000003
1123	1.1164e+02	8.8348	21.649646	0.000115	1.145899	0.194121	-0.000011
1124	1.1174e+02	8.8238	21.648831	0.000008	0.081850	0.013866	-0.000001
1125	1.1184e+02	8.8168	21.649238	-0.000004	-0.040925	-0.006933	0.000000
1126	1.1194e+02	8.8070	21.641091	0.000082	0.818499	0.138658	-0.000008
1127	1.1204e+02	8.7960	21.641906	-0.000008	-0.081850	-0.013866	0.000001
1128	1.1214e+02	8.7853	21.635796	0.000061	0.613875	0.103993	-0.000006
1129	1.1224e+02	8.7756	21.631723	0.000041	0.409250	0.069329	-0.000004
1130	1.1234e+02	8.7649	21.628056	0.000037	0.368325	0.062396	-0.000004
1131	1.1244e+02	8.7554	21.616651	0.000115	1.145899	0.194121	-0.000011
1132	1.1253e+02	8.7469	21.612170	0.000045	0.450175	0.076262	-0.000005
1133	1.1263e+02	8.7377	21.608097	0.000041	0.409250	0.069329	-0.000004
1134	1.1273e+02	8.7273	21.603209	0.000049	0.491100	0.083195	-0.000005
1135	1.1283e+02	8.7154	21.596691	0.000065	0.654800	0.110926	-0.000007
1136	1.1293e+02	8.7078	21.587730	0.000090	0.900349	0.152523	-0.000009
1137	1.1303e+02	8.6954	21.586508	0.000012	0.122775	0.020799	-0.000001
1138	1.1313e+02	8.6834	21.575917	0.000106	1.064049	0.180255	-0.000011
1139	1.1323e+02	8.6755	21.566548	0.000094	0.941274	0.159456	-0.000009
1140	1.1333e+02	8.6654	21.561252	0.000053	0.532025	0.090127	-0.000005
1141	1.1343e+02	8.6553	21.552698	0.000086	0.859424	0.145590	-0.000009
1142	1.1353e+02	8.6456	21.539663	0.000131	1.309599	0.221852	-0.000013
1143	1.1363e+02	8.6373	21.528258	0.000115	1.145899	0.194121	-0.000011
1144	1.1373e+02	8.6272	21.520518	0.000078	0.777574	0.131725	-0.000008
1145	1.1383e+02	8.6169	21.507483	0.000131	1.309599	0.221852	-0.000013
1146	1.1393e+02	8.6071	21.494448	0.000131	1.309599	0.221852	-0.000013
1147	1.1403e+02	8.5973	21.486709	0.000078	0.777574	0.131725	-0.000008
1148	1.1413e+02	8.5842	21.475303	0.000115	1.145899	0.194121	-0.000011
1149	1.1423e+02	8.5741	21.459009	0.000164	1.636999	0.277315	-0.000016
1150	1.1433e+02	8.5662	21.445974	0.000131	1.309599	0.221852	-0.000013
1151	1.1442e+02	8.5564	21.431717	0.000143	1.432374	0.242651	-0.000014
1152	1.1452e+02	8.5464	21.422756	0.000090	0.900349	0.152523	-0.000009
1153	1.1462e+02	8.5375	21.408906	0.000139	1.391449	0.235718	-0.000014
1154	1.1472e+02	8.5290	21.393834	0.000151	1.514224	0.256516	-0.000015
1155	1.1482e+02	8.5174	21.380392	0.000135	1.350524	0.228785	-0.000014
1156	1.1492e+02	8.5085	21.365728	0.000147	1.473299	0.249584	-0.000015
1157	1.1502e+02	8.4963	21.348619	0.000172	1.718849	0.291181	-0.000017
1158	1.1512e+02	8.4875	21.333955	0.000147	1.473299	0.249584	-0.000015
1159	1.1522e+02	8.4783	21.321328	0.000127	1.268674	0.214919	-0.000013
1160	1.1532e+02	8.4664	21.305848	0.000156	1.555149	0.263449	-0.000016
1161	1.1542e+02	8.4557	21.294850	0.000110	1.104974	0.187188	-0.000011
1162	1.1552e+02	8.4457	21.276927	0.000180	1.800699	0.305047	-0.000018
1163	1.1562e+02	8.4386	21.261855	0.000151	1.514224	0.256516	-0.000015
1164	1.1572e+02	8.4274	21.244340	0.000176	1.759774	0.298114	-0.000018
1165	1.1582e+02	8.4188	21.230897	0.000135	1.350524	0.228785	-0.000014
1166	1.1592e+02	8.4051	21.217455	0.000135	1.350524	0.228785	-0.000014
1167	1.1602e+02	8.3984	21.199532	0.000180	1.800699	0.305047	-0.000018
1168	1.1612e+02	8.3877	21.182016	0.000176	1.759774	0.298114	-0.000018
1169	1.1622e+02	8.3733	21.169796	0.000123	1.227749	0.207986	-0.000012
1170	1.1632e+02	8.3678	21.151873	0.000180	1.800699	0.305047	-0.000018
1171	1.1642e+02	8.3608	21.136394	0.000156	1.555149	0.263449	-0.000016
1172	1.1651e+02	8.3483	21.118878	0.000176	1.759774	0.298114	-0.000018
1173	1.1661e+02	8.3367	21.099733	0.000192	1.923474	0.325845	-0.000019
1174	1.1671e+02	8.3248	21.083032	0.000168	1.677924	0.284248	-0.000017
1175	1.1681e+02	8.3166	21.061850	0.000213	2.128098	0.360510	-0.000021
1176	1.1691e+02	8.3068	21.044742	0.000172	1.718849	0.291181	-0.000017
1177	1.1701e+02	8.2989	21.026819	0.000180	1.800699	0.305047	-0.000018
1178	1.1711e+02	8.2854	21.009303	0.000176	1.759774	0.298114	-0.000018
1179	1.1721e+02	8.2769	20.988121	0.000213	2.128098	0.360510	-0.000021
1180	1.1731e+02	8.2684	20.969384	0.000188	1.882549	0.318912	-0.000019
1181	1.1741e+02	8.2561	20.949016	0.000205	2.046248	0.346644	-0.000020
1182	1.1751e+02	8.2452	20.928649	0.000205	2.046248	0.346644	-0.000020
1183	1.1761e+02	8.2363	20.909504	0.000192	1.923474	0.325845	-0.000019
1184	1.1771e+02	8.2275	20.891581	0.000180	1.800699	0.305047	-0.000018
1185	1.1781e+02	8.2165	20.868363	0.000233	2.332723	0.395174	-0.000023
1186	1.1791e+02	8.2079	20.847995	0.000205	2.046248	0.346644	-0.000020
1187	1.1801e+02	8.1994	20.827221	0.000209	2.087173	0.353577	-0.000021
1188	1.1811e+02	8.1911	20.806854	0.000205	2.046248	0.346644	-0.000020
1189	1.1821e+02	8.1786	20.791375	0.000156	1.555149	0.263449	-0.000016
1190	1.1831e+02	8.1675	20.767342	0.000241	2.414573	0.409040	-0.000024
1191	1.1841e+02	8.1567	20.747382	0.000201	2.005323	0.339711	-0.000020
1192	1.1850e+02	8.1490	20.726607	0.000209	2.087173	0.353577	-0.000021
1193	1.1860e+02	8.1396	20.707462	0.000192	1.923474	0.325845	-0.000019
1194	1.1870e+02	8.1266	20.685873	0.000217	2.169023	0.367443	-0.000022
1195	1.1880e+02	8.1203	20.669579	0.000164	1.636999	0.277315	-0.000016
1196	1.1890e+02	8.1078	20.649620	0.000201	2.005323	0.339711	-0.000020
1197	1.1900e+02	8.1005	20.626808	0.000229	2.291798	0.388241	-0.000023
1198	1.1910e+02	8.0874	20.610107	0.000168	1.677924	0.284248	-0.000017
1199	1.1920e+02	8.0773	20.588518	0.000217	2.169023	0.367443	-0.000022
1200	1.1930e+02	8.0712	20.568966	0.000196	1.964399	0.332778	-0.000020
1201	1.1940e+02	8.0584	20.545340	0.000237	2.373648	0.402107	-0.000024
1202	1.1950e+02	8.0495	20.527824	0.000176	1.759774	0.298114	-0.000018
1203	1.1960e+02	8.0395	20.508272	0.000196	1.964399	0.332778	-0.000020
1204	1.1970e+02	8.0285	20.489127	0.000192	1.923474	0.325845	-0.000019
1205	1.1980e+02	8.0199	20.467538	0.000217	2.169023	0.367443	-0.000022
1206	1.1990e+02	8.0102	20.444726	0.000229	2.291798	0.388241	-0.000023
1207	1.2000e+02	8.0004	20.426396	0.000184	1.841624	0.311979	-0.000018
1208	1.2010e+02	7.9876	20.403992	0.000225	2.250873	0.381308	-0.000023
1209	1.2020e+02	7.9778	20.384032	0.000201	2.005323	0.339711	-0.000020
1210	1.2030e+02	7.9687	20.358777	0.000254	2.537348	0.429838	-0.000025
1211	1.2039e+02	7.9586	20.337595	0.000213	2.128098	0.360510	-0.000021
1212	1.2049e+02	7.9479	20.308267	0.000295	2.946598	0.499167	-0.000029
1213	1.2059e+02	7.9379	20.294824	0.000135	1.350524	0.228785	-0.000014
1214	1.2069e+02	7.9304	20.269162	0.000258	2.578273	0.436771	-0.000026
1215	1.2079e+02	7.9205	20.249609	0.000196	1.964399	0.332778	-0.000020
1216	1.2089e+02	7.9089	20.223947	0.000258	2.578273	0.436771	-0.000026
1217	1.2099e+02	7.8973	20.206024	0.000180	1.800699	0.305047	-0.000018
1218	1.2109e+02	7.8896	20.180768	0.000254	2.537348	0.429838	-0.000025
1219	1.2119e+02	7.8805	20.158772	0.000221	2.209948	0.374375	-0.000022
1220	1.2129e+02	7.8704	20.133109	0.000258	2.578273	0.436771	-0.000026
1221	1.2139e+02	7.8594	20.111520	0.000217	2.169023	0.367443	-0.000022
1222	1.2149e+02	7.8478	20.091153	0.000205	2.046248	0.346644	-0.000020
1223	1.2159e+02	7.8417	20.068749	0.000225	2.250873	0.381308	-0.000023
1224	1.2169e+02	7.8295	20.042272	0.000266	2.660123	0.450637	-0.000027
1225	1.2179e+02	7.8222	20.022312	0.000201	2.005323	0.339711	-0.000020
1226	1.2189e+02	7.8109	20.000316	0.000221	2.209948	0.374375	-0.000022
1227	1.2199e+02	7.8027	19.977912	0.000225	2.250873	0.381308	-0.000023
1228	1.2209e+02	7.7888	19.959581	0.000184	1.841624	0.311979	-0.000018
1229	1.2219e+02	7.7813	19.935548	0.000241	2.414573	0.409040	-0.000024
1230	1.2229e+02	7.7691	19.918847	0.000168	1.677924	0.284248	-0.000017
1231	1.2239e+02	7.7612	19.894814	0.000241	2.414573	0.409040	-0.000024
1232	1.2248e+02	7.7502	19.874447	0.000205	2.046248	0.346644	-0.000020
1233	1.2258e+02	7.7410	19.852043	0.000225	2.250873	0.381308	-0.000023
1234	1.2268e+02	7.7279	19.832083	0.000201	2.005323	0.339711	-0.000020
1235	1.2278e+02	7.7221	19.811716	0.000205	2.046248	0.346644	-0.000020
1236	1.2288e+02	7.7096	19.790534	0.000213	2.128098	0.360510	-0.000021
1237	1.2298e+02	7.7007	19.768130	0.000225	2.250873	0.381308	-0.000023
1238	1.2308e+02	7.6925	19.750615	0.000176	1.759774	0.298114	-0.000018
1239	1.2318e+02	7.6800	19.724952	0.000258	2.578273	0.436771	-0.000026
1240	1.2328e+02	7.6694	19.704992	0.000201	2.005323	0.339711	-0.000020
1241	1.2338e+02	7.6617	19.682588	0.000225	2.250873	0.381308	-0.000023
1242	1.2348e+02	7.6498	19.660999	0.000217	2.169023	0.367443	-0.000022
1243	1.2358e+02	7.6397	19.636151	0.000250	2.496423	0.422906	-0.000025
1244	1.2368e+02	7.6305	19.615377	0.000209	2.087173	0.353577	-0.000021
1245	1.2378e+02	7.6183	19.597861	0.000176	1.759774	0.298114	-0.000018
1246	1.2388e+02	7.6092	19.574235	0.000237	2.373648	0.402107	-0.000024
1247	1.2398e+02	7.6012	19.554276	0.000201	2.005323	0.339711	-0.000020
1248	1.2408e+02	7.5906	19.529835	0.000246	2.455498	0.415973	-0.000025
1249	1.2418e+02	7.5796	19.509060	0.000209	2.087173	0.353577	-0.000021
1250	1.2428e+02	7.5701	19.487879	0.000213	2.128098	0.360510	-0.000021
1251	1.2438e+02	7.5626	19.470770	0.000172	1.718849	0.291181	-0.000017
1252	1.2447e+02	7.5500	19.445108	0.000258	2.578273	0.436771	-0.000026
1253	1.2457e+02	7.5408	19.423519	0.000217	2.169023	0.367443	-0.000022
1254	1.2467e+02	7.5301	19.401522	0.000221	2.209948	0.374375	-0.000022
1255	1.2477e+02	7.5219	19.381155	0.000205	2.046248	0.346644	-0.000020
1256	1.2487e+02	7.5118	19.360380	0.000209	2.087173	0.353577	-0.000021
1257	1.2497e+02	7.5021	19.337569	0.000229	2.291798	0.388241	-0.000023
1258	1.2507e+02	7.4920	19.320461	0.000172	1.718849	0.291181	-0.000017
1259	1.2517e+02	7.4812	19.299686	0.000209	2.087173	0.353577	-0.000021
1260	1.2527e+02	7.4718	19.280541	0.000192	1.923474	0.325845	-0.000019
1261	1.2537e+02	7.4612	19.261804	0.000188	1.882549	0.318912	-0.000019
1262	1.2547e+02	7.4514	19.239807	0.000221	2.209948	0.374375	-0.000022
1263	1.2557e+02	7.4407	19.221477	0.000184	1.841624	0.311979	-0.000018
1264	1.2567e+02	7.4319	19.203554	0.000180	1.800699	0.305047	-0.000018
1265	1.2577e+02	7.4212	19.178706	0.000250	2.496423	0.422906	-0.000025
1266	1.2587e+02	7.4114	19.158746	0.000201	2.005323	0.339711	-0.000020
1267	1.2597e+02	7.4026	19.139601	0.000192	1.923474	0.325845	-0.000019
1268	1.2607e+02	7.3888	19.120456	0.000192	1.923474	0.325845	-0.000019
1269	1.2617e+02	7.3809	19.099274	0.000213	2.128098	0.360510	-0.000021
1270	1.2627e+02	7.3711	19.078907	0.000205	2.046248	0.346644	-0.000020
1271	1.2636e+02	7.3635	19.059354	0.000196	1.964399	0.332778	-0.000020
1272	1.2646e+02	7.3522	19.039395	0.000201	2.005323	0.339711	-0.000020
1273	1.2656e+02	7.3421	19.021064	0.000184	1.841624	0.311979	-0.000018
1274	1.2666e+02	7.3321	18.994994	0.000262	2.619198	0.443704	-0.000026
1275	1.2676e+02	7.3241	18.974627	0.000205	2.046248	0.346644	-0.000020
1276	1.2686e+02	7.3119	18.955075	0.000196	1.964399	0.332778	-0.000020
1277	1.2696e+02	7.3009	18.930634	0.000246	2.455498	0.415973	-0.000025
1278	1.2706e+02	7.2912	18.907008	0.000237	2.373648	0.402107	-0.000024
1279	1.2716e+02	7.2802	18.883382	0.000237	2.373648	0.402107	-0.000024
1280	1.2726e+02	7.2747	18.862201	0.000213	2.128098	0.360510	-0.000021
1281	1.2736e+02	7.2662	18.840204	0.000221	2.209948	0.374375	-0.000022
1282	1.2746e+02	7.2527	18.818208	0.000221	2.209948	0.374375	-0.000022
1283	1.2756e+02	7.2491	18.792952	0.000254	2.537348	0.429838	-0.000025
1284	1.2766e+02	7.2305	18.770548	0.000225	2.250873	0.381308	-0.000023
1285	1.2776e+02	7.2268	18.744479	0.000262	2.619198	0.443704	-0.000026
1286	1.2786e+02	7.2149	18.719631	0.000250	2.496423	0.422906	-0.000025
1287	1.2796e+02	7.1996	18.695190	0.000246	2.455498	0.415973	-0.000025
1288	1.2806e+02	7.1929	18.672786	0.000225	2.250873	0.381308	-0.000023
1289	1.2816e+02	7.1825	18.652012	0.000209	2.087173	0.353577	-0.000021
1290	1.2826e+02	7.1709	18.629608	0.000225	2.250873	0.381308	-0.000023
1291	1.2835e+02	7.1655	18.603131	0.000266	2.660123	0.450637	-0.000027
1292	1.2845e+02	7.1526	18.584393	0.000188	1.882549	0.318912	-0.000019
1293	1.2855e+02	7.1435	18.563211	0.000213	2.128098	0.360510	-0.000021
1294	1.2865e+02	7.1319	18.538363	0.000250	2.496423	0.422906	-0.000025
1295	1.2875e+02	7.1249	18.520033	0.000184	1.841624	0.311979	-0.000018
1296	1.2885e+02	7.1142	18.496814	0.000233	2.332723	0.395174	-0.000023
1297	1.2895e+02	7.1074	18.474003	0.000229	2.291798	0.388241	-0.000023
1298	1.2905e+02	7.0913	18.453229	0.000209	2.087173	0.353577	-0.000021
1299	1.2915e+02	7.0837	18.430825	0.000225	2.250873	0.381308	-0.000023
1300	1.2925e+02	7.0757	18.406792	0.000241	2.414573	0.409040	-0.000024
1301	1.2935e+02	7.0635	18.384388	0.000225	2.250873	0.381308	-0.000023
1302	1.2945e+02	7.0525	18.358725	0.000258	2.578273	0.436771	-0.000026
1303	1.2955e+02	7.0470	18.338765	0.000201	2.005323	0.339711	-0.000020
1304	1.2965e+02	7.0330	18.311881	0.000270	2.701048	0.457570	-0.000027
1305	1.2975e+02	7.0254	18.294772	0.000172	1.718849	0.291181	-0.000017
1306	1.2985e+02	7.0147	18.271554	0.000233	2.332723	0.395174	-0.000023
1307	1.2995e+02	7.0013	18.242225	0.000295	2.946598	0.499167	-0.000029
1308	1.3005e+02	6.9946	18.222265	0.000201	2.005323	0.339711	-0.000020
1309	1.3015e+02	6.9863	18.198640	0.000237	2.373648	0.402107	-0.000024
1310	1.3025e+02	6.9762	18.175828	0.000229	2.291798	0.388241	-0.000023
1311	1.3034e+02	6.9628	18.144870	0.000311	3.110298	0.526899	-0.000031
1312	1.3044e+02	6.9567	18.120430	0.000246	2.455498	0.415973	-0.000025
1313	1.3054e+02	6.9451	18.095989	0.000246	2.455498	0.415973	-0.000025
1314	1.3064e+02	6.9344	18.068697	0.000274	2.741973	0.464503	-0.000027
1315	1.3074e+02	6.9213	18.043442	0.000254	2.537348	0.429838	-0.000025
1316	1.3084e+02	6.9137	18.020223	0.000233	2.332723	0.395174	-0.000023
1317	1.3094e+02	6.9042	17.989265	0.000311	3.110298	0.526899	-0.000031
1318	1.3104e+02	6.8951	17.964418	0.000250	2.496423	0.422906	-0.000025
1319	1.3114e+02	6.8841	17.940384	0.000241	2.414573	0.409040	-0.000024
1320	1.3124e+02	6.8755	17.917166	0.000233	2.332723	0.395174	-0.000023
1321	1.3134e+02	6.8661	17.888244	0.000291	2.905673	0.492234	-0.000029
1322	1.3144e+02	6.8542	17.861360	0.000270	2.701048	0.457570	-0.000027
1323	1.3154e+02	6.8465	17.832439	0.000291	2.905673	0.492234	-0.000029
1324	1.3164e+02	6.8340	17.807591	0.000250	2.496423	0.422906	-0.000025
1325	1.3174e+02	6.8270	17.779891	0.000278	2.782898	0.471436	-0.000028
1326	1.3184e+02	6.8151	17.755858	0.000241	2.414573	0.409040	-0.000024
1327	1.3194e+02	6.8041	17.727752	0.000282	2.823823	0.478369	-0.000028
1328	1.3204e+02	6.7944	17.700867	0.000270	2.701048	0.457570	-0.000027
1329	1.3214e+02	6.7843	17.674797	0.000262	2.619198	0.443704	-0.000026
1330	1.3224e+02	6.7776	17.648320	0.000266	2.660123	0.450637	-0.000027
1331	1.3234e+02	6.7651	17.621028	0.000274	2.741973	0.464503	-0.000027
1332	1.3243e+02	6.7568	17.589662	0.000315	3.151223	0.533832	-0.000032
1333	1.3253e+02	6.7455	17.567259	0.000225	2.250873	0.381308	-0.000023
1334	1.3263e+02	6.7350	17.538337	0.000291	2.905673	0.492234	-0.000029
1335	1.3273e+02	6.7248	17.508601	0.000299	2.987523	0.506100	-0.000030
1336	1.3283e+02	6.7165	17.482939	0.000258	2.578273	0.436771	-0.000026
1337	1.3293e+02	6.7059	17.457683	0.000254	2.537348	0.429838	-0.000025
1338	1.3303e+02	6.6973	17.430799	0.000270	2.701048	0.457570	-0.000027
1339	1.3313e+02	6.6862	17.402692	0.000282	2.823823	0.478369	-0.000028
1340	1.3323e+02	6.6758	17.376622	0.000262	2.619198	0.443704	-0.000026
1341	1.3333e+02	6.6662	17.344850	0.000319	3.192148	0.540764	-0.000032
1342	1.3343e+02	6.6552	17.313077	0.000319	3.192148	0.540764	-0.000032
1343	1.3353e+02	6.6467	17.282526	0.000307	3.069373	0.519966	-0.000031
1344	1.3363e+02	6.6351	17.252790	0.000299	2.987523	0.506100	-0.000030
1345	1.3373e+02	6.6290	17.223869	0.000291	2.905673	0.492234	-0.000029
1346	1.3383e+02	6.6155	17.192911	0.000311	3.110298	0.526899	-0.000031
1347	1.3393e+02	6.6097	17.161138	0.000319	3.192148	0.540764	-0.000032
1348	1.3403e+02	6.5954	17.134253	0.000270	2.701048	0.457570	-0.000027
1349	1.3413e+02	6.5874	17.104925	0.000295	2.946598	0.499167	-0.000029
1350	1.3423e+02	6.5765	17.075189	0.000299	2.987523	0.506100	-0.000030
1351	1.3432e+02	6.5655	17.043823	0.000315	3.151223	0.533832	-0.000032
1352	1.3442e+02	6.5557	17.009199	0.000348	3.478622	0.589295	-0.000035
1353	1.3452e+02	6.5466	16.980685	0.000286	2.864748	0.485301	-0.000029
1354	1.3462e+02	6.5356	16.953801	0.000270	2.701048	0.457570	-0.000027
1355	1.3472e+02	6.5282	16.924472	0.000295	2.946598	0.499167	-0.000029
1356	1.3482e+02	6.5162	16.893514	0.000311	3.110298	0.526899	-0.000031
1357	1.3492e+02	6.5069	16.863371	0.000303	3.028448	0.513033	-0.000030
1358	1.3502e+02	6.4977	16.832820	0.000307	3.069373	0.519966	-0.000031
1359	1.3512e+02	6.4855	16.803899	0.000291	2.905673	0.492234	-0.000029
1360	1.3522e+02	6.4782	16.772941	0.000311	3.110298	0.526899	-0.000031
1361	1.3532e+02	6.4697	16.744427	0.000286	2.864748	0.485301	-0.000029
1362	1.3542e+02	6.4548	16.717135	0.000274	2.741973	0.464503	-0.000027
1363	1.3552e+02	6.4455	16.691065	0.000262	2.619198	0.443704	-0.000026
1364	1.3562e+02	6.4336	16.658070	0.000331	3.314922	0.561563	-0.000033
1365	1.3572e+02	6.4294	16.632815	0.000254	2.537348	0.429838	-0.000025
1366	1.3582e+02	6.4165	16.603893	0.000291	2.905673	0.492234	-0.000029
1367	1.3592e+02	6.4065	16.576601	0.000274	2.741973	0.464503	-0.000027
1368	1.3602e+02	6.3964	16.550532	0.000262	2.619198	0.443704	-0.000026
1369	1.3612e+02	6.3879	16.519166	0.000315	3.151223	0.533832	-0.000032
1370	1.3622e+02	6.3781	16.493911	0.000254	2.537348	0.429838	-0.000025
1371	1.3631e+02	6.3659	16.465804	0.000282	2.823823	0.478369	-0.000028
1372	1.3641e+02	6.3555	16.438105	0.000278	2.782898	0.471436	-0.000028
1373	1.3651e+02	6.3494	16.405110	0.000331	3.314922	0.561563	-0.000033
1374	1.3661e+02	6.3348	16.375782	0.000295	2.946598	0.499167	-0.000029
1375	1.3671e+02	6.3250	16.352156	0.000237	2.373648	0.402107	-0.000024
1376	1.3681e+02	6.3171	16.320383	0.000319	3.192148	0.540764	-0.000032
1377	1.3691e+02	6.3062	16.291054	0.000295	2.946598	0.499167	-0.000029
1378	1.3701e+02	6.2975	16.259282	0.000319	3.192148	0.540764	-0.000032
1379	1.3711e+02	6.2872	16.231175	0.000282	2.823823	0.478369	-0.000028
1380	1.3721e+02	6.2777	16.198180	0.000331	3.314922	0.561563	-0.000033
1381	1.3731e+02	6.2679	16.171703	0.000266	2.660123	0.450637	-0.000027
1382	1.3741e+02	6.2582	16.142374	0.000295	2.946598	0.499167	-0.000029
1383	1.3751e+02	6.2472	16.108972	0.000336	3.355847	0.568496	-0.000034
1384	1.3761e+02	6.2365	16.081273	0.000278	2.782898	0.471436	-0.000028
1385	1.3771e+02	6.2295	16.056832	0.000246	2.455498	0.415973	-0.000025
1386	1.3781e+02	6.2173	16.022616	0.000344	3.437697	0.582362	-0.000034
1387	1.3791e+02	6.2072	15.992065	0.000307	3.069373	0.519966	-0.000031
1388	1.3801e+02	6.1999	15.961514	0.000307	3.069373	0.519966	-0.000031
1389	1.3811e+02	6.1887	15.930556	0.000311	3.110298	0.526899	-0.000031
1390	1.3821e+02	6.1779	15.901228	0.000295	2.946598	0.499167	-0.000029
1391	1.3831e+02	6.1672	15.871899	0.000295	2.946598	0.499167	-0.000029
1392	1.3840e+02	6.1608	15.842978	0.000291	2.905673	0.492234	-0.000029
1393	1.3850e+02	6.1486	15.814871	0.000282	2.823823	0.478369	-0.000028
1394	1.3860e+02	6.1369	15.785135	0.000299	2.987523	0.506100	-0.000030
1395	1.3870e+02	6.1269	15.759472	0.000258	2.578273	0.436771	-0.000026
1396	1.3880e+02	6.1224	15.730958	0.000286	2.864748	0.485301	-0.000029
1397	1.3890e+02	6.1059	15.699186	0.000319	3.192148	0.540764	-0.000032
1398	1.3900e+02	6.0967	15.675152	0.000241	2.414573	0.409040	-0.000024
1399	1.3910e+02	6.0894	15.648675	0.000266	2.660123	0.450637	-0.000027
1400	1.3920e+02	6.0815	15.620161	0.000286	2.864748	0.485301	-0.000029
1401	1.3930e+02	6.0693	15.590018	0.000303	3.028448	0.513033	-0.000030
1402	1.3940e+02	6.0586	15.568021	0.000221	2.209948	0.374375	-0.000022
1403	1.3950e+02	6.0485	15.536656	0.000315	3.151223	0.533832	-0.000032
1404	1.3960e+02	6.0384	15.512215	0.000246	2.455498	0.415973	-0.000025
1405	1.3970e+02	6.0281	15.485331	0.000270	2.701048	0.457570	-0.000027
1406	1.3980e+02	6.0180	15.458039	0.000274	2.741973	0.464503	-0.000027
1407	1.3990e+02	6.0098	15.428303	0.000299	2.987523	0.506100	-0.000030
1408	1.4000e+02	6.0027	15.399789	0.000286	2.864748	0.485301	-0.000029
1409	1.4010e+02	5.9893	15.378200	0.000217	2.169023	0.367443	-0.000022
1410	1.4020e+02	5.9792	15.350500	0.000278	2.782898	0.471436	-0.000028
1411	1.4029e+02	5.9679	15.320764	0.000299	2.987523	0.506100	-0.000030
1412	1.4039e+02	5.9612	15.293065	0.000278	2.782898	0.471436	-0.000028
1413	1.4049e+02	5.9490	15.266588	0.000266	2.660123	0.450637	-0.000027
1414	1.4059e+02	5.9393	15.240518	0.000262	2.619198	0.443704	-0.000026
1415	1.4069e+02	5.9310	15.214448	0.000262	2.619198	0.443704	-0.000026
1416	1.4079e+02	5.9200	15.181453	0.000331	3.314922	0.561563	-0.000033
1417	1.4089e+02	5.9106	15.157827	0.000237	2.373648	0.402107	-0.000024
1418	1.4099e+02	5.9032	15.131350	0.000266	2.660123	0.450637	-0.000027
1419	1.4109e+02	5.8929	15.102429	0.000291	2.905673	0.492234	-0.000029
1420	1.4119e+02	5.8807	15.072693	0.000299	2.987523	0.506100	-0.000030
1421	1.4129e+02	5.8715	15.046623	0.000262	2.619198	0.443704	-0.000026
1422	1.4139e+02	5.8627	15.020960	0.000258	2.578273	0.436771	-0.000026
1423	1.4149e+02	5.8495	14.998149	0.000229	2.291798	0.388241	-0.000023
1424	1.4159e+02	5.8392	14.969228	0.000291	2.905673	0.492234	-0.000029
1425	1.4169e+02	5.8300	14.944787	0.000246	2.455498	0.415973	-0.000025
1426	1.4179e+02	5.8196	14.921161	0.000237	2.373648	0.402107	-0.000024
1427	1.4189e+02	5.8091	14.891833	0.000295	2.946598	0.499167	-0.000029
1428	1.4199e+02	5.8013	14.869021	0.000229	2.291798	0.388241	-0.000023
1429	1.4209e+02	5.7909	14.844174	0.000250	2.496423	0.422906	-0.000025
1430	1.4219e+02	5.7775	14.822177	0.000221	2.209948	0.374375	-0.000022
1431	1.4228e+02	5.7717	14.796922	0.000254	2.537348	0.429838	-0.000025
1432	1.4238e+02	5.7580	14.768815	0.000282	2.823823	0.478369	-0.000028
1433	1.4248e+02	5.7531	14.743560	0.000254	2.537348	0.429838	-0.000025
1434	1.4258e+02	5.7406	14.717490	0.000262	2.619198	0.443704	-0.000026
1435	1.4268e+02	5.7298	14.694679	0.000229	2.291798	0.388241	-0.000023
1436	1.4278e+02	5.7226	14.667794	0.000270	2.701048	0.457570	-0.000027
1437	1.4288e+02	5.7116	14.645390	0.000225	2.250873	0.381308	-0.000023
1438	1.4298e+02	5.7012	14.617284	0.000282	2.823823	0.478369	-0.000028
1439	1.4308e+02	5.6896	14.589992	0.000274	2.741973	0.464503	-0.000027
1440	1.4318e+02	5.6814	14.566366	0.000237	2.373648	0.402107	-0.000024
1441	1.4328e+02	5.6707	14.540703	0.000258	2.578273	0.436771	-0.000026
1442	1.4338e+02	5.6638	14.515855	0.000250	2.496423	0.422906	-0.000025
1443	1.4348e+02	5.6503	14.488156	0.000278	2.782898	0.471436	-0.000028
1444	1.4358e+02	5.6408	14.462086	0.000262	2.619198	0.443704	-0.000026
1445	1.4368e+02	5.6310	14.436424	0.000258	2.578273	0.436771	-0.000026
1446	1.4378e+02	5.6225	14.406280	0.000303	3.028448	0.513033	-0.000030
1447	1.4388e+02	5.6112	14.378174	0.000282	2.823823	0.478369	-0.000028
1448	1.4398e+02	5.6008	14.352511	0.000258	2.578273	0.436771	-0.000026
1449	1.4408e+02	5.5932	14.322368	0.000303	3.028448	0.513033	-0.000030
1450	1.4418e+02	5.5804	14.297520	0.000250	2.496423	0.422906	-0.000025
1451	1.4428e+02	5.5706	14.266155	0.000315	3.151223	0.533832	-0.000032
1452	1.4437e+02	5.5608	14.238455	0.000278	2.782898	0.471436	-0.000028
1453	1.4447e+02	5.5514	14.208312	0.000303	3.028448	0.513033	-0.000030
1454	1.4457e+02	5.5413	14.179798	0.000286	2.864748	0.485301	-0.000029
1455	1.4467e+02	5.5306	14.153728	0.000262	2.619198	0.443704	-0.000026
1456	1.4477e+02	5.5230	14.125214	0.000286	2.864748	0.485301	-0.000029
1457	1.4487e+02	5.5108	14.098329	0.000270	2.701048	0.457570	-0.000027
1458	1.4497e+02	5.5012	14.070630	0.000278	2.782898	0.471436	-0.000028
1459	1.4507e+02	5.4931	14.043338	0.000274	2.741973	0.464503	-0.000027
1460	1.4517e+02	5.4815	14.018490	0.000250	2.496423	0.422906	-0.000025
1461	1.4527e+02	5.4705	13.990791	0.000278	2.782898	0.471436	-0.000028
1462	1.4537e+02	5.4607	13.961055	0.000299	2.987523	0.506100	-0.000030
1463	1.4547e+02	5.4552	13.934170	0.000270	2.701048	0.457570	-0.000027
1464	1.4557e+02	5.4412	13.908915	0.000254	2.537348	0.429838	-0.000025
1465	1.4567e+02	5.4339	13.886511	0.000225	2.250873	0.381308	-0.000023
1466	1.4577e+02	5.4234	13.853924	0.000327	3.273998	0.554630	-0.000033
1467	1.4587e+02	5.4147	13.831927	0.000221	2.209948	0.374375	-0.000022
1468	1.4597e+02	5.4009	13.802191	0.000299	2.987523	0.506100	-0.000030
1469	1.4607e+02	5.3921	13.772455	0.000299	2.987523	0.506100	-0.000030
1470	1.4617e+02	5.3814	13.745163	0.000274	2.741973	0.464503	-0.000027
1471	1.4626e+02	5.3716	13.718686	0.000266	2.660123	0.450637	-0.000027
1472	1.4636e+02	5.3613	13.691802	0.000270	2.701048	0.457570	-0.000027
1473	1.4646e+02	5.3507	13.663288	0.000286	2.864748	0.485301	-0.000029
1474	1.4656e+02	5.3448	13.636810	0.000266	2.660123	0.450637	-0.000027
1475	1.4666e+02	5.3329	13.613184	0.000237	2.373648	0.402107	-0.000024
1476	1.4676e+02	5.3233	13.581412	0.000319	3.192148	0.540764	-0.000032
1477	1.4686e+02	5.3136	13.553712	0.000278	2.782898	0.471436	-0.000028
1478	1.4696e+02	5.3002	13.522347	0.000315	3.151223	0.533832	-0.000032
1479	1.4706e+02	5.2935	13.494240	0.000282	2.823823	0.478369	-0.000028
1480	1.4716e+02	5.2831	13.465726	0.000286	2.864748	0.485301	-0.000029
1481	1.4726e+02	5.2740	13.432732	0.000331	3.314922	0.561563	-0.000033
1482	1.4736e+02	5.2642	13.399330	0.000336	3.355847	0.568496	-0.000034
1483	1.4746e+02	5.2544	13.374482	0.000250	2.496423	0.422906	-0.000025
1484	1.4756e+02	5.2441	13.339858	0.000348	3.478622	0.589295	-0.000035
1485	1.4766e+02	5.2343	13.311344	0.000286	2.864748	0.485301	-0.000029
1486	1.4776e+02	5.2233	13.279571	0.000319	3.192148	0.540764	-0.000032
1487	1.4786e+02	5.2132	13.250650	0.000291	2.905673	0.492234	-0.000029
1488	1.4796e+02	5.2012	13.221728	0.000291	2.905673	0.492234	-0.000029
1489	1.4806e+02	5.1904	13.189141	0.000327	3.273998	0.554630	-0.000033
1490	1.4816e+02	5.1846	13.158997	0.000303	3.028448	0.513033	-0.000030
1491	1.4825e+02	5.1699	13.128854	0.000303	3.028448	0.513033	-0.000030
1492	1.4835e+02	5.1641	13.100747	0.000282	2.823823	0.478369	-0.000028
1493	1.4845e+02	5.1565	13.069789	0.000311	3.110298	0.526899	-0.000031
1494	1.4855e+02	5.1452	13.038424	0.000315	3.151223	0.533832	-0.000032
1495	1.4865e+02	5.1335	13.004207	0.000344	3.437697	0.582362	-0.000034
1496	1.4875e+02	5.1220	12.973249	0.000311	3.110298	0.526899	-0.000031
1497	1.4885e+02	5.1163	12.941477	0.000319	3.192148	0.540764	-0.000032
1498	1.4895e+02	5.1049	12.912555	0.000291	2.905673	0.492234	-0.000029
1499	1.4905e+02	5.0951	12.880375	0.000323	3.233073	0.547697	-0.000032
1500	1.4915e+02	5.0832	12.851046	0.000295	2.946598	0.499167	-0.000029
1501	1.4925e+02	5.0723	12.820496	0.000307	3.069373	0.519966	-0.000031
1502	1.4935e+02	5.0646	12.787094	0.000336	3.355847	0.568496	-0.000034
1503	1.4945e+02	5.0542	12.757358	0.000299	2.987523	0.506100	-0.000030
1504	1.4955e+02	5.0445	12.723548	0.000340	3.396772	0.575429	-0.000034
1505	1.4965e+02	5.0359	12.694220	0.000295	2.946598	0.499167	-0.000029
1506	1.4975e+02	5.0257	12.662447	0.000319	3.192148	0.540764	-0.000032
1507	1.4985e+02	5.0127	12.627415	0.000352	3.519547	0.596227	-0.000035
1508	1.4995e+02	5.0030	12.598494	0.000291	2.905673	0.492234	-0.000029
1509	1.5005e+02	4.9963	12.563870	0.000348	3.478622	0.589295	-0.000035
1510	1.5015e+02	4.9850	12.529246	0.000348	3.478622	0.589295	-0.000035
1511	1.5025e+02	4.9747	12.492992	0.000364	3.642322	0.617026	-0.000036
1512	1.5034e+02	4.9639	12.459590	0.000336	3.355847	0.568496	-0.000034
1513	1.5044e+02	4.9551	12.424966	0.000348	3.478622	0.589295	-0.000035
1514	1.5054e+02	4.9426	12.391157	0.000340	3.396772	0.575429	-0.000034
1515	1.5064e+02	4.9334	12.355311	0.000360	3.601397	0.610093	-0.000036
1516	1.5074e+02	4.9261	12.324760	0.000307	3.069373	0.519966	-0.000031
1517	1.5084e+02	4.9129	12.288099	0.000368	3.683247	0.623959	-0.000037
1518	1.5094e+02	4.9035	12.259178	0.000291	2.905673	0.492234	-0.000029
1519	1.5104e+02	4.8943	12.220073	0.000393	3.928797	0.665556	-0.000039
1520	1.5114e+02	4.8858	12.186263	0.000340	3.396772	0.575429	-0.000034
1521	1.5124e+02	4.8739	12.152861	0.000336	3.355847	0.568496	-0.000034
1522	1.5134e+02	4.8656	12.118645	0.000344	3.437697	0.582362	-0.000034
1523	1.5144e+02	4.8559	12.084428	0.000344	3.437697	0.582362	-0.000034
1524	1.5154e+02	4.8443	12.048989	0.000356	3.560472	0.603160	-0.000036
1525	1.5164e+02	4.8327	12.015587	0.000336	3.355847	0.568496	-0.000034
1526	1.5174e+02	4.8260	11.984222	0.000315	3.151223	0.533832	-0.000032
1527	1.5184e+02	4.8130	11.950819	0.000336	3.355847	0.568496	-0.000034
1528	1.5194e+02	4.8045	11.920269	0.000307	3.069373	0.519966	-0.000031
1529	1.5204e+02	4.7955	11.886867	0.000336	3.355847	0.568496	-0.000034
1530	1.5214e+02	4.7863	11.852650	0.000344	3.437697	0.582362	-0.000034
1531	1.5224e+02	4.7753	11.823729	0.000291	2.905673	0.492234	-0.000029
1532	1.5233e+02	4.7651	11.787068	0.000368	3.683247	0.623959	-0.000037
1533	1.5243e+02	4.7543	11.758554	0.000286	2.864748	0.485301	-0.000029
1534	1.5253e+02	4.7492	11.725152	0.000336	3.355847	0.568496	-0.000034
1535	1.5263e+02	4.7338	11.691750	0.000336	3.355847	0.568496	-0.000034
1536	1.5273e+02	4.7237	11.660792	0.000311	3.110298	0.526899	-0.000031
1537	1.5283e+02	4.7149	11.629019	0.000319	3.192148	0.540764	-0.000032
1538	1.5293e+02	4.7100	11.598875	0.000303	3.028448	0.513033	-0.000030
1539	1.5303e+02	4.6969	11.565881	0.000331	3.314922	0.561563	-0.000033
1540	1.5313e+02	4.6865	11.530849	0.000352	3.519547	0.596227	-0.000035
1541	1.5323e+02	4.6770	11.502743	0.000282	2.823823	0.478369	-0.000028
1542	1.5333e+02	4.6633	11.467304	0.000356	3.560472	0.603160	-0.000036
1543	1.5343e+02	4.6563	11.434716	0.000327	3.273998	0.554630	-0.000033
1544	1.5353e+02	4.6450	11.396834	0.000381	3.806022	0.644758	-0.000038
1545	1.5363e+02	4.6386	11.365061	0.000319	3.192148	0.540764	-0.000032
1546	1.5373e+02	4.6239	11.333695	0.000315	3.151223	0.533832	-0.000032
1547	1.5383e+02	4.6191	11.297849	0.000360	3.601397	0.610093	-0.000036
1548	1.5393e+02	4.6066	11.265669	0.000323	3.233073	0.547697	-0.000032
1549	1.5403e+02	4.5951	11.233082	0.000327	3.273998	0.554630	-0.000033
1550	1.5413e+02	4.5879	11.200494	0.000327	3.273998	0.554630	-0.000033
1551	1.5422e+02	4.5776	11.167092	0.000336	3.355847	0.568496	-0.000034
1552	1.5432e+02	4.5666	11.131246	0.000360	3.601397	0.610093	-0.000036
1553	1.5442e+02	4.5562	11.098251	0.000331	3.314922	0.561563	-0.000033
1554	1.5452e+02	4.5464	11.064442	0.000340	3.396772	0.575429	-0.000034
1555	1.5462e+02	4.5385	11.031040	0.000336	3.355847	0.568496	-0.000034
1556	1.5472e+02	4.5238	10.996416	0.000348	3.478622	0.589295	-0.000035
1557	1.5482e+02	4.5174	10.960570	0.000360	3.601397	0.610093	-0.000036
1558	1.5492e+02	4.5068	10.924724	0.000360	3.601397	0.610093	-0.000036
1559	1.5502e+02	4.4952	10.892951	0.000319	3.192148	0.540764	-0.000032
1560	1.5512e+02	4.4854	10.859549	0.000336	3.355847	0.568496	-0.000034
1561	1.5522e+02	4.4772	10.828183	0.000315	3.151223	0.533832	-0.000032
1562	1.5532e+02	4.4657	10.798855	0.000295	2.946598	0.499167	-0.000029
1563	1.5542e+02	4.4555	10.765860	0.000331	3.314922	0.561563	-0.000033
1564	1.5552e+02	4.4457	10.733273	0.000327	3.273998	0.554630	-0.000033
1565	1.5562e+02	4.4378	10.703537	0.000299	2.987523	0.506100	-0.000030
1566	1.5572e+02	4.4274	10.670134	0.000336	3.355847	0.568496	-0.000034
1567	1.5582e+02	4.4152	10.642028	0.000282	2.823823	0.478369	-0.000028
1568	1.5592e+02	4.4070	10.612699	0.000295	2.946598	0.499167	-0.000029
1569	1.5602e+02	4.3967	10.579297	0.000336	3.355847	0.568496	-0.000034
1570	1.5612e+02	4.3858	10.547932	0.000315	3.151223	0.533832	-0.000032
1571	1.5622e+02	4.3786	10.514937	0.000331	3.314922	0.561563	-0.000033
1572	1.5631e+02	4.3676	10.484386	0.000307	3.069373	0.519966	-0.000031
1573	1.5641e+02	4.3575	10.455058	0.000295	2.946598	0.499167	-0.000029
1574	1.5651e+02	4.3484	10.425322	0.000299	2.987523	0.506100	-0.000030
1575	1.5661e+02	4.3403	10.392734	0.000327	3.273998	0.554630	-0.000033
1576	1.5671e+02	4.3276	10.361776	0.000311	3.110298	0.526899	-0.000031
1577	1.5681e+02	4.3168	10.327967	0.000340	3.396772	0.575429	-0.000034
1578	1.5691e+02	4.3096	10.300267	0.000278	2.782898	0.471436	-0.000028
1579	1.5701e+02	4.2980	10.270939	0.000295	2.946598	0.499167	-0.000029
1580	1.5711e+02	4.2867	10.236315	0.000348	3.478622	0.589295	-0.000035
1581	1.5721e+02	4.2776	10.211874	0.000246	2.455498	0.415973	-0.000025
1582	1.5731e+02	4.2657	10.179287	0.000327	3.273998	0.554630	-0.000033
1583	1.5741e+02	4.2565	10.147514	0.000319	3.192148	0.540764	-0.000032
1584	1.5751e+02	4.2486	10.112075	0.000356	3.560472	0.603160	-0.000036
1585	1.5761e+02	4.2327	10.080302	0.000319	3.192148	0.540764	-0.000032
1586	1.5771e+02	4.2265	10.052196	0.000282	2.823823	0.478369	-0.000028
1587	1.5781e+02	4.2162	10.019608	0.000327	3.273998	0.554630	-0.000033
1588	1.5791e+02	4.2095	9.987021	0.000327	3.273998	0.554630	-0.000033
1589	1.5801e+02	4.1979	9.960544	0.000266	2.660123	0.450637	-0.000027
1590	1.5811e+02	4.1915	9.925512	0.000352	3.519547	0.596227	-0.000035
1591	1.5821e+02	4.1764	9.896591	0.000291	2.905673	0.492234	-0.000029
1592	1.5830e+02	4.1708	9.868892	0.000278	2.782898	0.471436	-0.000028
1593	1.5840e+02	4.1573	9.840785	0.000282	2.823823	0.478369	-0.000028
1594	1.5850e+02	4.1463	9.812271	0.000286	2.864748	0.485301	-0.000029
1595	1.5860e+02	4.1387	9.778462	0.000340	3.396772	0.575429	-0.000034
1596	1.5870e+02	4.1262	9.754428	0.000241	2.414573	0.409040	-0.000024
1597	1.5880e+02	4.1177	9.723470	0.000311	3.110298	0.526899	-0.000031
1598	1.5890e+02	4.1058	9.697808	0.000258	2.578273	0.436771	-0.000026
1599	1.5900e+02	4.0975	9.664813	0.000331	3.314922	0.561563	-0.000033
1600	1.5910e+02	4.0868	9.638743	0.000262	2.619198	0.443704	-0.000026
1601	1.5920e+02	4.0786	9.608600	0.000303	3.028448	0.513033	-0.000030
1602	1.5930e+02	4.0661	9.577234	0.000315	3.151223	0.533832	-0.000032
1603	1.5940e+02	4.0578	9.549128	0.000282	2.823823	0.478369	-0.000028
1604	1.5950e+02	4.0458	9.519799	0.000295	2.946598	0.499167	-0.000029
1605	1.5960e+02	4.0405	9.492914	0.000270	2.701048	0.457570	-0.000027
1606	1.5970e+02	4.0307	9.461956	0.000311	3.110298	0.526899	-0.000031
1607	1.5980e+02	4.0168	9.430998	0.000311	3.110298	0.526899	-0.000031
1608	1.5990e+02	4.0079	9.403299	0.000278	2.782898	0.471436	-0.000028
1609	1.6000e+02	3.9971	9.375600	0.000278	2.782898	0.471436	-0.000028
1610	1.6010e+02	3.9898	9.345456	0.000303	3.028448	0.513033	-0.000030
1611	1.6019e+02	3.9785	9.314091	0.000315	3.151223	0.533832	-0.000032
1612	1.6029e+02	3.9715	9.283540	0.000307	3.069373	0.519966	-0.000031
1613	1.6039e+02	3.9574	9.250546	0.000331	3.314922	0.561563	-0.000033
1614	1.6049e+02	3.9483	9.222439	0.000282	2.823823	0.478369	-0.000028
1615	1.6059e+02	3.9376	9.189852	0.000327	3.273998	0.554630	-0.000033
1616	1.6069e+02	3.9324	9.157672	0.000323	3.233073	0.547697	-0.000032
1617	1.6079e+02	3.9178	9.124269	0.000336	3.355847	0.568496	-0.000034
1618	1.6089e+02	3.9080	9.094126	0.000303	3.028448	0.513033	-0.000030
1619	1.6099e+02	3.8967	9.059502	0.000348	3.478622	0.589295	-0.000035
1620	1.6109e+02	3.8921	9.026915	0.000327	3.273998	0.554630	-0.000033
1621	1.6119e+02	3.8790	8.992290	0.000348	3.478622	0.589295	-0.000035
1622	1.6129e+02	3.8659	8.967035	0.000254	2.537348	0.429838	-0.000025
1623	1.6139e+02	3.8598	8.932004	0.000352	3.519547	0.596227	-0.000035
1624	1.6149e+02	3.8445	8.899824	0.000323	3.233073	0.547697	-0.000032
1625	1.6159e+02	3.8369	8.865200	0.000348	3.478622	0.589295	-0.000035
1626	1.6169e+02	3.8253	8.837500	0.000278	2.782898	0.471436	-0.000028
1627	1.6179e+02	3.8229	8.807357	0.000303	3.028448	0.513033	-0.000030
1628	1.6189e+02	3.8091	8.771918	0.000356	3.560472	0.603160	-0.000036
1629	1.6199e+02	3.7998	8.745034	0.000270	2.701048	0.457570	-0.000027
1630	1.6209e+02	3.7887	8.714076	0.000311	3.110298	0.526899	-0.000031
1631	1.6219e+02	3.7786	8.687191	0.000270	2.701048	0.457570	-0.000027
1632	1.6228e+02	3.7673	8.652974	0.000344	3.437697	0.582362	-0.000034
1633	1.6238e+02	3.7608	8.622423	0.000307	3.069373	0.519966	-0.000031
1634	1.6248e+02	3.7489	8.591465	0.000311	3.110298	0.526899	-0.000031
1635	1.6258e+02	3.7402	8.556434	0.000352	3.519547	0.596227	-0.000035
1636	1.6268e+02	3.7298	8.528735	0.000278	2.782898	0.471436	-0.000028
1637	1.6278e+02	3.7215	8.498184	0.000307	3.069373	0.519966	-0.000031
1638	1.6288e+02	3.7125	8.466004	0.000323	3.233073	0.547697	-0.000032
1639	1.6298e+02	3.7016	8.434639	0.000315	3.151223	0.533832	-0.000032
1640	1.6308e+02	3.6877	8.405310	0.000295	2.946598	0.499167	-0.000029
1641	1.6318e+02	3.6826	8.373537	0.000319	3.192148	0.540764	-0.000032
1642	1.6328e+02	3.6684	8.341764	0.000319	3.192148	0.540764	-0.000032
1643	1.6338e+02	3.6605	8.308770	0.000331	3.314922	0.561563	-0.000033
1644	1.6348e+02	3.6510	8.279848	0.000291	2.905673	0.492234	-0.000029
1645	1.6358e+02	3.6411	8.245224	0.000348	3.478622	0.589295	-0.000035
1646	1.6368e+02	3.6295	8.211415	0.000340	3.396772	0.575429	-0.000034
1647	1.6378e+02	3.6201	8.173532	0.000381	3.806022	0.644758	-0.000038
1648	1.6388e+02	3.6111	8.139723	0.000340	3.396772	0.575429	-0.000034
1649	1.6398e+02	3.5986	8.107542	0.000323	3.233073	0.547697	-0.000032
1650	1.6408e+02	3.5903	8.075770	0.000319	3.192148	0.540764	-0.000032
1651	1.6418e+02	3.5815	8.038702	0.000372	3.724172	0.630892	-0.000037
1652	1.6427e+02	3.5705	8.006929	0.000319	3.192148	0.540764	-0.000032
1653	1.6437e+02	3.5589	7.972712	0.000344	3.437697	0.582362	-0.000034
1654	1.6447e+02	3.5516	7.939717	0.000331	3.314922	0.561563	-0.000033
1655	1.6457e+02	3.5387	7.903057	0.000368	3.683247	0.623959	-0.000037
1656	1.6467e+02	3.5308	7.868432	0.000348	3.478622	0.589295	-0.000035
1657	1.6477e+02	3.5192	7.836660	0.000319	3.192148	0.540764	-0.000032
1658	1.6487e+02	3.5122	7.799592	0.000372	3.724172	0.630892	-0.000037
1659	1.6497e+02	3.5009	7.764153	0.000356	3.560472	0.603160	-0.000036
1660	1.6507e+02	3.4904	7.727085	0.000372	3.724172	0.630892	-0.000037
1661	1.6517e+02	3.4824	7.691646	0.000356	3.560472	0.603160	-0.000036
1662	1.6527e+02	3.4695	7.655392	0.000364	3.642322	0.617026	-0.000036
1663	1.6537e+02	3.4615	7.623212	0.000323	3.233073	0.547697	-0.000032
1664	1.6547e+02	3.4487	7.588181	0.000352	3.519547	0.596227	-0.000035
1665	1.6557e+02	3.4411	7.552742	0.000356	3.560472	0.603160	-0.000036
1666	1.6567e+02	3.4330	7.516488	0.000364	3.642322	0.617026	-0.000036
1667	1.6577e+02	3.4216	7.480642	0.000360	3.601397	0.610093	-0.000036
1668	1.6587e+02	3.4122	7.450499	0.000303	3.028448	0.513033	-0.000030
1669	1.6597e+02	3.4026	7.412616	0.000381	3.806022	0.644758	-0.000038
1670	1.6607e+02	3.3941	7.376363	0.000364	3.642322	0.617026	-0.000036
1671	1.6616e+02	3.3816	7.340516	0.000360	3.601397	0.610093	-0.000036
1672	1.6626e+02	3.3709	7.304263	0.000364	3.642322	0.617026	-0.000036
1673	1.6636e+02	3.3627	7.267602	0.000368	3.683247	0.623959	-0.000037
1674	1.6646e+02	3.3526	7.230534	0.000372	3.724172	0.630892	-0.000037
1675	1.6656e+02	3.3419	7.197539	0.000331	3.314922	0.561563	-0.000033
1676	1.6666e+02	3.3343	7.161693	0.000360	3.601397	0.610093	-0.000036
1677	1.6676e+02	3.3219	7.122181	0.000397	3.969722	0.672489	-0.000040
1678	1.6686e+02	3.3129	7.082669	0.000397	3.969722	0.672489	-0.000040
1679	1.6696e+02	3.3024	7.045600	0.000372	3.724172	0.630892	-0.000037
1680	1.6706e+02	3.2906	7.003644	0.000422	4.215272	0.714086	-0.000042
1681	1.6716e+02	3.2818	6.966576	0.000372	3.724172	0.630892	-0.000037
1682	1.6726e+02	3.2725	6.929508	0.000372	3.724172	0.630892	-0.000037
1683	1.6736e+02	3.2616	6.890810	0.000389	3.887872	0.658623	-0.000039
1684	1.6746e+02	3.2519	6.850076	0.000409	4.092497	0.693288	-0.000041
1685	1.6756e+02	3.2413	6.817489	0.000327	3.273998	0.554630	-0.000033
1686	1.6766e+02	3.2345	6.779606	0.000381	3.806022	0.644758	-0.000038
1687	1.6776e+02	3.2241	6.734798	0.000450	4.501747	0.762617	-0.000045
1688	1.6786e+02	3.2134	6.696101	0.000389	3.887872	0.658623	-0.000039
1689	1.6796e+02	3.2006	6.660662	0.000356	3.560472	0.603160	-0.000036
1690	1.6806e+02	3.1963	6.624001	0.000368	3.683247	0.623959	-0.000037
1691	1.6816e+02	3.1850	6.586118	0.000381	3.806022	0.644758	-0.000038
1692	1.6825e+02	3.1713	6.548235	0.000381	3.806022	0.644758	-0.000038
1693	1.6835e+02	3.1637	6.511574	0.000368	3.683247	0.623959	-0.000037
1694	1.6845e+02	3.1533	6.473691	0.000381	3.806022	0.644758	-0.000038
1695	1.6855e+02	3.1451	6.436216	0.000377	3.765097	0.637825	-0.000038
1696	1.6865e+02	3.1298	6.399148	0.000372	3.724172	0.630892	-0.000037
1697	1.6875e+02	3.1234	6.362080	0.000372	3.724172	0.630892	-0.000037
1698	1.6885e+02	3.1139	6.326641	0.000356	3.560472	0.603160	-0.000036
1699	1.6895e+02	3.1016	6.288758	0.000381	3.806022	0.644758	-0.000038
1700	1.6905e+02	3.0901	6.252097	0.000368	3.683247	0.623959	-0.000037
1701	1.6915e+02	3.0825	6.217473	0.000348	3.478622	0.589295	-0.000035
1702	1.6925e+02	3.0718	6.182034	0.000356	3.560472	0.603160	-0.000036
1703	1.6935e+02	3.0618	6.147410	0.000348	3.478622	0.589295	-0.000035
1704	1.6945e+02	3.0526	6.110342	0.000372	3.724172	0.630892	-0.000037
1705	1.6955e+02	3.0441	6.070830	0.000397	3.969722	0.672489	-0.000040
1706	1.6965e+02	3.0352	6.036613	0.000344	3.437697	0.582362	-0.000034
1707	1.6975e+02	3.0221	5.997101	0.000397	3.969722	0.672489	-0.000040
1708	1.6985e+02	3.0123	5.962069	0.000352	3.519547	0.596227	-0.000035
1709	1.6995e+02	3.0042	5.926630	0.000356	3.560472	0.603160	-0.000036
1710	1.7005e+02	2.9927	5.887118	0.000397	3.969722	0.672489	-0.000040
1711	1.7015e+02	2.9815	5.852494	0.000348	3.478622	0.589295	-0.000035
1712	1.7024e+02	2.9726	5.811353	0.000413	4.133422	0.700221	-0.000041
1713	1.7034e+02	2.9623	5.771433	0.000401	4.010647	0.679422	-0.000040
1714	1.7044e+02	2.9565	5.733957	0.000377	3.765097	0.637825	-0.000038
1715	1.7054e+02	2.9394	5.698519	0.000356	3.560472	0.603160	-0.000036
1716	1.7064e+02	2.9336	5.659006	0.000397	3.969722	0.672489	-0.000040
1717	1.7074e+02	2.9235	5.619087	0.000401	4.010647	0.679422	-0.000040
1718	1.7084e+02	2.9128	5.584055	0.000352	3.519547	0.596227	-0.000035
1719	1.7094e+02	2.9019	5.547802	0.000364	3.642322	0.617026	-0.000036
1720	1.7104e+02	2.8921	5.509512	0.000385	3.846947	0.651690	-0.000038
1721	1.7114e+02	2.8844	5.471629	0.000381	3.806022	0.644758	-0.000038
1722	1.7124e+02	2.8722	5.432117	0.000397	3.969722	0.672489	-0.000040
1723	1.7134e+02	2.8634	5.390160	0.000422	4.215272	0.714086	-0.000042
1724	1.7144e+02	2.8526	5.355944	0.000344	3.437697	0.582362	-0.000034
1725	1.7154e+02	2.8432	5.313580	0.000426	4.256197	0.721019	-0.000043
1726	1.7164e+02	2.8353	5.277326	0.000364	3.642322	0.617026	-0.000036
1727	1.7174e+02	2.8265	5.239851	0.000377	3.765097	0.637825	-0.000038
1728	1.7184e+02	2.8153	5.205227	0.000348	3.478622	0.589295	-0.000035
1729	1.7194e+02	2.8057	5.170603	0.000348	3.478622	0.589295	-0.000035
1730	1.7204e+02	2.7937	5.135164	0.000356	3.560472	0.603160	-0.000036
1731	1.7213e+02	2.7821	5.101354	0.000340	3.396772	0.575429	-0.000034
1732	1.7223e+02	2.7706	5.062250	0.000393	3.928797	0.665556	-0.000039
1733	1.7233e+02	2.7618	5.025589	0.000368	3.683247	0.623959	-0.000037
1734	1.7243e+02	2.7551	4.990557	0.000352	3.519547	0.596227	-0.000035
1735	1.7253e+02	2.7435	4.953489	0.000372	3.724172	0.630892	-0.000037
1736	1.7263e+02	2.7355	4.920087	0.000336	3.355847	0.568496	-0.000034
1737	1.7273e+02	2.7236	4.882204	0.000381	3.806022	0.644758	-0.000038
1738	1.7283e+02	2.7164	4.845543	0.000368	3.683247	0.623959	-0.000037
1739	1.7293e+02	2.7050	4.810105	0.000356	3.560472	0.603160	-0.000036
1740	1.7303e+02	2.6943	4.773036	0.000372	3.724172	0.630892	-0.000037
1741	1.7313e+02	2.6848	4.741264	0.000319	3.192148	0.540764	-0.000032
1742	1.7323e+02	2.6727	4.705010	0.000364	3.642322	0.617026	-0.000036
1743	1.7333e+02	2.6622	4.669571	0.000356	3.560472	0.603160	-0.000036
1744	1.7343e+02	2.6545	4.634133	0.000356	3.560472	0.603160	-0.000036
1745	1.7353e+02	2.6436	4.598286	0.000360	3.601397	0.610093	-0.000036
1746	1.7363e+02	2.6363	4.561626	0.000368	3.683247	0.623959	-0.000037
1747	1.7373e+02	2.6243	4.529038	0.000327	3.273998	0.554630	-0.000033
1748	1.7383e+02	2.6162	4.493599	0.000356	3.560472	0.603160	-0.000036
1749	1.7393e+02	2.6043	4.456939	0.000368	3.683247	0.623959	-0.000037
1750	1.7403e+02	2.5933	4.422722	0.000344	3.437697	0.582362	-0.000034
1751	1.7413e+02	2.5851	4.383210	0.000397	3.969722	0.672489	-0.000040
1752	1.7422e+02	2.5755	4.346549	0.000368	3.683247	0.623959	-0.000037
1753	1.7432e+02	2.5689	4.313147	0.000336	3.355847	0.568496	-0.000034
1754	1.7442e+02	2.5553	4.278522	0.000348	3.478622	0.589295	-0.000035
1755	1.7452e+02	2.5460	4.239825	0.000389	3.887872	0.658623	-0.000039
1756	1.7462e+02	2.5368	4.208460	0.000315	3.151223	0.533832	-0.000032
1757	1.7472e+02	2.5257	4.168947	0.000397	3.969722	0.672489	-0.000040
1758	1.7482e+02	2.5167	4.135545	0.000336	3.355847	0.568496	-0.000034
1759	1.7492e+02	2.5036	4.102958	0.000327	3.273998	0.554630	-0.000033
1760	1.7502e+02	2.4978	4.072000	0.000311	3.110298	0.526899	-0.000031
1761	1.7512e+02	2.4894	4.038598	0.000336	3.355847	0.568496	-0.000034
1762	1.7522e+02	2.4752	4.003566	0.000352	3.519547	0.596227	-0.000035
1763	1.7532e+02	2.4660	3.968942	0.000348	3.478622	0.589295	-0.000035
1764	1.7542e+02	2.4561	3.935947	0.000331	3.314922	0.561563	-0.000033
1765	1.7552e+02	2.4477	3.904175	0.000319	3.192148	0.540764	-0.000032
1766	1.7562e+02	2.4358	3.868329	0.000360	3.601397	0.610093	-0.000036
1767	1.7572e+02	2.4245	3.834112	0.000344	3.437697	0.582362	-0.000034
1768	1.7582e+02	2.4166	3.800710	0.000336	3.355847	0.568496	-0.000034
1769	1.7592e+02	2.4044	3.766493	0.000344	3.437697	0.582362	-0.000034
1770	1.7602e+02	2.3977	3.737164	0.000295	2.946598	0.499167	-0.000029
1771	1.7612e+02	2.3862	3.701725	0.000356	3.560472	0.603160	-0.000036
1772	1.7621e+02	2.3764	3.666694	0.000352	3.519547	0.596227	-0.000035
1773	1.7631e+02	2.3650	3.632885	0.000340	3.396772	0.575429	-0.000034
1774	1.7641e+02	2.3553	3.599075	0.000340	3.396772	0.575429	-0.000034
1775	1.7651e+02	2.3456	3.565266	0.000340	3.396772	0.575429	-0.000034
1776	1.7661e+02	2.3367	3.531456	0.000340	3.396772	0.575429	-0.000034
1777	1.7671e+02	2.3254	3.493981	0.000377	3.765097	0.637825	-0.000038
1778	1.7681e+02	2.3164	3.458542	0.000356	3.560472	0.603160	-0.000036
1779	1.7691e+02	2.3040	3.424325	0.000344	3.437697	0.582362	-0.000034
1780	1.7701e+02	2.2971	3.387257	0.000372	3.724172	0.630892	-0.000037
1781	1.7711e+02	2.2866	3.350596	0.000368	3.683247	0.623959	-0.000037
1782	1.7721e+02	2.2775	3.315157	0.000356	3.560472	0.603160	-0.000036
1783	1.7731e+02	2.2665	3.280126	0.000352	3.519547	0.596227	-0.000035
1784	1.7741e+02	2.2588	3.243465	0.000368	3.683247	0.623959	-0.000037
1785	1.7751e+02	2.2449	3.205582	0.000381	3.806022	0.644758	-0.000038
1786	1.7761e+02	2.2356	3.171773	0.000340	3.396772	0.575429	-0.000034
1787	1.7771e+02	2.2222	3.133890	0.000381	3.806022	0.644758	-0.000038
1788	1.7781e+02	2.2144	3.093563	0.000405	4.051572	0.686355	-0.000041
1789	1.7791e+02	2.2069	3.060568	0.000331	3.314922	0.561563	-0.000033
1790	1.7801e+02	2.1981	3.019427	0.000413	4.133422	0.700221	-0.000041
1791	1.7810e+02	2.1868	2.988876	0.000307	3.069373	0.519966	-0.000031
1792	1.7820e+02	2.1774	2.946920	0.000422	4.215272	0.714086	-0.000042
1793	1.7830e+02	2.1668	2.913518	0.000336	3.355847	0.568496	-0.000034
1794	1.7840e+02	2.1618	2.876042	0.000377	3.765097	0.637825	-0.000038
1795	1.7850e+02	2.1464	2.838159	0.000381	3.806022	0.644758	-0.000038
1796	1.7860e+02	2.1349	2.806794	0.000315	3.151223	0.533832	-0.000032
1797	1.7870e+02	2.1233	2.769318	0.000377	3.765097	0.637825	-0.000038
1798	1.7880e+02	2.1151	2.734694	0.000348	3.478622	0.589295	-0.000035
1799	1.7890e+02	2.1065	2.700885	0.000340	3.396772	0.575429	-0.000034
1800	1.7900e+02	2.0953	2.660965	0.000401	4.010647	0.679422	-0.000040
1801	1.7910e+02	2.0861	2.627156	0.000340	3.396772	0.575429	-0.000034
1802	1.7920e+02	2.0783	2.591717	0.000356	3.560472	0.603160	-0.000036
1803	1.7930e+02	2.0675	2.551797	0.000401	4.010647	0.679422	-0.000040
1804	1.7940e+02	2.0580	2.515544	0.000364	3.642322	0.617026	-0.000036
1805	1.7950e+02	2.0445	2.481327	0.000344	3.437697	0.582362	-0.000034
1806	1.7960e+02	2.0370	2.447110	0.000344	3.437697	0.582362	-0.000034
1807	1.7970e+02	2.0301	2.407598	0.000397	3.969722	0.672489	-0.000040
1808	1.7980e+02	2.0190	2.375825	0.000319	3.192148	0.540764	-0.000032
1809	1.7990e+02	2.0071	2.340387	0.000356	3.560472	0.603160	-0.000036
1810	1.8000e+02	1.9983	2.302096	0.000385	3.846947	0.651690	-0.000038
1811	1.8009e+02	1.9858	2.266250	0.000360	3.601397	0.610093	-0.000036
1812	1.8019e+02	1.9781	2.226738	0.000397	3.969722	0.672489	-0.000040
1813	1.8029e+02	1.9675	2.186818	0.000401	4.010647	0.679422	-0.000040
1814	1.8039e+02	1.9579	2.148528	0.000385	3.846947	0.651690	-0.000038
1815	1.8049e+02	1.9492	2.110645	0.000381	3.806022	0.644758	-0.000038
1816	1.8059e+02	1.9407	2.068689	0.000422	4.215272	0.714086	-0.000042
1817	1.8069e+02	1.9292	2.027955	0.000409	4.092497	0.693288	-0.000041
1818	1.8079e+02	1.9181	1.990072	0.000381	3.806022	0.644758	-0.000038
1819	1.8089e+02	1.9106	1.952597	0.000377	3.765097	0.637825	-0.000038
1820	1.8099e+02	1.8970	1.913899	0.000389	3.887872	0.658623	-0.000039
1821	1.8109e+02	1.8865	1.871943	0.000422	4.215272	0.714086	-0.000042
1822	1.8119e+02	1.8810	1.832838	0.000393	3.928797	0.665556	-0.000039
1823	1.8129e+02	1.8707	1.794548	0.000385	3.846947	0.651690	-0.000038
1824	1.8139e+02	1.8584	1.754221	0.000405	4.051572	0.686355	-0.000041
1825	1.8149e+02	1.8475	1.716338	0.000381	3.806022	0.644758	-0.000038
1826	1.8159e+02	1.8417	1.676826	0.000397	3.969722	0.672489	-0.000040
1827	1.8169e+02	1.8314	1.636499	0.000405	4.051572	0.686355	-0.000041
1828	1.8179e+02	1.8188	1.595764	0.000409	4.092497	0.693288	-0.000041
1829	1.8189e+02	1.8073	1.559104	0.000368	3.683247	0.623959	-0.000037
1830	1.8199e+02	1.7995	1.514703	0.000446	4.460822	0.755684	-0.000045
1831	1.8209e+02	1.7915	1.474376	0.000405	4.051572	0.686355	-0.000041
1832	1.8218e+02	1.7794	1.436086	0.000385	3.846947	0.651690	-0.000038
1833	1.8228e+02	1.7677	1.396167	0.000401	4.010647	0.679422	-0.000040
1834	1.8238e+02	1.7588	1.353803	0.000426	4.256197	0.721019	-0.000043
1835	1.8248e+02	1.7480	1.313069	0.000409	4.092497	0.693288	-0.000041
1836	1.8258e+02	1.7388	1.272334	0.000409	4.092497	0.693288	-0.000041
1837	1.8268e+02	1.7304	1.232415	0.000401	4.010647	0.679422	-0.000040
1838	1.8278e+02	1.7188	1.188015	0.000446	4.460822	0.755684	-0.000045
1839	1.8288e+02	1.7091	1.150539	0.000377	3.765097	0.637825	-0.000038
1840	1.8298e+02	1.6985	1.109397	0.000413	4.133422	0.700221	-0.000041
1841	1.8308e+02	1.6879	1.069885	0.000397	3.969722	0.672489	-0.000040
1842	1.8318e+02	1.6798	1.025485	0.000446	4.460822	0.755684	-0.000045
1843	1.8328e+02	1.6702	0.982307	0.000434	4.338047	0.734885	-0.000043
1844	1.8338e+02	1.6592	0.940350	0.000422	4.215272	0.714086	-0.000042
1845	1.8348e+02	1.6525	0.897579	0.000430	4.297122	0.727952	-0.000043
1846	1.8358e+02	1.6399	0.854808	0.000430	4.297122	0.727952	-0.000043
1847	1.8368e+02	1.6283	0.808371	0.000467	4.665446	0.790348	-0.000047
1848	1.8378e+02	1.6216	0.772118	0.000364	3.642322	0.617026	-0.000036
1849	1.8388e+02	1.6094	0.723644	0.000487	4.870071	0.825012	-0.000049
1850	1.8398e+02	1.5975	0.680058	0.000438	4.378972	0.741818	-0.000044
1851	1.8407e+02	1.5888	0.635251	0.000450	4.501747	0.762617	-0.000045
1852	1.8417e+02	1.5795	0.591258	0.000442	4.419897	0.748751	-0.000044
1853	1.8427e+02	1.5703	0.550116	0.000413	4.133422	0.700221	-0.000041
1854	1.8437e+02	1.5596	0.505308	0.000450	4.501747	0.762617	-0.000045
1855	1.8447e+02	1.5497	0.462130	0.000434	4.338047	0.734885	-0.000043
1856	1.8457e+02	1.5395	0.418952	0.000434	4.338047	0.734885	-0.000043
1857	1.8467e+02	1.5298	0.372515	0.000467	4.665446	0.790348	-0.000047
1858	1.8477e+02	1.5227	0.329336	0.000434	4.338047	0.734885	-0.000043
1859	1.8487e+02	1.5092	0.286973	0.000426	4.256197	0.721019	-0.000043
1860	1.8497e+02	1.4996	0.244202	0.000430	4.297122	0.727952	-0.000043
1861	1.8507e+02	1.4904	0.201024	0.000434	4.338047	0.734885	-0.000043
1862	1.8517e+02	1.4795	0.157845	0.000434	4.338047	0.734885	-0.000043
1863	1.8527e+02	1.4703	0.113445	0.000446	4.460822	0.755684	-0.000045
1864	1.8537e+02	1.4583	0.076377	0.000372	3.724172	0.630892	-0.000037
1865	1.8547e+02	1.4487	0.031162	0.000454	4.542672	0.769549	-0.000045
1866	1.8557e+02	1.4408	-0.012831	0.000442	4.419897	0.748751	-0.000044
1867	1.8567e+02	1.4304	-0.050307	0.000377	3.765097	0.637825	-0.000038
1868	1.8577e+02	1.4207	-0.091856	0.000417	4.174347	0.707153	-0.000042
1869	1.8587e+02	1.4088	-0.133405	0.000417	4.174347	0.707153	-0.000042
1870	1.8597e+02	1.4010	-0.176583	0.000434	4.338047	0.734885	-0.000043
1871	1.8606e+02	1.3893	-0.219354	0.000430	4.297122	0.727952	-0.000043
1872	1.8616e+02	1.3786	-0.262532	0.000434	4.338047	0.734885	-0.000043
1873	1.8626e+02	1.3714	-0.303674	0.000413	4.133422	0.700221	-0.000041
1874	1.8636e+02	1.3618	-0.345223	0.000417	4.174347	0.707153	-0.000042
1875	1.8646e+02	1.3530	-0.382698	0.000377	3.765097	0.637825	-0.000038
1876	1.8656e+02	1.3407	-0.431172	0.000487	4.870071	0.825012	-0.000049
1877	1.8666e+02	1.3297	-0.470277	0.000393	3.928797	0.665556	-0.000039
1878	1.8676e+02	1.3226	-0.510604	0.000405	4.051572	0.686355	-0.000041
1879	1.8686e+02	1.3095	-0.559078	0.000487	4.870071	0.825012	-0.000049
1880	1.8696e+02	1.3021	-0.601034	0.000422	4.215272	0.714086	-0.000042
1881	1.8706e+02	1.2896	-0.645842	0.000450	4.501747	0.762617	-0.000045
1882	1.8716e+02	1.2798	-0.689427	0.000438	4.378972	0.741818	-0.000044
1883	1.8726e+02	1.2724	-0.737494	0.000483	4.829146	0.818080	-0.000048
1884	1.8736e+02	1.2576	-0.779450	0.000422	4.215272	0.714086	-0.000042
1885	1.8746e+02	1.2504	-0.817740	0.000385	3.846947	0.651690	-0.000038
1886	1.8756e+02	1.2426	-0.859289	0.000417	4.174347	0.707153	-0.000042
1887	1.8766e+02	1.2324	-0.904097	0.000450	4.501747	0.762617	-0.000045
1888	1.8776e+02	1.2241	-0.948497	0.000446	4.460822	0.755684	-0.000045
1889	1.8786e+02	1.2108	-0.994119	0.000458	4.583597	0.776482	-0.000046
1890	1.8796e+02	1.2011	-1.034854	0.000409	4.092497	0.693288	-0.000041
1891	1.8806e+02	1.1919	-1.079661	0.000450	4.501747	0.762617	-0.000045
1892	1.8815e+02	1.1814	-1.124062	0.000446	4.460822	0.755684	-0.000045
1893	1.8825e+02	1.1736	-1.169277	0.000454	4.542672	0.769549	-0.000045
1894	1.8835e+02	1.1620	-1.212048	0.000430	4.297122	0.727952	-0.000043
1895	1.8845e+02	1.1509	-1.255633	0.000438	4.378972	0.741818	-0.000044
1896	1.8855e+02	1.1430	-1.296368	0.000409	4.092497	0.693288	-0.000041
1897	1.8865e+02	1.1318	-1.336695	0.000405	4.051572	0.686355	-0.000041
1898	1.8875e+02	1.1237	-1.379873	0.000434	4.338047	0.734885	-0.000043
1899	1.8885e+02	1.1137	-1.420200	0.000405	4.051572	0.686355	-0.000041
1900	1.8895e+02	1.1023	-1.460527	0.000405	4.051572	0.686355	-0.000041
1901	1.8905e+02	1.0927	-1.503705	0.000434	4.338047	0.734885	-0.000043
1902	1.8915e+02	1.0856	-1.547698	0.000442	4.419897	0.748751	-0.000044
1903	1.8925e+02	1.0747	-1.590469	0.000430	4.297122	0.727952	-0.000043
1904	1.8935e+02	1.0609	-1.634055	0.000438	4.378972	0.741818	-0.000044
1905	1.8945e+02	1.0524	-1.671938	0.000381	3.806022	0.644758	-0.000038
1906	1.8955e+02	1.0442	-1.714301	0.000426	4.256197	0.721019	-0.000043
1907	1.8965e+02	1.0355	-1.755035	0.000409	4.092497	0.693288	-0.000041
1908	1.8975e+02	1.0250	-1.794548	0.000397	3.969722	0.672489	-0.000040
1909	1.8985e+02	1.0104	-1.838133	0.000438	4.378972	0.741818	-0.000044
1910	1.8995e+02	1.0015	-1.880904	0.000430	4.297122	0.727952	-0.000043
1911	1.9004e+02	0.9948	-1.919602	0.000389	3.887872	0.658623	-0.000039
1912	1.9014e+02	0.9846	-1.959114	0.000397	3.969722	0.672489	-0.000040
1913	1.9024e+02	0.9753	-2.000256	0.000413	4.133422	0.700221	-0.000041
1914	1.9034e+02	0.9621	-2.048729	0.000487	4.870071	0.825012	-0.000049
1915	1.9044e+02	0.9547	-2.085390	0.000368	3.683247	0.623959	-0.000037
1916	1.9054e+02	0.9418	-2.127754	0.000426	4.256197	0.721019	-0.000043
1917	1.9064e+02	0.9342	-2.168488	0.000409	4.092497	0.693288	-0.000041
1918	1.9074e+02	0.9249	-2.212074	0.000438	4.378972	0.741818	-0.000044
1919	1.9084e+02	0.9113	-2.255659	0.000438	4.378972	0.741818	-0.000044
1920	1.9094e+02	0.9028	-2.296801	0.000413	4.133422	0.700221	-0.000041
1921	1.9104e+02	0.8932	-2.337128	0.000405	4.051572	0.686355	-0.000041
1922	1.9114e+02	0.8849	-2.375825	0.000389	3.887872	0.658623	-0.000039
1923	1.9124e+02	0.8719	-2.421855	0.000462	4.624521	0.783415	-0.000046
1924	1.9134e+02	0.8675	-2.461775	0.000401	4.010647	0.679422	-0.000040
1925	1.9144e+02	0.8504	-2.500880	0.000393	3.928797	0.665556	-0.000039
1926	1.9154e+02	0.8438	-2.541207	0.000405	4.051572	0.686355	-0.000041
1927	1.9164e+02	0.8326	-2.582755	0.000417	4.174347	0.707153	-0.000042
1928	1.9174e+02	0.8218	-2.623897	0.000413	4.133422	0.700221	-0.000041
1929	1.9184e+02	0.8103	-2.664224	0.000405	4.051572	0.686355	-0.000041
1930	1.9194e+02	0.8022	-2.701292	0.000372	3.724172	0.630892	-0.000037
1931	1.9203e+02	0.7912	-2.742026	0.000409	4.092497	0.693288	-0.000041
1932	1.9213e+02	0.7824	-2.778687	0.000368	3.683247	0.623959	-0.000037
1933	1.9223e+02	0.7744	-2.818199	0.000397	3.969722	0.672489	-0.000040
1934	1.9233e+02	0.7664	-2.860970	0.000430	4.297122	0.727952	-0.000043
1935	1.9243e+02	0.7554	-2.900890	0.000401	4.010647	0.679422	-0.000040
1936	1.9253e+02	0.7453	-2.939995	0.000393	3.928797	0.665556	-0.000039
1937	1.9263e+02	0.7335	-2.978285	0.000385	3.846947	0.651690	-0.000038
1938	1.9273e+02	0.7238	-3.019019	0.000409	4.092497	0.693288	-0.000041
1939	1.9283e+02	0.7150	-3.060976	0.000422	4.215272	0.714086	-0.000042
1940	1.9293e+02	0.7029	-3.100080	0.000393	3.928797	0.665556	-0.000039
1941	1.9303e+02	0.6937	-3.137963	0.000381	3.806022	0.644758	-0.000038
1942	1.9313e+02	0.6841	-3.180734	0.000430	4.297122	0.727952	-0.000043
1943	1.9323e+02	0.6728	-3.223505	0.000430	4.297122	0.727952	-0.000043
1944	1.9333e+02	0.6639	-3.262610	0.000393	3.928797	0.665556	-0.000039
1945	1.9343e+02	0.6550	-3.305788	0.000434	4.338047	0.734885	-0.000043
1946	1.9353e+02	0.6434	-3.346115	0.000405	4.051572	0.686355	-0.000041
1947	1.9363e+02	0.6319	-3.386442	0.000405	4.051572	0.686355	-0.000041
1948	1.9373e+02	0.6229	-3.429213	0.000430	4.297122	0.727952	-0.000043
1949	1.9383e+02	0.6156	-3.469540	0.000405	4.051572	0.686355	-0.000041
1950	1.9393e+02	0.6049	-3.513533	0.000442	4.419897	0.748751	-0.000044
1951	1.9403e+02	0.5950	-3.556711	0.000434	4.338047	0.734885	-0.000043
1952	1.9412e+02	0.5843	-3.601112	0.000446	4.460822	0.755684	-0.000045
1953	1.9422e+02	0.5737	-3.643883	0.000430	4.297122	0.727952	-0.000043
1954	1.9432e+02	0.5634	-3.688283	0.000446	4.460822	0.755684	-0.000045
1955	1.9442e+02	0.5547	-3.729425	0.000413	4.133422	0.700221	-0.000041
1956	1.9452e+02	0.5444	-3.769752	0.000405	4.051572	0.686355	-0.000041
1957	1.9462e+02	0.5363	-3.815781	0.000462	4.624521	0.783415	-0.000046
1958	1.9472e+02	0.5249	-3.860996	0.000454	4.542672	0.769549	-0.000045
1959	1.9482e+02	0.5163	-3.901731	0.000409	4.092497	0.693288	-0.000041
1960	1.9492e+02	0.5041	-3.945316	0.000438	4.378972	0.741818	-0.000044
1961	1.9502e+02	0.4947	-3.987680	0.000426	4.256197	0.721019	-0.000043
1962	1.9512e+02	0.4846	-4.030044	0.000426	4.256197	0.721019	-0.000043
1963	1.9522e+02	0.4731	-4.073629	0.000438	4.378972	0.741818	-0.000044
1964	1.9532e+02	0.4668	-4.113956	0.000405	4.051572	0.686355	-0.000041
1965	1.9542e+02	0.4562	-4.159578	0.000458	4.583597	0.776482	-0.000046
1966	1.9552e+02	0.4427	-4.199091	0.000397	3.969722	0.672489	-0.000040
1967	1.9562e+02	0.4338	-4.240232	0.000413	4.133422	0.700221	-0.000041
1968	1.9572e+02	0.4240	-4.285447	0.000454	4.542672	0.769549	-0.000045
1969	1.9582e+02	0.4134	-4.326182	0.000409	4.092497	0.693288	-0.000041
1970	1.9592e+02	0.4051	-4.368545	0.000426	4.256197	0.721019	-0.000043
1971	1.9601e+02	0.3965	-4.411316	0.000430	4.297122	0.727952	-0.000043
1972	1.9611e+02	0.3843	-4.456124	0.000450	4.501747	0.762617	-0.000045
1973	1.9621e+02	0.3748	-4.500117	0.000442	4.419897	0.748751	-0.000044
1974	1.9631e+02	0.3664	-4.536370	0.000364	3.642322	0.617026	-0.000036
1975	1.9641e+02	0.3571	-4.584029	0.000479	4.788221	0.811147	-0.000048
1976	1.9651e+02	0.3444	-4.626393	0.000426	4.256197	0.721019	-0.000043
1977	1.9661e+02	0.3345	-4.671201	0.000450	4.501747	0.762617	-0.000045
1978	1.9671e+02	0.3259	-4.710306	0.000393	3.928797	0.665556	-0.000039
1979	1.9681e+02	0.3167	-4.755928	0.000458	4.583597	0.776482	-0.000046
1980	1.9691e+02	0.3027	-4.800328	0.000446	4.460822	0.755684	-0.000045
1981	1.9701e+02	0.2976	-4.848802	0.000487	4.870071	0.825012	-0.000049
1982	1.9711e+02	0.2841	-4.892388	0.000438	4.378972	0.741818	-0.000044
1983	1.9721e+02	0.2786	-4.940047	0.000479	4.788221	0.811147	-0.000048
1984	1.9731e+02	0.2678	-4.982410	0.000426	4.256197	0.721019	-0.000043
1985	1.9741e+02	0.2562	-5.033328	0.000512	5.115621	0.866610	-0.000051
1986	1.9751e+02	0.2466	-5.074877	0.000417	4.174347	0.707153	-0.000042
1987	1.9761e+02	0.2367	-5.119685	0.000450	4.501747	0.762617	-0.000045
1988	1.9771e+02	0.2251	-5.171010	0.000516	5.156546	0.873543	-0.000052
1989	1.9781e+02	0.2167	-5.218262	0.000475	4.747296	0.804214	-0.000047
1990	1.9791e+02	0.2058	-5.264291	0.000462	4.624521	0.783415	-0.000046
1991	1.9800e+02	0.1951	-5.306248	0.000422	4.215272	0.714086	-0.000042
1992	1.9810e+02	0.1880	-5.356351	0.000503	5.033771	0.852744	-0.000050
1993	1.9820e+02	0.1803	-5.401159	0.000450	4.501747	0.762617	-0.000045
1994	1.9830e+02	0.1669	-5.447188	0.000462	4.624521	0.783415	-0.000046
1995	1.9840e+02	0.1563	-5.492403	0.000454	4.542672	0.769549	-0.000045
1996	1.9850e+02	0.1462	-5.541284	0.000491	4.910996	0.831945	-0.000049
1997	1.9860e+02	0.1361	-5.590980	0.000499	4.992846	0.845811	-0.000050
1998	1.9870e+02	0.1266	-5.635788	0.000450	4.501747	0.762617	-0.000045
1999	1.9880e+02	0.1157	-5.681818	0.000462	4.624521	0.783415	-0.000046
2000	1.9890e+02	0.1084	-5.731921	0.000503	5.033771	0.852744	-0.000050
2001	1.9900e+02	0.0982	-5.776321	0.000446	4.460822	0.755684	-0.000045
2002	1.9910e+02	0.0873	-5.826424	0.000503	5.033771	0.852744	-0.000050
2003	1.9920e+02	0.0783	-5.870825	0.000446	4.460822	0.755684	-0.000045
2004	1.9930e+02	0.0654	-5.922557	0.000520	5.197471	0.880475	-0.000052
2005	1.9940e+02	0.0536	-5.966143	0.000438	4.378972	0.741818	-0.000044
2006	1.9950e+02	0.0450	-6.013802	0.000479	4.788221	0.811147	-0.000048
2007	1.9960e+02	0.0352	-6.061868	0.000483	4.829146	0.818080	-0.000048
2008	1.9970e+02	0.0272	-6.109935	0.000483	4.829146	0.818080	-0.000048
2009	1.9980e+02	0.0187	-6.159630	0.000499	4.992846	0.845811	-0.000050
2010	1.9990e+02	0.0088	-6.207697	0.000483	4.829146	0.818080	-0.000048
2011	2.0000e+02	-0.0027	-6.258615	0.000483	4.829146	0.818080	-0.000051

PMax (uC/cm2):	4.09e+01
Pr (uC/cm2):	1.54e+01
-Pr (uC/cm2):	0.00e+00
PLoss (uC/cm2):	0.00e+00
C (Max-Eff) (nF):	4.09e-01
K (Eff):	6.92e+02
Vert. (+/-Pr) Shift (uC/cm2):	7.72e+00
Offset (uC/cm2):	2.17e+01

A (Loop Area - uC/cm2·Volts):	-1.03e-01



Hysteresis Version: 5.48.1 - Radiant Technologies, Inc., 1999 - 9/12/24

