»»»»»»»»»»»»»»»»»»»»»»»»»»»»»»»»»»»» Hysteresis ««««««««««««««««««««««««««««««««««««
»»»  Executed Version:	5.48.1
»»»  Vision Version:	5.48.4 (R)
»»»  Vision Compiled:	9/18/24
»»»  Driver Version:	5.47.0
»»»  Windows Version:	Windows 8 or 8.1
»»»  Processor Information:	x86 (AMD or Intel) - 32 Processors
»»»  Tester Name:	PMF21124-494 (100V)
»»»  Tester S/N:	PMF21124-494
»»»  Internal Amp Type:	100V RevK 270k
»»»  Internal Amp S/N:	iAB2-596/K     
»»»  Execution Count:	1
»»»»»»»»»»»»»»»»»»»»»»»»»»»»»»»»»»»»»»»»»»««««««««««««««««««««««««««««««««««««««««««

Stored:	6/30/2025 - 10:53:54
Configured:	06/30/25 10:19:58 AM
Executed:	06/30/25 10:53:23 AM

»»»»»»»»»»»»»»»»»»»»»»»»»»»»»»»»»»» Sample Info ««««««««««««««««««««««««««««««««««««
Sample Name:	
Lot Name:	
Wafer Name:	
Die Row/Column:	0/0
Capacitor Number:	0
Sample Area (cm2):	1.00e-04
Sample Thickness (microns):	1.50e-01

Amplifier:	Internal

»»»»»»»»»»»»»»»»»»»»»»»»»»»»»»»»»»» Tester Info «««««««««««««««««««««««««««««««««««
Tester Name:	PMF21124-494 (100V)
Tester Serial Number:	PMF21124-494
Return Signal Amp. Level:	1.9 [Index: 2]

»»»»»»»»»»»»»»»»»»»»»»»»»»»»»»»» Hysteresis Info ««««««««««««««««««««««««««««««««««
Task Name:	Hyst-1804
Volts:	10.00
Field:	666.67 (kV/cm)
DCBias:	0.00
DCField:	0.00 (kV/cm)
Hysteresis Period (ms):	2.00e+02
Preset:	Enabled
Preset Delay (ms):	1.00e+03
Profile:	Standard Monopolar

»»»»»»»»»»»»»»»»»»»»»»»»»»»»»»»»»»»»»» Data «««««««««««««««««««««««««««««««««««««««
Points:	2011

Valid Data

Point	Time (ms)	Drive Voltage	Measured Polarization (uC/cm2)	Capacitance (uF)	Normalized Capacitance (uF/cm2)	Dielectric Constant	Instantaneous Current (mA)
   1	0.0000e+00	-0.0030	-17.757691	0.000414	4.135425	0.700560	0.000041
   2	9.9500e-02	0.0063	-17.716550	0.000414	4.135425	0.700560	0.000041
   3	1.9900e-01	0.0146	-17.678667	0.000381	3.807866	0.645070	0.000038
   4	2.9850e-01	0.0243	-17.630600	0.000483	4.831486	0.818476	0.000048
   5	3.9800e-01	0.0371	-17.587422	0.000434	4.340149	0.735241	0.000043
   6	4.9750e-01	0.0459	-17.540985	0.000467	4.667707	0.790731	0.000047
   7	5.9700e-01	0.0538	-17.499436	0.000418	4.176369	0.707496	0.000042
   8	6.9650e-01	0.0681	-17.450555	0.000491	4.913376	0.832348	0.000049
   9	7.9600e-01	0.0735	-17.407377	0.000434	4.340149	0.735241	0.000043
  10	8.9550e-01	0.0867	-17.361754	0.000459	4.585817	0.776859	0.000046
  11	9.9500e-01	0.0963	-17.315317	0.000467	4.667707	0.790731	0.000047
  12	1.0945e+00	0.1058	-17.275805	0.000397	3.971645	0.672815	0.000040
  13	1.1940e+00	0.1117	-17.233034	0.000430	4.299204	0.728305	0.000043
  14	1.2935e+00	0.1260	-17.187412	0.000459	4.585817	0.776859	0.000046
  15	1.3930e+00	0.1351	-17.138531	0.000491	4.913376	0.832348	0.000049
  16	1.4925e+00	0.1448	-17.097796	0.000409	4.094480	0.693624	0.000041
  17	1.5920e+00	0.1525	-17.052989	0.000450	4.503928	0.762986	0.000045
  18	1.6915e+00	0.1660	-17.006144	0.000471	4.708652	0.797667	0.000047
  19	1.7910e+00	0.1731	-16.963373	0.000430	4.299204	0.728305	0.000043
  20	1.8905e+00	0.1844	-16.916121	0.000475	4.749597	0.804603	0.000047
  21	1.9900e+00	0.1950	-16.869684	0.000467	4.667707	0.790731	0.000047
  22	2.0895e+00	0.2047	-16.824877	0.000450	4.503928	0.762986	0.000045
  23	2.1890e+00	0.2165	-16.780476	0.000446	4.462983	0.756050	0.000045
  24	2.2885e+00	0.2225	-16.735669	0.000450	4.503928	0.762986	0.000045
  25	2.3880e+00	0.2332	-16.690046	0.000459	4.585817	0.776859	0.000046
  26	2.4875e+00	0.2464	-16.644424	0.000459	4.585817	0.776859	0.000046
  27	2.5870e+00	0.2539	-16.603690	0.000409	4.094480	0.693624	0.000041
  28	2.6865e+00	0.2643	-16.558882	0.000450	4.503928	0.762986	0.000045
  29	2.7860e+00	0.2743	-16.520592	0.000385	3.848811	0.652006	0.000038
  30	2.8855e+00	0.2882	-16.472933	0.000479	4.790541	0.811540	0.000048
  31	2.9850e+00	0.2930	-16.432199	0.000409	4.094480	0.693624	0.000041
  32	3.0845e+00	0.3046	-16.388206	0.000442	4.422038	0.749114	0.000044
  33	3.1840e+00	0.3143	-16.346657	0.000418	4.176369	0.707496	0.000042
  34	3.2835e+00	0.3232	-16.298183	0.000487	4.872431	0.825412	0.000049
  35	3.3830e+00	0.3346	-16.259078	0.000393	3.930701	0.665879	0.000039
  36	3.4825e+00	0.3460	-16.212641	0.000467	4.667707	0.790731	0.000047
  37	3.5820e+00	0.3548	-16.165389	0.000475	4.749597	0.804603	0.000047
  38	3.6815e+00	0.3652	-16.117730	0.000479	4.790541	0.811540	0.000048
  39	3.7810e+00	0.3748	-16.075774	0.000422	4.217314	0.714432	0.000042
  40	3.8805e+00	0.3839	-16.030966	0.000450	4.503928	0.762986	0.000045
  41	3.9800e+00	0.3916	-15.986158	0.000450	4.503928	0.762986	0.000045
  42	4.0795e+00	0.4051	-15.936870	0.000495	4.954321	0.839285	0.000050
  43	4.1790e+00	0.4138	-15.896950	0.000401	4.012590	0.679751	0.000040
  44	4.2785e+00	0.4241	-15.851735	0.000454	4.544873	0.769922	0.000045
  45	4.3780e+00	0.4325	-15.806113	0.000459	4.585817	0.776859	0.000046
  46	4.4775e+00	0.4438	-15.762527	0.000438	4.381093	0.742177	0.000044
  47	4.5770e+00	0.4517	-15.715683	0.000471	4.708652	0.797667	0.000047
  48	4.6765e+00	0.4619	-15.666395	0.000495	4.954321	0.839285	0.000050
  49	4.7760e+00	0.4784	-15.623216	0.000434	4.340149	0.735241	0.000043
  50	4.8755e+00	0.4843	-15.576779	0.000467	4.667707	0.790731	0.000047
  51	4.9750e+00	0.4981	-15.525454	0.000516	5.159045	0.873966	0.000052
  52	5.0745e+00	0.5053	-15.480646	0.000450	4.503928	0.762986	0.000045
  53	5.1740e+00	0.5147	-15.434209	0.000467	4.667707	0.790731	0.000047
  54	5.2735e+00	0.5229	-15.388994	0.000454	4.544873	0.769922	0.000045
  55	5.3730e+00	0.5349	-15.342557	0.000467	4.667707	0.790731	0.000047
  56	5.4725e+00	0.5451	-15.297750	0.000450	4.503928	0.762986	0.000045
  57	5.5720e+00	0.5540	-15.251720	0.000463	4.626762	0.783795	0.000046
  58	5.6715e+00	0.5648	-15.201617	0.000504	5.036210	0.853157	0.000050
  59	5.7710e+00	0.5740	-15.162104	0.000397	3.971645	0.672815	0.000040
  60	5.8705e+00	0.5833	-15.113223	0.000491	4.913376	0.832348	0.000049
  61	5.9700e+00	0.5933	-15.067601	0.000459	4.585817	0.776859	0.000046
  62	6.0695e+00	0.6049	-15.026052	0.000418	4.176369	0.707496	0.000042
  63	6.1690e+00	0.6114	-14.980022	0.000463	4.626762	0.783795	0.000046
  64	6.2685e+00	0.6245	-14.937659	0.000426	4.258259	0.721369	0.000043
  65	6.3680e+00	0.6334	-14.886741	0.000512	5.118100	0.867030	0.000051
  66	6.4675e+00	0.6434	-14.843970	0.000430	4.299204	0.728305	0.000043
  67	6.5670e+00	0.6516	-14.799570	0.000446	4.462983	0.756050	0.000045
  68	6.6665e+00	0.6638	-14.755169	0.000446	4.462983	0.756050	0.000045
  69	6.7660e+00	0.6725	-14.706695	0.000487	4.872431	0.825412	0.000049
  70	6.8655e+00	0.6806	-14.664332	0.000426	4.258259	0.721369	0.000043
  71	6.9650e+00	0.6936	-14.615043	0.000495	4.954321	0.839285	0.000050
  72	7.0645e+00	0.7024	-14.574716	0.000405	4.053535	0.686687	0.000041
  73	7.1640e+00	0.7115	-14.528279	0.000467	4.667707	0.790731	0.000047
  74	7.2635e+00	0.7224	-14.485916	0.000426	4.258259	0.721369	0.000043
  75	7.3630e+00	0.7287	-14.438257	0.000479	4.790541	0.811540	0.000048
  76	7.4625e+00	0.7439	-14.394671	0.000438	4.381093	0.742177	0.000044
  77	7.5620e+00	0.7549	-14.352307	0.000426	4.258259	0.721369	0.000043
  78	7.6615e+00	0.7619	-14.307500	0.000450	4.503928	0.762986	0.000045
  79	7.7610e+00	0.7709	-14.262285	0.000454	4.544873	0.769922	0.000045
  80	7.8605e+00	0.7851	-14.212996	0.000495	4.954321	0.839285	0.000050
  81	7.9600e+00	0.7919	-14.167781	0.000454	4.544873	0.769922	0.000045
  82	8.0595e+00	0.8018	-14.125825	0.000422	4.217314	0.714432	0.000042
  83	8.1590e+00	0.8125	-14.079388	0.000467	4.667707	0.790731	0.000047
  84	8.2585e+00	0.8236	-14.036210	0.000434	4.340149	0.735241	0.000043
  85	8.3580e+00	0.8315	-13.988958	0.000475	4.749597	0.804603	0.000047
  86	8.4575e+00	0.8430	-13.944558	0.000446	4.462983	0.756050	0.000045
  87	8.5570e+00	0.8535	-13.896898	0.000479	4.790541	0.811540	0.000048
  88	8.6565e+00	0.8640	-13.852091	0.000450	4.503928	0.762986	0.000045
  89	8.7560e+00	0.8699	-13.806061	0.000463	4.626762	0.783795	0.000046
  90	8.8555e+00	0.8836	-13.762068	0.000442	4.422038	0.749114	0.000044
  91	8.9550e+00	0.8934	-13.721334	0.000409	4.094480	0.693624	0.000041
  92	9.0545e+00	0.8997	-13.677748	0.000438	4.381093	0.742177	0.000044
  93	9.1540e+00	0.9124	-13.632941	0.000450	4.503928	0.762986	0.000045
  94	9.2535e+00	0.9209	-13.589355	0.000438	4.381093	0.742177	0.000044
  95	9.3530e+00	0.9331	-13.542103	0.000475	4.749597	0.804603	0.000047
  96	9.4525e+00	0.9403	-13.498517	0.000438	4.381093	0.742177	0.000044
  97	9.5520e+00	0.9496	-13.453302	0.000454	4.544873	0.769922	0.000045
  98	9.6515e+00	0.9624	-13.409717	0.000438	4.381093	0.742177	0.000044
  99	9.7510e+00	0.9720	-13.366538	0.000434	4.340149	0.735241	0.000043
 100	9.8505e+00	0.9833	-13.320509	0.000463	4.626762	0.783795	0.000046
 101	9.9500e+00	0.9913	-13.274886	0.000459	4.585817	0.776859	0.000046
 102	1.0050e+01	1.0033	-13.236189	0.000389	3.889756	0.658942	0.000039
 103	1.0149e+01	1.0124	-13.185271	0.000512	5.118100	0.867030	0.000051
 104	1.0248e+01	1.0218	-13.143315	0.000422	4.217314	0.714432	0.000042
 105	1.0348e+01	1.0339	-13.099322	0.000442	4.422038	0.749114	0.000044
 106	1.0447e+01	1.0416	-13.052477	0.000471	4.708652	0.797667	0.000047
 107	1.0547e+01	1.0490	-13.009299	0.000434	4.340149	0.735241	0.000043
 108	1.0646e+01	1.0625	-12.966121	0.000434	4.340149	0.735241	0.000043
 109	1.0746e+01	1.0702	-12.920906	0.000454	4.544873	0.769922	0.000045
 110	1.0845e+01	1.0804	-12.876505	0.000446	4.462983	0.756050	0.000045
 111	1.0945e+01	1.0920	-12.830068	0.000467	4.667707	0.790731	0.000047
 112	1.1044e+01	1.1010	-12.784039	0.000463	4.626762	0.783795	0.000046
 113	1.1144e+01	1.1121	-12.735565	0.000487	4.872431	0.825412	0.000049
 114	1.1243e+01	1.1188	-12.696053	0.000397	3.971645	0.672815	0.000040
 115	1.1343e+01	1.1296	-12.649208	0.000471	4.708652	0.797667	0.000047
 116	1.1443e+01	1.1411	-12.598290	0.000512	5.118100	0.867030	0.000051
 117	1.1542e+01	1.1496	-12.559593	0.000389	3.889756	0.658942	0.000039
 118	1.1642e+01	1.1616	-12.508268	0.000516	5.159045	0.873966	0.000052
 119	1.1741e+01	1.1730	-12.467126	0.000414	4.135425	0.700560	0.000041
 120	1.1841e+01	1.1817	-12.422318	0.000450	4.503928	0.762986	0.000045
 121	1.1940e+01	1.1897	-12.378325	0.000442	4.422038	0.749114	0.000044
 122	1.2040e+01	1.2026	-12.340850	0.000377	3.766921	0.638134	0.000038
 123	1.2139e+01	1.2096	-12.296042	0.000450	4.503928	0.762986	0.000045
 124	1.2239e+01	1.2192	-12.247976	0.000483	4.831486	0.818476	0.000048
 125	1.2338e+01	1.2293	-12.206427	0.000418	4.176369	0.707496	0.000042
 126	1.2438e+01	1.2421	-12.160397	0.000463	4.626762	0.783795	0.000046
 127	1.2537e+01	1.2474	-12.113145	0.000475	4.749597	0.804603	0.000047
 128	1.2636e+01	1.2616	-12.076077	0.000373	3.725977	0.631198	0.000037
 129	1.2736e+01	1.2717	-12.028826	0.000475	4.749597	0.804603	0.000047
 130	1.2835e+01	1.2793	-11.984833	0.000442	4.422038	0.749114	0.000044
 131	1.2935e+01	1.2949	-11.944506	0.000405	4.053535	0.686687	0.000041
 132	1.3034e+01	1.3015	-11.902142	0.000426	4.258259	0.721369	0.000043
 133	1.3134e+01	1.3092	-11.859371	0.000430	4.299204	0.728305	0.000043
 134	1.3233e+01	1.3190	-11.820674	0.000389	3.889756	0.658942	0.000039
 135	1.3333e+01	1.3291	-11.778717	0.000422	4.217314	0.714432	0.000042
 136	1.3432e+01	1.3374	-11.733910	0.000450	4.503928	0.762986	0.000045
 137	1.3532e+01	1.3490	-11.693175	0.000409	4.094480	0.693624	0.000041
 138	1.3632e+01	1.3593	-11.649182	0.000442	4.422038	0.749114	0.000044
 139	1.3731e+01	1.3683	-11.611707	0.000377	3.766921	0.638134	0.000038
 140	1.3831e+01	1.3757	-11.563233	0.000487	4.872431	0.825412	0.000049
 141	1.3930e+01	1.3882	-11.520869	0.000426	4.258259	0.721369	0.000043
 142	1.4030e+01	1.3985	-11.479320	0.000418	4.176369	0.707496	0.000042
 143	1.4129e+01	1.4085	-11.434513	0.000450	4.503928	0.762986	0.000045
 144	1.4229e+01	1.4201	-11.390927	0.000438	4.381093	0.742177	0.000044
 145	1.4328e+01	1.4281	-11.343675	0.000475	4.749597	0.804603	0.000047
 146	1.4428e+01	1.4352	-11.305385	0.000385	3.848811	0.652006	0.000038
 147	1.4527e+01	1.4495	-11.262614	0.000430	4.299204	0.728305	0.000043
 148	1.4627e+01	1.4580	-11.217807	0.000450	4.503928	0.762986	0.000045
 149	1.4726e+01	1.4661	-11.173406	0.000446	4.462983	0.756050	0.000045
 150	1.4825e+01	1.4803	-11.131857	0.000418	4.176369	0.707496	0.000042
 151	1.4925e+01	1.4884	-11.088272	0.000438	4.381093	0.742177	0.000044
 152	1.5024e+01	1.5004	-11.045501	0.000430	4.299204	0.728305	0.000043
 153	1.5124e+01	1.5080	-11.002730	0.000430	4.299204	0.728305	0.000043
 154	1.5223e+01	1.5182	-10.960366	0.000426	4.258259	0.721369	0.000043
 155	1.5323e+01	1.5299	-10.915151	0.000454	4.544873	0.769922	0.000045
 156	1.5422e+01	1.5392	-10.871973	0.000434	4.340149	0.735241	0.000043
 157	1.5522e+01	1.5485	-10.830424	0.000418	4.176369	0.707496	0.000042
 158	1.5621e+01	1.5589	-10.786838	0.000438	4.381093	0.742177	0.000044
 159	1.5721e+01	1.5681	-10.744474	0.000426	4.258259	0.721369	0.000043
 160	1.5820e+01	1.5809	-10.704962	0.000397	3.971645	0.672815	0.000040
 161	1.5920e+01	1.5907	-10.655674	0.000495	4.954321	0.839285	0.000050
 162	1.6020e+01	1.5966	-10.615754	0.000401	4.012590	0.679751	0.000040
 163	1.6119e+01	1.6072	-10.575835	0.000401	4.012590	0.679751	0.000040
 164	1.6218e+01	1.6190	-10.530620	0.000454	4.544873	0.769922	0.000045
 165	1.6318e+01	1.6268	-10.483775	0.000471	4.708652	0.797667	0.000047
 166	1.6418e+01	1.6388	-10.443448	0.000405	4.053535	0.686687	0.000041
 167	1.6517e+01	1.6472	-10.402307	0.000414	4.135425	0.700560	0.000041
 168	1.6616e+01	1.6553	-10.359536	0.000430	4.299204	0.728305	0.000043
 169	1.6716e+01	1.6675	-10.318802	0.000409	4.094480	0.693624	0.000041
 170	1.6816e+01	1.6770	-10.274809	0.000442	4.422038	0.749114	0.000044
 171	1.6915e+01	1.6872	-10.230816	0.000442	4.422038	0.749114	0.000044
 172	1.7015e+01	1.6956	-10.186415	0.000446	4.462983	0.756050	0.000045
 173	1.7114e+01	1.7087	-10.147718	0.000389	3.889756	0.658942	0.000039
 174	1.7213e+01	1.7176	-10.103725	0.000442	4.422038	0.749114	0.000044
 175	1.7313e+01	1.7275	-10.059732	0.000442	4.422038	0.749114	0.000044
 176	1.7413e+01	1.7355	-10.016146	0.000438	4.381093	0.742177	0.000044
 177	1.7512e+01	1.7483	-9.969302	0.000471	4.708652	0.797667	0.000047
 178	1.7611e+01	1.7591	-9.929789	0.000397	3.971645	0.672815	0.000040
 179	1.7711e+01	1.7670	-9.885796	0.000442	4.422038	0.749114	0.000044
 180	1.7811e+01	1.7782	-9.841803	0.000442	4.422038	0.749114	0.000044
 181	1.7910e+01	1.7867	-9.800254	0.000418	4.176369	0.707496	0.000042
 182	1.8009e+01	1.7988	-9.759113	0.000414	4.135425	0.700560	0.000041
 183	1.8109e+01	1.8053	-9.719193	0.000401	4.012590	0.679751	0.000040
 184	1.8209e+01	1.8169	-9.673164	0.000463	4.626762	0.783795	0.000046
 185	1.8308e+01	1.8267	-9.633651	0.000397	3.971645	0.672815	0.000040
 186	1.8407e+01	1.8364	-9.588436	0.000454	4.544873	0.769922	0.000045
 187	1.8507e+01	1.8476	-9.548109	0.000405	4.053535	0.686687	0.000041
 188	1.8607e+01	1.8565	-9.505338	0.000430	4.299204	0.728305	0.000043
 189	1.8706e+01	1.8684	-9.461345	0.000442	4.422038	0.749114	0.000044
 190	1.8805e+01	1.8769	-9.419797	0.000418	4.176369	0.707496	0.000042
 191	1.8905e+01	1.8862	-9.374581	0.000454	4.544873	0.769922	0.000045
 192	1.9005e+01	1.8957	-9.333847	0.000409	4.094480	0.693624	0.000041
 193	1.9104e+01	1.9079	-9.290262	0.000438	4.381093	0.742177	0.000044
 194	1.9203e+01	1.9170	-9.251157	0.000393	3.930701	0.665879	0.000039
 195	1.9303e+01	1.9267	-9.210015	0.000414	4.135425	0.700560	0.000041
 196	1.9402e+01	1.9383	-9.167244	0.000430	4.299204	0.728305	0.000043
 197	1.9502e+01	1.9453	-9.126917	0.000405	4.053535	0.686687	0.000041
 198	1.9602e+01	1.9563	-9.090664	0.000364	3.644087	0.617325	0.000036
 199	1.9701e+01	1.9661	-9.046671	0.000442	4.422038	0.749114	0.000044
 200	1.9800e+01	1.9744	-9.007158	0.000397	3.971645	0.672815	0.000040
 201	1.9900e+01	1.9860	-8.967239	0.000401	4.012590	0.679751	0.000040
 202	2.0000e+01	1.9957	-8.926912	0.000405	4.053535	0.686687	0.000041
 203	2.0099e+01	2.0068	-8.879660	0.000475	4.749597	0.804603	0.000047
 204	2.0198e+01	2.0158	-8.837297	0.000426	4.258259	0.721369	0.000043
 205	2.0298e+01	2.0267	-8.793304	0.000442	4.422038	0.749114	0.000044
 206	2.0398e+01	2.0354	-8.754199	0.000393	3.930701	0.665879	0.000039
 207	2.0497e+01	2.0432	-8.711428	0.000430	4.299204	0.728305	0.000043
 208	2.0596e+01	2.0552	-8.669064	0.000426	4.258259	0.721369	0.000043
 209	2.0696e+01	2.0669	-8.628330	0.000409	4.094480	0.693624	0.000041
 210	2.0796e+01	2.0733	-8.586374	0.000422	4.217314	0.714432	0.000042
 211	2.0895e+01	2.0834	-8.540344	0.000463	4.626762	0.783795	0.000046
 212	2.0994e+01	2.0955	-8.504905	0.000356	3.562198	0.603453	0.000036
 213	2.1094e+01	2.1050	-8.461319	0.000438	4.381093	0.742177	0.000044
 214	2.1194e+01	2.1145	-8.418549	0.000430	4.299204	0.728305	0.000043
 215	2.1293e+01	2.1263	-8.373333	0.000454	4.544873	0.769922	0.000045
 216	2.1392e+01	2.1368	-8.329748	0.000438	4.381093	0.742177	0.000044
 217	2.1492e+01	2.1454	-8.288606	0.000414	4.135425	0.700560	0.000041
 218	2.1591e+01	2.1558	-8.246243	0.000426	4.258259	0.721369	0.000043
 219	2.1691e+01	2.1661	-8.201842	0.000446	4.462983	0.756050	0.000045
 220	2.1791e+01	2.1771	-8.155405	0.000467	4.667707	0.790731	0.000047
 221	2.1890e+01	2.1864	-8.110190	0.000454	4.544873	0.769922	0.000045
 222	2.1989e+01	2.1929	-8.071085	0.000393	3.930701	0.665879	0.000039
 223	2.2089e+01	2.2056	-8.025870	0.000454	4.544873	0.769922	0.000045
 224	2.2189e+01	2.2170	-7.981877	0.000442	4.422038	0.749114	0.000044
 225	2.2288e+01	2.2263	-7.942365	0.000397	3.971645	0.672815	0.000040
 226	2.2387e+01	2.2371	-7.901631	0.000409	4.094480	0.693624	0.000041
 227	2.2487e+01	2.2472	-7.857638	0.000442	4.422038	0.749114	0.000044
 228	2.2587e+01	2.2533	-7.816089	0.000418	4.176369	0.707496	0.000042
 229	2.2686e+01	2.2642	-7.774540	0.000418	4.176369	0.707496	0.000042
 230	2.2785e+01	2.2762	-7.733398	0.000414	4.135425	0.700560	0.000041
 231	2.2885e+01	2.2854	-7.692664	0.000409	4.094480	0.693624	0.000041
 232	2.2985e+01	2.2930	-7.645412	0.000475	4.749597	0.804603	0.000047
 233	2.3084e+01	2.3048	-7.609566	0.000360	3.603142	0.610389	0.000036
 234	2.3183e+01	2.3156	-7.568425	0.000414	4.135425	0.700560	0.000041
 235	2.3283e+01	2.3260	-7.525246	0.000434	4.340149	0.735241	0.000043
 236	2.3383e+01	2.3344	-7.483697	0.000418	4.176369	0.707496	0.000042
 237	2.3482e+01	2.3472	-7.442148	0.000418	4.176369	0.707496	0.000042
 238	2.3581e+01	2.3571	-7.401414	0.000409	4.094480	0.693624	0.000041
 239	2.3681e+01	2.3629	-7.359051	0.000426	4.258259	0.721369	0.000043
 240	2.3780e+01	2.3775	-7.315872	0.000434	4.340149	0.735241	0.000043
 241	2.3880e+01	2.3838	-7.275138	0.000409	4.094480	0.693624	0.000041
 242	2.3980e+01	2.3952	-7.233589	0.000418	4.176369	0.707496	0.000042
 243	2.4079e+01	2.4071	-7.194077	0.000397	3.971645	0.672815	0.000040
 244	2.4178e+01	2.4147	-7.152121	0.000422	4.217314	0.714432	0.000042
 245	2.4278e+01	2.4260	-7.110164	0.000422	4.217314	0.714432	0.000042
 246	2.4378e+01	2.4346	-7.070245	0.000401	4.012590	0.679751	0.000040
 247	2.4477e+01	2.4416	-7.030325	0.000401	4.012590	0.679751	0.000040
 248	2.4576e+01	2.4561	-6.986332	0.000442	4.422038	0.749114	0.000044
 249	2.4676e+01	2.4647	-6.947635	0.000389	3.889756	0.658942	0.000039
 250	2.4776e+01	2.4740	-6.904864	0.000430	4.299204	0.728305	0.000043
 251	2.4875e+01	2.4848	-6.861278	0.000438	4.381093	0.742177	0.000044
 252	2.4974e+01	2.4928	-6.820951	0.000405	4.053535	0.686687	0.000041
 253	2.5074e+01	2.5033	-6.779402	0.000418	4.176369	0.707496	0.000042
 254	2.5174e+01	2.5161	-6.741519	0.000381	3.807866	0.645070	0.000038
 255	2.5273e+01	2.5222	-6.700785	0.000409	4.094480	0.693624	0.000041
 256	2.5372e+01	2.5320	-6.656792	0.000442	4.422038	0.749114	0.000044
 257	2.5472e+01	2.5450	-6.620131	0.000369	3.685032	0.624261	0.000037
 258	2.5572e+01	2.5542	-6.580212	0.000401	4.012590	0.679751	0.000040
 259	2.5671e+01	2.5616	-6.535811	0.000446	4.462983	0.756050	0.000045
 260	2.5770e+01	2.5731	-6.500372	0.000356	3.562198	0.603453	0.000036
 261	2.5870e+01	2.5835	-6.459231	0.000414	4.135425	0.700560	0.000041
 262	2.5970e+01	2.5951	-6.415645	0.000438	4.381093	0.742177	0.000044
 263	2.6069e+01	2.6043	-6.373689	0.000422	4.217314	0.714432	0.000042
 264	2.6169e+01	2.6150	-6.336621	0.000373	3.725977	0.631198	0.000037
 265	2.6268e+01	2.6230	-6.295886	0.000409	4.094480	0.693624	0.000041
 266	2.6367e+01	2.6324	-6.251893	0.000442	4.422038	0.749114	0.000044
 267	2.6467e+01	2.6421	-6.212381	0.000397	3.971645	0.672815	0.000040
 268	2.6567e+01	2.6541	-6.173276	0.000393	3.930701	0.665879	0.000039
 269	2.6666e+01	2.6608	-6.132542	0.000409	4.094480	0.693624	0.000041
 270	2.6765e+01	2.6723	-6.088549	0.000442	4.422038	0.749114	0.000044
 271	2.6865e+01	2.6826	-6.051481	0.000373	3.725977	0.631198	0.000037
 272	2.6965e+01	2.6938	-6.007488	0.000442	4.422038	0.749114	0.000044
 273	2.7064e+01	2.7039	-5.973271	0.000344	3.439363	0.582644	0.000034
 274	2.7163e+01	2.7121	-5.931722	0.000418	4.176369	0.707496	0.000042
 275	2.7263e+01	2.7248	-5.889766	0.000422	4.217314	0.714432	0.000042
 276	2.7363e+01	2.7345	-5.850661	0.000393	3.930701	0.665879	0.000039
 277	2.7462e+01	2.7440	-5.809927	0.000409	4.094480	0.693624	0.000041
 278	2.7561e+01	2.7547	-5.770822	0.000393	3.930701	0.665879	0.000039
 279	2.7661e+01	2.7640	-5.725607	0.000454	4.544873	0.769922	0.000045
 280	2.7761e+01	2.7753	-5.689761	0.000360	3.603142	0.610389	0.000036
 281	2.7860e+01	2.7825	-5.642102	0.000479	4.790541	0.811540	0.000048
 282	2.7959e+01	2.7924	-5.600553	0.000418	4.176369	0.707496	0.000042
 283	2.8059e+01	2.8013	-5.560226	0.000405	4.053535	0.686687	0.000041
 284	2.8159e+01	2.8125	-5.514196	0.000463	4.626762	0.783795	0.000046
 285	2.8258e+01	2.8240	-5.478350	0.000360	3.603142	0.610389	0.000036
 286	2.8358e+01	2.8333	-5.438838	0.000397	3.971645	0.672815	0.000040
 287	2.8457e+01	2.8420	-5.399733	0.000393	3.930701	0.665879	0.000039
 288	2.8556e+01	2.8524	-5.359813	0.000401	4.012590	0.679751	0.000040
 289	2.8656e+01	2.8634	-5.320708	0.000393	3.930701	0.665879	0.000039
 290	2.8756e+01	2.8696	-5.277123	0.000438	4.381093	0.742177	0.000044
 291	2.8855e+01	2.8841	-5.240869	0.000364	3.644087	0.617325	0.000036
 292	2.8954e+01	2.8925	-5.202172	0.000389	3.889756	0.658942	0.000039
 293	2.9054e+01	2.9003	-5.161845	0.000405	4.053535	0.686687	0.000041
 294	2.9154e+01	2.9140	-5.121925	0.000401	4.012590	0.679751	0.000040
 295	2.9253e+01	2.9224	-5.080376	0.000418	4.176369	0.707496	0.000042
 296	2.9352e+01	2.9345	-5.037198	0.000434	4.340149	0.735241	0.000043
 297	2.9452e+01	2.9398	-4.998500	0.000389	3.889756	0.658942	0.000039
 298	2.9552e+01	2.9501	-4.963062	0.000356	3.562198	0.603453	0.000036
 299	2.9651e+01	2.9623	-4.923549	0.000397	3.971645	0.672815	0.000040
 300	2.9750e+01	2.9723	-4.889333	0.000344	3.439363	0.582644	0.000034
 301	2.9850e+01	2.9839	-4.848598	0.000409	4.094480	0.693624	0.000041
 302	2.9950e+01	2.9908	-4.812752	0.000360	3.603142	0.610389	0.000036
 303	3.0049e+01	3.0011	-4.773647	0.000393	3.930701	0.665879	0.000039
 304	3.0148e+01	3.0108	-4.734542	0.000393	3.930701	0.665879	0.000039
 305	3.0248e+01	3.0230	-4.700733	0.000340	3.398418	0.575708	0.000034
 306	3.0348e+01	3.0306	-4.660406	0.000405	4.053535	0.686687	0.000041
 307	3.0447e+01	3.0430	-4.620487	0.000401	4.012590	0.679751	0.000040
 308	3.0547e+01	3.0552	-4.585048	0.000356	3.562198	0.603453	0.000036
 309	3.0646e+01	3.0585	-4.543906	0.000414	4.135425	0.700560	0.000041
 310	3.0745e+01	3.0694	-4.501950	0.000422	4.217314	0.714432	0.000042
 311	3.0845e+01	3.0834	-4.466511	0.000356	3.562198	0.603453	0.000036
 312	3.0945e+01	3.0935	-4.426999	0.000397	3.971645	0.672815	0.000040
 313	3.1044e+01	3.1008	-4.385857	0.000414	4.135425	0.700560	0.000041
 314	3.1143e+01	3.1087	-4.345123	0.000409	4.094480	0.693624	0.000041
 315	3.1243e+01	3.1237	-4.312943	0.000323	3.234639	0.547963	0.000032
 316	3.1343e+01	3.1335	-4.271394	0.000418	4.176369	0.707496	0.000042
 317	3.1442e+01	3.1402	-4.232696	0.000389	3.889756	0.658942	0.000039
 318	3.1541e+01	3.1512	-4.195221	0.000377	3.766921	0.638134	0.000038
 319	3.1641e+01	3.1625	-4.156523	0.000389	3.889756	0.658942	0.000039
 320	3.1741e+01	3.1697	-4.120270	0.000364	3.644087	0.617325	0.000036
 321	3.1840e+01	3.1797	-4.077906	0.000426	4.258259	0.721369	0.000043
 322	3.1939e+01	3.1899	-4.041653	0.000364	3.644087	0.617325	0.000036
 323	3.2039e+01	3.1986	-4.001326	0.000405	4.053535	0.686687	0.000041
 324	3.2139e+01	3.2136	-3.963443	0.000381	3.807866	0.645070	0.000038
 325	3.2238e+01	3.2230	-3.923931	0.000397	3.971645	0.672815	0.000040
 326	3.2337e+01	3.2339	-3.887677	0.000364	3.644087	0.617325	0.000036
 327	3.2437e+01	3.2398	-3.844499	0.000434	4.340149	0.735241	0.000043
 328	3.2536e+01	3.2507	-3.806616	0.000381	3.807866	0.645070	0.000038
 329	3.2636e+01	3.2598	-3.769141	0.000377	3.766921	0.638134	0.000038
 330	3.2736e+01	3.2710	-3.731258	0.000381	3.807866	0.645070	0.000038
 331	3.2835e+01	3.2803	-3.695412	0.000360	3.603142	0.610389	0.000036
 332	3.2934e+01	3.2913	-3.656307	0.000393	3.930701	0.665879	0.000039
 333	3.3034e+01	3.2998	-3.616795	0.000397	3.971645	0.672815	0.000040
 334	3.3133e+01	3.3097	-3.578504	0.000385	3.848811	0.652006	0.000038
 335	3.3233e+01	3.3201	-3.539807	0.000389	3.889756	0.658942	0.000039
 336	3.3333e+01	3.3312	-3.505997	0.000340	3.398418	0.575708	0.000034
 337	3.3432e+01	3.3401	-3.464041	0.000422	4.217314	0.714432	0.000042
 338	3.3532e+01	3.3502	-3.426566	0.000377	3.766921	0.638134	0.000038
 339	3.3631e+01	3.3608	-3.391127	0.000356	3.562198	0.603453	0.000036
 340	3.3730e+01	3.3707	-3.353244	0.000381	3.807866	0.645070	0.000038
 341	3.3830e+01	3.3776	-3.310066	0.000434	4.340149	0.735241	0.000043
 342	3.3929e+01	3.3907	-3.274627	0.000356	3.562198	0.603453	0.000036
 343	3.4029e+01	3.3982	-3.233485	0.000414	4.135425	0.700560	0.000041
 344	3.4129e+01	3.4118	-3.194380	0.000393	3.930701	0.665879	0.000039
 345	3.4228e+01	3.4197	-3.158534	0.000360	3.603142	0.610389	0.000036
 346	3.4328e+01	3.4304	-3.120244	0.000385	3.848811	0.652006	0.000038
 347	3.4427e+01	3.4403	-3.080324	0.000401	4.012590	0.679751	0.000040
 348	3.4526e+01	3.4481	-3.041627	0.000389	3.889756	0.658942	0.000039
 349	3.4626e+01	3.4614	-3.008632	0.000332	3.316529	0.561835	0.000033
 350	3.4725e+01	3.4725	-2.968713	0.000401	4.012590	0.679751	0.000040
 351	3.4825e+01	3.4798	-2.930422	0.000385	3.848811	0.652006	0.000038
 352	3.4925e+01	3.4881	-2.893761	0.000369	3.685032	0.624261	0.000037
 353	3.5024e+01	3.4982	-2.855471	0.000385	3.848811	0.652006	0.000038
 354	3.5123e+01	3.5104	-2.817181	0.000385	3.848811	0.652006	0.000038
 355	3.5223e+01	3.5186	-2.778484	0.000389	3.889756	0.658942	0.000039
 356	3.5322e+01	3.5282	-2.739379	0.000393	3.930701	0.665879	0.000039
 357	3.5422e+01	3.5397	-2.699866	0.000397	3.971645	0.672815	0.000040
 358	3.5522e+01	3.5486	-2.664020	0.000360	3.603142	0.610389	0.000036
 359	3.5621e+01	3.5593	-2.624101	0.000401	4.012590	0.679751	0.000040
 360	3.5721e+01	3.5671	-2.589069	0.000352	3.521253	0.596516	0.000035
 361	3.5820e+01	3.5805	-2.550779	0.000385	3.848811	0.652006	0.000038
 362	3.5919e+01	3.5880	-2.512082	0.000389	3.889756	0.658942	0.000039
 363	3.6019e+01	3.5973	-2.476643	0.000356	3.562198	0.603453	0.000036
 364	3.6118e+01	3.6091	-2.439982	0.000369	3.685032	0.624261	0.000037
 365	3.6218e+01	3.6192	-2.406987	0.000332	3.316529	0.561835	0.000033
 366	3.6318e+01	3.6286	-2.371548	0.000356	3.562198	0.603453	0.000036
 367	3.6417e+01	3.6382	-2.335702	0.000360	3.603142	0.610389	0.000036
 368	3.6517e+01	3.6465	-2.301893	0.000340	3.398418	0.575708	0.000034
 369	3.6616e+01	3.6581	-2.261973	0.000401	4.012590	0.679751	0.000040
 370	3.6715e+01	3.6700	-2.222868	0.000393	3.930701	0.665879	0.000039
 371	3.6815e+01	3.6762	-2.189059	0.000340	3.398418	0.575708	0.000034
 372	3.6914e+01	3.6884	-2.151176	0.000381	3.807866	0.645070	0.000038
 373	3.7014e+01	3.6967	-2.109220	0.000422	4.217314	0.714432	0.000042
 374	3.7114e+01	3.7106	-2.071744	0.000377	3.766921	0.638134	0.000038
 375	3.7213e+01	3.7172	-2.036305	0.000356	3.562198	0.603453	0.000036
 376	3.7313e+01	3.7277	-1.996386	0.000401	4.012590	0.679751	0.000040
 377	3.7412e+01	3.7377	-1.962984	0.000336	3.357474	0.568771	0.000034
 378	3.7511e+01	3.7493	-1.920620	0.000426	4.258259	0.721369	0.000043
 379	3.7611e+01	3.7597	-1.885996	0.000348	3.480308	0.589580	0.000035
 380	3.7711e+01	3.7696	-1.851779	0.000344	3.439363	0.582644	0.000034
 381	3.7810e+01	3.7803	-1.813896	0.000381	3.807866	0.645070	0.000038
 382	3.7910e+01	3.7867	-1.778050	0.000360	3.603142	0.610389	0.000036
 383	3.8009e+01	3.7966	-1.732428	0.000459	4.585817	0.776859	0.000046
 384	3.8108e+01	3.8067	-1.697804	0.000348	3.480308	0.589580	0.000035
 385	3.8208e+01	3.8166	-1.658699	0.000393	3.930701	0.665879	0.000039
 386	3.8307e+01	3.8253	-1.617150	0.000418	4.176369	0.707496	0.000042
 387	3.8407e+01	3.8403	-1.580082	0.000373	3.725977	0.631198	0.000037
 388	3.8507e+01	3.8464	-1.540977	0.000393	3.930701	0.665879	0.000039
 389	3.8606e+01	3.8583	-1.502279	0.000389	3.889756	0.658942	0.000039
 390	3.8706e+01	3.8673	-1.463174	0.000393	3.930701	0.665879	0.000039
 391	3.8805e+01	3.8750	-1.425699	0.000377	3.766921	0.638134	0.000038
 392	3.8904e+01	3.8868	-1.390260	0.000356	3.562198	0.603453	0.000036
 393	3.9004e+01	3.8976	-1.349933	0.000405	4.053535	0.686687	0.000041
 394	3.9103e+01	3.9101	-1.313680	0.000364	3.644087	0.617325	0.000036
 395	3.9203e+01	3.9167	-1.275797	0.000381	3.807866	0.645070	0.000038
 396	3.9303e+01	3.9248	-1.240358	0.000356	3.562198	0.603453	0.000036
 397	3.9402e+01	3.9367	-1.202883	0.000377	3.766921	0.638134	0.000038
 398	3.9502e+01	3.9454	-1.163778	0.000393	3.930701	0.665879	0.000039
 399	3.9601e+01	3.9547	-1.130783	0.000332	3.316529	0.561835	0.000033
 400	3.9700e+01	3.9646	-1.094937	0.000360	3.603142	0.610389	0.000036
 401	3.9800e+01	3.9770	-1.055832	0.000393	3.930701	0.665879	0.000039
 402	3.9900e+01	3.9860	-1.021615	0.000344	3.439363	0.582644	0.000034
 403	3.9999e+01	3.9959	-0.981288	0.000405	4.053535	0.686687	0.000041
 404	4.0099e+01	4.0063	-0.943405	0.000381	3.807866	0.645070	0.000038
 405	4.0198e+01	4.0147	-0.907967	0.000356	3.562198	0.603453	0.000036
 406	4.0297e+01	4.0266	-0.872120	0.000360	3.603142	0.610389	0.000036
 407	4.0397e+01	4.0355	-0.833016	0.000393	3.930701	0.665879	0.000039
 408	4.0496e+01	4.0468	-0.797577	0.000356	3.562198	0.603453	0.000036
 409	4.0596e+01	4.0576	-0.757657	0.000401	4.012590	0.679751	0.000040
 410	4.0696e+01	4.0658	-0.725070	0.000328	3.275584	0.554899	0.000033
 411	4.0795e+01	4.0780	-0.686780	0.000385	3.848811	0.652006	0.000038
 412	4.0895e+01	4.0881	-0.651341	0.000356	3.562198	0.603453	0.000036
 413	4.0994e+01	4.0974	-0.610606	0.000409	4.094480	0.693624	0.000041
 414	4.1093e+01	4.1055	-0.577612	0.000332	3.316529	0.561835	0.000033
 415	4.1193e+01	4.1149	-0.540951	0.000369	3.685032	0.624261	0.000037
 416	4.1292e+01	4.1262	-0.505105	0.000360	3.603142	0.610389	0.000036
 417	4.1392e+01	4.1372	-0.466407	0.000389	3.889756	0.658942	0.000039
 418	4.1492e+01	4.1454	-0.431783	0.000348	3.480308	0.589580	0.000035
 419	4.1591e+01	4.1567	-0.392678	0.000393	3.930701	0.665879	0.000039
 420	4.1691e+01	4.1654	-0.354795	0.000381	3.807866	0.645070	0.000038
 421	4.1790e+01	4.1788	-0.318949	0.000360	3.603142	0.610389	0.000036
 422	4.1889e+01	4.1859	-0.279844	0.000393	3.930701	0.665879	0.000039
 423	4.1989e+01	4.1943	-0.241961	0.000381	3.807866	0.645070	0.000038
 424	4.2089e+01	4.2046	-0.207745	0.000344	3.439363	0.582644	0.000034
 425	4.2188e+01	4.2158	-0.177194	0.000307	3.070860	0.520218	0.000031
 426	4.2288e+01	4.2248	-0.136867	0.000405	4.053535	0.686687	0.000041
 427	4.2387e+01	4.2364	-0.104280	0.000328	3.275584	0.554899	0.000033
 428	4.2486e+01	4.2461	-0.069656	0.000348	3.480308	0.589580	0.000035
 429	4.2586e+01	4.2570	-0.028514	0.000414	4.135425	0.700560	0.000041
 430	4.2685e+01	4.2626	0.002444	0.000311	3.111805	0.527154	0.000031
 431	4.2785e+01	4.2722	0.041549	0.000393	3.930701	0.665879	0.000039
 432	4.2885e+01	4.2841	0.076580	0.000352	3.521253	0.596516	0.000035
 433	4.2984e+01	4.2962	0.116093	0.000397	3.971645	0.672815	0.000040
 434	4.3084e+01	4.3054	0.151939	0.000360	3.603142	0.610389	0.000036
 435	4.3183e+01	4.3151	0.187378	0.000356	3.562198	0.603453	0.000036
 436	4.3282e+01	4.3257	0.222409	0.000352	3.521253	0.596516	0.000035
 437	4.3382e+01	4.3340	0.260292	0.000381	3.807866	0.645070	0.000038
 438	4.3481e+01	4.3429	0.292472	0.000323	3.234639	0.547963	0.000032
 439	4.3581e+01	4.3572	0.328725	0.000364	3.644087	0.617325	0.000036
 440	4.3681e+01	4.3670	0.362535	0.000340	3.398418	0.575708	0.000034
 441	4.3780e+01	4.3760	0.400418	0.000381	3.807866	0.645070	0.000038
 442	4.3880e+01	4.3838	0.432598	0.000323	3.234639	0.547963	0.000032
 443	4.3979e+01	4.3958	0.470888	0.000385	3.848811	0.652006	0.000038
 444	4.4078e+01	4.4045	0.507549	0.000369	3.685032	0.624261	0.000037
 445	4.4178e+01	4.4157	0.542173	0.000348	3.480308	0.589580	0.000035
 446	4.4278e+01	4.4262	0.579648	0.000377	3.766921	0.638134	0.000038
 447	4.4377e+01	4.4344	0.620383	0.000409	4.094480	0.693624	0.000041
 448	4.4477e+01	4.4437	0.655414	0.000352	3.521253	0.596516	0.000035
 449	4.4576e+01	4.4541	0.692890	0.000377	3.766921	0.638134	0.000038
 450	4.4675e+01	4.4614	0.727921	0.000352	3.521253	0.596516	0.000035
 451	4.4775e+01	4.4741	0.766619	0.000389	3.889756	0.658942	0.000039
 452	4.4874e+01	4.4825	0.801243	0.000348	3.480308	0.589580	0.000035
 453	4.4974e+01	4.4939	0.836274	0.000352	3.521253	0.596516	0.000035
 454	4.5074e+01	4.5054	0.875786	0.000397	3.971645	0.672815	0.000040
 455	4.5173e+01	4.5156	0.910411	0.000348	3.480308	0.589580	0.000035
 456	4.5273e+01	4.5251	0.942998	0.000328	3.275584	0.554899	0.000033
 457	4.5372e+01	4.5341	0.977622	0.000348	3.480308	0.589580	0.000035
 458	4.5471e+01	4.5438	1.014283	0.000369	3.685032	0.624261	0.000037
 459	4.5571e+01	4.5556	1.048907	0.000348	3.480308	0.589580	0.000035
 460	4.5670e+01	4.5641	1.083531	0.000348	3.480308	0.589580	0.000035
 461	4.5770e+01	4.5760	1.122636	0.000393	3.930701	0.665879	0.000039
 462	4.5870e+01	4.5840	1.155631	0.000332	3.316529	0.561835	0.000033
 463	4.5969e+01	4.5930	1.194328	0.000389	3.889756	0.658942	0.000039
 464	4.6069e+01	4.6117	1.228545	0.000344	3.439363	0.582644	0.000034
 465	4.6168e+01	4.6139	1.261540	0.000332	3.316529	0.561835	0.000033
 466	4.6267e+01	4.6240	1.291683	0.000303	3.029915	0.513282	0.000030
 467	4.6367e+01	4.6343	1.325493	0.000340	3.398418	0.575708	0.000034
 468	4.6467e+01	4.6431	1.360931	0.000356	3.562198	0.603453	0.000036
 469	4.6566e+01	4.6545	1.393926	0.000332	3.316529	0.561835	0.000033
 470	4.6666e+01	4.6655	1.426921	0.000332	3.316529	0.561835	0.000033
 471	4.6765e+01	4.6743	1.462360	0.000356	3.562198	0.603453	0.000036
 472	4.6864e+01	4.6841	1.493318	0.000311	3.111805	0.527154	0.000031
 473	4.6964e+01	4.6957	1.528349	0.000352	3.521253	0.596516	0.000035
 474	4.7063e+01	4.7005	1.562566	0.000344	3.439363	0.582644	0.000034
 475	4.7163e+01	4.7140	1.594746	0.000323	3.234639	0.547963	0.000032
 476	4.7263e+01	4.7222	1.628963	0.000344	3.439363	0.582644	0.000034
 477	4.7362e+01	4.7307	1.664809	0.000360	3.603142	0.610389	0.000036
 478	4.7462e+01	4.7442	1.698211	0.000336	3.357474	0.568771	0.000034
 479	4.7561e+01	4.7533	1.733650	0.000356	3.562198	0.603453	0.000036
 480	4.7660e+01	4.7633	1.767459	0.000340	3.398418	0.575708	0.000034
 481	4.7760e+01	4.7749	1.803713	0.000364	3.644087	0.617325	0.000036
 482	4.7859e+01	4.7813	1.837115	0.000336	3.357474	0.568771	0.000034
 483	4.7959e+01	4.7930	1.872961	0.000360	3.603142	0.610389	0.000036
 484	4.8059e+01	4.8038	1.907178	0.000344	3.439363	0.582644	0.000034
 485	4.8158e+01	4.8141	1.938136	0.000311	3.111805	0.527154	0.000031
 486	4.8258e+01	4.8228	1.973167	0.000352	3.521253	0.596516	0.000035
 487	4.8357e+01	4.8345	2.008199	0.000352	3.521253	0.596516	0.000035
 488	4.8456e+01	4.8436	2.044045	0.000360	3.603142	0.610389	0.000036
 489	4.8556e+01	4.8534	2.079076	0.000352	3.521253	0.596516	0.000035
 490	4.8656e+01	4.8624	2.110034	0.000311	3.111805	0.527154	0.000031
 491	4.8755e+01	4.8748	2.148732	0.000389	3.889756	0.658942	0.000039
 492	4.8855e+01	4.8812	2.175617	0.000270	2.702357	0.457792	0.000027
 493	4.8954e+01	4.8934	2.216351	0.000409	4.094480	0.693624	0.000041
 494	4.9053e+01	4.9018	2.248938	0.000328	3.275584	0.554899	0.000033
 495	4.9153e+01	4.9133	2.283155	0.000344	3.439363	0.582644	0.000034
 496	4.9252e+01	4.9216	2.316150	0.000332	3.316529	0.561835	0.000033
 497	4.9352e+01	4.9316	2.350774	0.000348	3.480308	0.589580	0.000035
 498	4.9452e+01	4.9454	2.384583	0.000340	3.398418	0.575708	0.000034
 499	4.9551e+01	4.9528	2.422466	0.000381	3.807866	0.645070	0.000038
 500	4.9651e+01	4.9626	2.452202	0.000299	2.988970	0.506345	0.000030
 501	4.9750e+01	4.9730	2.484382	0.000323	3.234639	0.547963	0.000032
 502	4.9849e+01	4.9840	2.521858	0.000377	3.766921	0.638134	0.000038
 503	4.9949e+01	4.9958	2.555260	0.000336	3.357474	0.568771	0.000034
 504	5.0048e+01	5.0046	2.586625	0.000315	3.152750	0.534090	0.000032
 505	5.0148e+01	5.0103	2.618398	0.000319	3.193694	0.541026	0.000032
 506	5.0248e+01	5.0241	2.655873	0.000377	3.766921	0.638134	0.000038
 507	5.0347e+01	5.0309	2.690090	0.000344	3.439363	0.582644	0.000034
 508	5.0447e+01	5.0426	2.721863	0.000319	3.193694	0.541026	0.000032
 509	5.0546e+01	5.0515	2.754450	0.000328	3.275584	0.554899	0.000033
 510	5.0645e+01	5.0623	2.791111	0.000369	3.685032	0.624261	0.000037
 511	5.0745e+01	5.0701	2.825735	0.000348	3.480308	0.589580	0.000035
 512	5.0844e+01	5.0800	2.859545	0.000340	3.398418	0.575708	0.000034
 513	5.0944e+01	5.0936	2.899464	0.000401	4.012590	0.679751	0.000040
 514	5.1044e+01	5.1009	2.929200	0.000299	2.988970	0.506345	0.000030
 515	5.1143e+01	5.1104	2.960973	0.000319	3.193694	0.541026	0.000032
 516	5.1242e+01	5.1214	2.993968	0.000332	3.316529	0.561835	0.000033
 517	5.1342e+01	5.1315	3.026963	0.000332	3.316529	0.561835	0.000033
 518	5.1441e+01	5.1432	3.061179	0.000344	3.439363	0.582644	0.000034
 519	5.1541e+01	5.1524	3.096211	0.000352	3.521253	0.596516	0.000035
 520	5.1641e+01	5.1598	3.130835	0.000348	3.480308	0.589580	0.000035
 521	5.1740e+01	5.1720	3.160164	0.000295	2.948026	0.499409	0.000029
 522	5.1840e+01	5.1824	3.198046	0.000381	3.807866	0.645070	0.000038
 523	5.1939e+01	5.1894	3.231041	0.000332	3.316529	0.561835	0.000033
 524	5.2038e+01	5.2018	3.267702	0.000369	3.685032	0.624261	0.000037
 525	5.2138e+01	5.2126	3.299475	0.000319	3.193694	0.541026	0.000032
 526	5.2237e+01	5.2197	3.334506	0.000352	3.521253	0.596516	0.000035
 527	5.2337e+01	5.2309	3.365872	0.000315	3.152750	0.534090	0.000032
 528	5.2437e+01	5.2383	3.400903	0.000352	3.521253	0.596516	0.000035
 529	5.2536e+01	5.2486	3.434305	0.000336	3.357474	0.568771	0.000034
 530	5.2636e+01	5.2616	3.464856	0.000307	3.070860	0.520218	0.000031
 531	5.2735e+01	5.2721	3.498258	0.000336	3.357474	0.568771	0.000034
 532	5.2834e+01	5.2814	3.529216	0.000311	3.111805	0.527154	0.000031
 533	5.2934e+01	5.2905	3.557323	0.000283	2.825191	0.478600	0.000028
 534	5.3033e+01	5.3008	3.592761	0.000356	3.562198	0.603453	0.000036
 535	5.3133e+01	5.3106	3.623312	0.000307	3.070860	0.520218	0.000031
 536	5.3233e+01	5.3201	3.657936	0.000348	3.480308	0.589580	0.000035
 537	5.3332e+01	5.3286	3.690116	0.000323	3.234639	0.547963	0.000032
 538	5.3431e+01	5.3391	3.722704	0.000328	3.275584	0.554899	0.000033
 539	5.3531e+01	5.3477	3.757328	0.000348	3.480308	0.589580	0.000035
 540	5.3630e+01	5.3606	3.791137	0.000340	3.398418	0.575708	0.000034
 541	5.3730e+01	5.3692	3.826576	0.000356	3.562198	0.603453	0.000036
 542	5.3830e+01	5.3793	3.857941	0.000315	3.152750	0.534090	0.000032
 543	5.3929e+01	5.3883	3.889307	0.000315	3.152750	0.534090	0.000032
 544	5.4029e+01	5.4006	3.924745	0.000356	3.562198	0.603453	0.000036
 545	5.4128e+01	5.4116	3.954481	0.000299	2.988970	0.506345	0.000030
 546	5.4227e+01	5.4208	3.987884	0.000336	3.357474	0.568771	0.000034
 547	5.4327e+01	5.4314	4.019656	0.000319	3.193694	0.541026	0.000032
 548	5.4426e+01	5.4416	4.055095	0.000356	3.562198	0.603453	0.000036
 549	5.4526e+01	5.4488	4.089312	0.000344	3.439363	0.582644	0.000034
 550	5.4626e+01	5.4568	4.125158	0.000360	3.603142	0.610389	0.000036
 551	5.4725e+01	5.4711	4.161004	0.000360	3.603142	0.610389	0.000036
 552	5.4825e+01	5.4778	4.198887	0.000381	3.807866	0.645070	0.000038
 553	5.4924e+01	5.4910	4.230660	0.000319	3.193694	0.541026	0.000032
 554	5.5023e+01	5.5032	4.266099	0.000356	3.562198	0.603453	0.000036
 555	5.5123e+01	5.5108	4.296242	0.000303	3.029915	0.513282	0.000030
 556	5.5222e+01	5.5196	4.334532	0.000385	3.848811	0.652006	0.000038
 557	5.5322e+01	5.5291	4.370378	0.000360	3.603142	0.610389	0.000036
 558	5.5422e+01	5.5361	4.405002	0.000348	3.480308	0.589580	0.000035
 559	5.5521e+01	5.5480	4.434738	0.000299	2.988970	0.506345	0.000030
 560	5.5620e+01	5.5582	4.468955	0.000344	3.439363	0.582644	0.000034
 561	5.5720e+01	5.5703	4.505616	0.000369	3.685032	0.624261	0.000037
 562	5.5819e+01	5.5798	4.536981	0.000315	3.152750	0.534090	0.000032
 563	5.5919e+01	5.5909	4.566310	0.000295	2.948026	0.499409	0.000029
 564	5.6019e+01	5.5997	4.602971	0.000369	3.685032	0.624261	0.000037
 565	5.6118e+01	5.6107	4.637188	0.000344	3.439363	0.582644	0.000034
 566	5.6218e+01	5.6200	4.667738	0.000307	3.070860	0.520218	0.000031
 567	5.6317e+01	5.6286	4.701548	0.000340	3.398418	0.575708	0.000034
 568	5.6416e+01	5.6396	4.732506	0.000311	3.111805	0.527154	0.000031
 569	5.6516e+01	5.6478	4.770389	0.000381	3.807866	0.645070	0.000038
 570	5.6615e+01	5.6585	4.798903	0.000287	2.866136	0.485537	0.000029
 571	5.6715e+01	5.6676	4.831083	0.000323	3.234639	0.547963	0.000032
 572	5.6815e+01	5.6780	4.866521	0.000356	3.562198	0.603453	0.000036
 573	5.6914e+01	5.6930	4.899109	0.000328	3.275584	0.554899	0.000033
 574	5.7014e+01	5.6969	4.933733	0.000348	3.480308	0.589580	0.000035
 575	5.7113e+01	5.7079	4.963876	0.000303	3.029915	0.513282	0.000030
 576	5.7212e+01	5.7189	4.999315	0.000356	3.562198	0.603453	0.000036
 577	5.7312e+01	5.7293	5.032717	0.000336	3.357474	0.568771	0.000034
 578	5.7411e+01	5.7386	5.062861	0.000303	3.029915	0.513282	0.000030
 579	5.7511e+01	5.7471	5.096263	0.000336	3.357474	0.568771	0.000034
 580	5.7611e+01	5.7574	5.128850	0.000328	3.275584	0.554899	0.000033
 581	5.7710e+01	5.7674	5.160215	0.000315	3.152750	0.534090	0.000032
 582	5.7809e+01	5.7757	5.189951	0.000299	2.988970	0.506345	0.000030
 583	5.7909e+01	5.7880	5.226612	0.000369	3.685032	0.624261	0.000037
 584	5.8008e+01	5.7970	5.262866	0.000364	3.644087	0.617325	0.000036
 585	5.8108e+01	5.8074	5.293009	0.000303	3.029915	0.513282	0.000030
 586	5.8208e+01	5.8181	5.328855	0.000360	3.603142	0.610389	0.000036
 587	5.8307e+01	5.8312	5.363072	0.000344	3.439363	0.582644	0.000034
 588	5.8407e+01	5.8388	5.391586	0.000287	2.866136	0.485537	0.000029
 589	5.8506e+01	5.8486	5.429469	0.000381	3.807866	0.645070	0.000038
 590	5.8605e+01	5.8572	5.457576	0.000283	2.825191	0.478600	0.000028
 591	5.8705e+01	5.8680	5.493422	0.000360	3.603142	0.610389	0.000036
 592	5.8804e+01	5.8778	5.525602	0.000323	3.234639	0.547963	0.000032
 593	5.8904e+01	5.8874	5.556152	0.000307	3.070860	0.520218	0.000031
 594	5.9004e+01	5.8987	5.587518	0.000315	3.152750	0.534090	0.000032
 595	5.9103e+01	5.9097	5.619698	0.000323	3.234639	0.547963	0.000032
 596	5.9203e+01	5.9174	5.653507	0.000340	3.398418	0.575708	0.000034
 597	5.9302e+01	5.9270	5.679577	0.000262	2.620467	0.443919	0.000026
 598	5.9401e+01	5.9394	5.713387	0.000340	3.398418	0.575708	0.000034
 599	5.9501e+01	5.9482	5.745567	0.000323	3.234639	0.547963	0.000032
 600	5.9600e+01	5.9573	5.777747	0.000323	3.234639	0.547963	0.000032
 601	5.9700e+01	5.9698	5.809112	0.000315	3.152750	0.534090	0.000032
 602	5.9800e+01	5.9739	5.842922	0.000340	3.398418	0.575708	0.000034
 603	5.9899e+01	5.9856	5.875509	0.000328	3.275584	0.554899	0.000033
 604	5.9998e+01	5.9972	5.908504	0.000332	3.316529	0.561835	0.000033
 605	6.0098e+01	6.0064	5.939462	0.000311	3.111805	0.527154	0.000031
 606	6.0197e+01	6.0140	5.971234	0.000319	3.193694	0.541026	0.000032
 607	6.0297e+01	6.0270	6.003007	0.000319	3.193694	0.541026	0.000032
 608	6.0397e+01	6.0363	6.031929	0.000291	2.907081	0.492473	0.000029
 609	6.0496e+01	6.0461	6.065331	0.000336	3.357474	0.568771	0.000034
 610	6.0596e+01	6.0558	6.093845	0.000287	2.866136	0.485537	0.000029
 611	6.0695e+01	6.0658	6.128876	0.000352	3.521253	0.596516	0.000035
 612	6.0794e+01	6.0753	6.163093	0.000344	3.439363	0.582644	0.000034
 613	6.0894e+01	6.0860	6.195680	0.000328	3.275584	0.554899	0.000033
 614	6.0993e+01	6.0966	6.228675	0.000332	3.316529	0.561835	0.000033
 615	6.1093e+01	6.1030	6.264114	0.000356	3.562198	0.603453	0.000036
 616	6.1193e+01	6.1158	6.299960	0.000360	3.603142	0.610389	0.000036
 617	6.1292e+01	6.1268	6.331325	0.000315	3.152750	0.534090	0.000032
 618	6.1392e+01	6.1353	6.362691	0.000315	3.152750	0.534090	0.000032
 619	6.1491e+01	6.1452	6.398129	0.000356	3.562198	0.603453	0.000036
 620	6.1590e+01	6.1562	6.429902	0.000319	3.193694	0.541026	0.000032
 621	6.1690e+01	6.1694	6.461675	0.000319	3.193694	0.541026	0.000032
 622	6.1789e+01	6.1757	6.494670	0.000332	3.316529	0.561835	0.000033
 623	6.1889e+01	6.1855	6.523591	0.000291	2.907081	0.492473	0.000029
 624	6.1989e+01	6.1956	6.553734	0.000303	3.029915	0.513282	0.000030
 625	6.2088e+01	6.2048	6.583878	0.000303	3.029915	0.513282	0.000030
 626	6.2188e+01	6.2164	6.620946	0.000373	3.725977	0.631198	0.000037
 627	6.2287e+01	6.2247	6.649867	0.000291	2.907081	0.492473	0.000029
 628	6.2386e+01	6.2365	6.678788	0.000291	2.907081	0.492473	0.000029
 629	6.2486e+01	6.2481	6.715449	0.000369	3.685032	0.624261	0.000037
 630	6.2586e+01	6.2572	6.745185	0.000299	2.988970	0.506345	0.000030
 631	6.2685e+01	6.2655	6.777365	0.000323	3.234639	0.547963	0.000032
 632	6.2785e+01	6.2746	6.810360	0.000332	3.316529	0.561835	0.000033
 633	6.2884e+01	6.2843	6.840096	0.000299	2.988970	0.506345	0.000030
 634	6.2983e+01	6.2954	6.868203	0.000283	2.825191	0.478600	0.000028
 635	6.3083e+01	6.3064	6.894680	0.000266	2.661412	0.450855	0.000027
 636	6.3182e+01	6.3135	6.923601	0.000291	2.907081	0.492473	0.000029
 637	6.3282e+01	6.3257	6.956596	0.000332	3.316529	0.561835	0.000033
 638	6.3382e+01	6.3372	6.985110	0.000287	2.866136	0.485537	0.000029
 639	6.3481e+01	6.3448	7.012402	0.000274	2.743302	0.464728	0.000027
 640	6.3581e+01	6.3548	7.043360	0.000311	3.111805	0.527154	0.000031
 641	6.3680e+01	6.3631	7.071874	0.000287	2.866136	0.485537	0.000029
 642	6.3779e+01	6.3754	7.104461	0.000328	3.275584	0.554899	0.000033
 643	6.3879e+01	6.3862	7.134605	0.000303	3.029915	0.513282	0.000030
 644	6.3978e+01	6.3949	7.167192	0.000328	3.275584	0.554899	0.000033
 645	6.4078e+01	6.4054	7.194891	0.000278	2.784246	0.471664	0.000028
 646	6.4177e+01	6.4132	7.229516	0.000348	3.480308	0.589580	0.000035
 647	6.4277e+01	6.4257	7.260474	0.000311	3.111805	0.527154	0.000031
 648	6.4376e+01	6.4342	7.287766	0.000274	2.743302	0.464728	0.000027
 649	6.4476e+01	6.4466	7.320353	0.000328	3.275584	0.554899	0.000033
 650	6.4576e+01	6.4532	7.350496	0.000303	3.029915	0.513282	0.000030
 651	6.4675e+01	6.4639	7.382676	0.000323	3.234639	0.547963	0.000032
 652	6.4775e+01	6.4745	7.412005	0.000295	2.948026	0.499409	0.000029
 653	6.4874e+01	6.4843	7.445407	0.000336	3.357474	0.568771	0.000034
 654	6.4974e+01	6.4941	7.472699	0.000274	2.743302	0.464728	0.000027
 655	6.5073e+01	6.5067	7.504879	0.000323	3.234639	0.547963	0.000032
 656	6.5172e+01	6.5153	7.535837	0.000311	3.111805	0.527154	0.000031
 657	6.5272e+01	6.5237	7.567203	0.000315	3.152750	0.534090	0.000032
 658	6.5371e+01	6.5340	7.600197	0.000332	3.316529	0.561835	0.000033
 659	6.5471e+01	6.5435	7.627489	0.000274	2.743302	0.464728	0.000027
 660	6.5570e+01	6.5530	7.661299	0.000340	3.398418	0.575708	0.000034
 661	6.5670e+01	6.5649	7.685332	0.000242	2.415743	0.409238	0.000024
 662	6.5769e+01	6.5732	7.722400	0.000373	3.725977	0.631198	0.000037
 663	6.5869e+01	6.5845	7.751729	0.000295	2.948026	0.499409	0.000029
 664	6.5969e+01	6.5920	7.781872	0.000303	3.029915	0.513282	0.000030
 665	6.6068e+01	6.6048	7.814052	0.000323	3.234639	0.547963	0.000032
 666	6.6168e+01	6.6143	7.844196	0.000303	3.029915	0.513282	0.000030
 667	6.6267e+01	6.6256	7.874746	0.000307	3.070860	0.520218	0.000031
 668	6.6367e+01	6.6360	7.903260	0.000287	2.866136	0.485537	0.000029
 669	6.6466e+01	6.6433	7.936255	0.000332	3.316529	0.561835	0.000033
 670	6.6566e+01	6.6557	7.963547	0.000274	2.743302	0.464728	0.000027
 671	6.6665e+01	6.6631	7.990839	0.000274	2.743302	0.464728	0.000027
 672	6.6764e+01	6.6749	8.024648	0.000340	3.398418	0.575708	0.000034
 673	6.6864e+01	6.6846	8.057236	0.000328	3.275584	0.554899	0.000033
 674	6.6963e+01	6.6917	8.084528	0.000274	2.743302	0.464728	0.000027
 675	6.7063e+01	6.7034	8.113449	0.000291	2.907081	0.492473	0.000029
 676	6.7162e+01	6.7130	8.146851	0.000336	3.357474	0.568771	0.000034
 677	6.7262e+01	6.7229	8.178624	0.000319	3.193694	0.541026	0.000032
 678	6.7362e+01	6.7350	8.211618	0.000332	3.316529	0.561835	0.000033
 679	6.7461e+01	6.7467	8.241762	0.000303	3.029915	0.513282	0.000030
 680	6.7561e+01	6.7507	8.270683	0.000291	2.907081	0.492473	0.000029
 681	6.7660e+01	6.7635	8.301234	0.000307	3.070860	0.520218	0.000031
 682	6.7760e+01	6.7730	8.330970	0.000299	2.988970	0.506345	0.000030
 683	6.7859e+01	6.7819	8.362743	0.000319	3.193694	0.541026	0.000032
 684	6.7959e+01	6.7931	8.391664	0.000291	2.907081	0.492473	0.000029
 685	6.8058e+01	6.8018	8.420993	0.000295	2.948026	0.499409	0.000029
 686	6.8157e+01	6.8120	8.455209	0.000344	3.439363	0.582644	0.000034
 687	6.8257e+01	6.8230	8.482501	0.000274	2.743302	0.464728	0.000027
 688	6.8356e+01	6.8336	8.509386	0.000270	2.702357	0.457792	0.000027
 689	6.8456e+01	6.8420	8.544825	0.000356	3.562198	0.603453	0.000036
 690	6.8555e+01	6.8560	8.574153	0.000295	2.948026	0.499409	0.000029
 691	6.8655e+01	6.8612	8.605111	0.000311	3.111805	0.527154	0.000031
 692	6.8754e+01	6.8732	8.636477	0.000315	3.152750	0.534090	0.000032
 693	6.8854e+01	6.8823	8.666620	0.000303	3.029915	0.513282	0.000030
 694	6.8954e+01	6.8925	8.695134	0.000287	2.866136	0.485537	0.000029
 695	6.9053e+01	6.9041	8.728129	0.000332	3.316529	0.561835	0.000033
 696	6.9153e+01	6.9133	8.757865	0.000299	2.988970	0.506345	0.000030
 697	6.9252e+01	6.9218	8.785157	0.000274	2.743302	0.464728	0.000027
 698	6.9352e+01	6.9361	8.817337	0.000323	3.234639	0.547963	0.000032
 699	6.9451e+01	6.9389	8.847480	0.000303	3.029915	0.513282	0.000030
 700	6.9550e+01	6.9513	8.871106	0.000237	2.374798	0.402302	0.000024
 701	6.9650e+01	6.9596	8.898398	0.000274	2.743302	0.464728	0.000027
 702	6.9749e+01	6.9720	8.926505	0.000283	2.825191	0.478600	0.000028
 703	6.9849e+01	6.9831	8.954204	0.000278	2.784246	0.471664	0.000028
 704	6.9948e+01	6.9900	8.983940	0.000299	2.988970	0.506345	0.000030
 705	7.0048e+01	7.0042	9.014491	0.000307	3.070860	0.520218	0.000031
 706	7.0147e+01	7.0104	9.041783	0.000274	2.743302	0.464728	0.000027
 707	7.0247e+01	7.0242	9.073963	0.000323	3.234639	0.547963	0.000032
 708	7.0347e+01	7.0308	9.105328	0.000315	3.152750	0.534090	0.000032
 709	7.0446e+01	7.0403	9.136286	0.000311	3.111805	0.527154	0.000031
 710	7.0546e+01	7.0509	9.167244	0.000311	3.111805	0.527154	0.000031
 711	7.0645e+01	7.0596	9.198609	0.000315	3.152750	0.534090	0.000032
 712	7.0745e+01	7.0703	9.228346	0.000299	2.988970	0.506345	0.000030
 713	7.0844e+01	7.0798	9.257674	0.000295	2.948026	0.499409	0.000029
 714	7.0944e+01	7.0913	9.286595	0.000291	2.907081	0.492473	0.000029
 715	7.1043e+01	7.1012	9.315924	0.000295	2.948026	0.499409	0.000029
 716	7.1142e+01	7.1117	9.346882	0.000311	3.111805	0.527154	0.000031
 717	7.1242e+01	7.1209	9.378248	0.000315	3.152750	0.534090	0.000032
 718	7.1341e+01	7.1304	9.406762	0.000287	2.866136	0.485537	0.000029
 719	7.1441e+01	7.1423	9.439756	0.000332	3.316529	0.561835	0.000033
 720	7.1540e+01	7.1507	9.473973	0.000344	3.439363	0.582644	0.000034
 721	7.1640e+01	7.1627	9.506968	0.000332	3.316529	0.561835	0.000033
 722	7.1740e+01	7.1703	9.534260	0.000274	2.743302	0.464728	0.000027
 723	7.1839e+01	7.1810	9.568884	0.000348	3.480308	0.589580	0.000035
 724	7.1939e+01	7.1906	9.601064	0.000323	3.234639	0.547963	0.000032
 725	7.2038e+01	7.2010	9.633651	0.000328	3.275584	0.554899	0.000033
 726	7.2138e+01	7.2103	9.662573	0.000291	2.907081	0.492473	0.000029
 727	7.2237e+01	7.2222	9.692716	0.000303	3.029915	0.513282	0.000030
 728	7.2337e+01	7.2297	9.720008	0.000274	2.743302	0.464728	0.000027
 729	7.2436e+01	7.2400	9.752188	0.000323	3.234639	0.547963	0.000032
 730	7.2535e+01	7.2482	9.781924	0.000299	2.988970	0.506345	0.000030
 731	7.2635e+01	7.2607	9.812067	0.000303	3.029915	0.513282	0.000030
 732	7.2734e+01	7.2712	9.843840	0.000319	3.193694	0.541026	0.000032
 733	7.2834e+01	7.2803	9.872354	0.000287	2.866136	0.485537	0.000029
 734	7.2933e+01	7.2914	9.901275	0.000291	2.907081	0.492473	0.000029
 735	7.3033e+01	7.2980	9.928975	0.000278	2.784246	0.471664	0.000028
 736	7.3132e+01	7.3096	9.961155	0.000323	3.234639	0.547963	0.000032
 737	7.3232e+01	7.3219	9.991298	0.000303	3.029915	0.513282	0.000030
 738	7.3332e+01	7.3305	10.020627	0.000295	2.948026	0.499409	0.000029
 739	7.3431e+01	7.3382	10.050770	0.000303	3.029915	0.513282	0.000030
 740	7.3531e+01	7.3489	10.078877	0.000283	2.825191	0.478600	0.000028
 741	7.3630e+01	7.3600	10.110649	0.000319	3.193694	0.541026	0.000032
 742	7.3730e+01	7.3706	10.137941	0.000274	2.743302	0.464728	0.000027
 743	7.3829e+01	7.3785	10.169307	0.000315	3.152750	0.534090	0.000032
 744	7.3928e+01	7.3900	10.201487	0.000323	3.234639	0.547963	0.000032
 745	7.4028e+01	7.4004	10.227964	0.000266	2.661412	0.450855	0.000027
 746	7.4127e+01	7.4065	10.259330	0.000315	3.152750	0.534090	0.000032
 747	7.4227e+01	7.4216	10.291917	0.000328	3.275584	0.554899	0.000033
 748	7.4326e+01	7.4264	10.317172	0.000254	2.538578	0.430047	0.000025
 749	7.4426e+01	7.4403	10.349352	0.000323	3.234639	0.547963	0.000032
 750	7.4525e+01	7.4474	10.379903	0.000307	3.070860	0.520218	0.000031
 751	7.4625e+01	7.4586	10.407602	0.000278	2.784246	0.471664	0.000028
 752	7.4725e+01	7.4702	10.438968	0.000315	3.152750	0.534090	0.000032
 753	7.4824e+01	7.4783	10.469518	0.000307	3.070860	0.520218	0.000031
 754	7.4924e+01	7.4888	10.499254	0.000299	2.988970	0.506345	0.000030
 755	7.5023e+01	7.4987	10.529805	0.000307	3.070860	0.520218	0.000031
 756	7.5123e+01	7.5115	10.557097	0.000274	2.743302	0.464728	0.000027
 757	7.5222e+01	7.5213	10.591314	0.000344	3.439363	0.582644	0.000034
 758	7.5322e+01	7.5311	10.620642	0.000295	2.948026	0.499409	0.000029
 759	7.5421e+01	7.5396	10.644268	0.000237	2.374798	0.402302	0.000024
 760	7.5520e+01	7.5492	10.674412	0.000303	3.029915	0.513282	0.000030
 761	7.5620e+01	7.5590	10.706184	0.000319	3.193694	0.541026	0.000032
 762	7.5719e+01	7.5710	10.730625	0.000246	2.456688	0.416174	0.000025
 763	7.5819e+01	7.5781	10.759546	0.000291	2.907081	0.492473	0.000029
 764	7.5918e+01	7.5880	10.792134	0.000328	3.275584	0.554899	0.000033
 765	7.6018e+01	7.5990	10.821055	0.000291	2.907081	0.492473	0.000029
 766	7.6118e+01	7.6099	10.849162	0.000283	2.825191	0.478600	0.000028
 767	7.6217e+01	7.6180	10.880934	0.000319	3.193694	0.541026	0.000032
 768	7.6317e+01	7.6283	10.908634	0.000278	2.784246	0.471664	0.000028
 769	7.6416e+01	7.6373	10.938777	0.000303	3.029915	0.513282	0.000030
 770	7.6516e+01	7.6479	10.969328	0.000307	3.070860	0.520218	0.000031
 771	7.6615e+01	7.6580	10.995805	0.000266	2.661412	0.450855	0.000027
 772	7.6715e+01	7.6672	11.023911	0.000283	2.825191	0.478600	0.000028
 773	7.6814e+01	7.6762	11.055277	0.000315	3.152750	0.534090	0.000032
 774	7.6913e+01	7.6871	11.080939	0.000258	2.579522	0.436983	0.000026
 775	7.7013e+01	7.6967	11.112712	0.000319	3.193694	0.541026	0.000032
 776	7.7112e+01	7.7079	11.140819	0.000283	2.825191	0.478600	0.000028
 777	7.7212e+01	7.7193	11.168518	0.000278	2.784246	0.471664	0.000028
 778	7.7311e+01	7.7290	11.199476	0.000311	3.111805	0.527154	0.000031
 779	7.7411e+01	7.7399	11.226361	0.000270	2.702357	0.457792	0.000027
 780	7.7510e+01	7.7473	11.257726	0.000315	3.152750	0.534090	0.000032
 781	7.7610e+01	7.7573	11.289091	0.000315	3.152750	0.534090	0.000032
 782	7.7710e+01	7.7688	11.320457	0.000315	3.152750	0.534090	0.000032
 783	7.7809e+01	7.7789	11.350600	0.000303	3.029915	0.513282	0.000030
 784	7.7909e+01	7.7860	11.381558	0.000311	3.111805	0.527154	0.000031
 785	7.8008e+01	7.7988	11.415368	0.000340	3.398418	0.575708	0.000034
 786	7.8108e+01	7.8069	11.442252	0.000270	2.702357	0.457792	0.000027
 787	7.8207e+01	7.8155	11.476062	0.000340	3.398418	0.575708	0.000034
 788	7.8306e+01	7.8236	11.500095	0.000242	2.415743	0.409238	0.000024
 789	7.8406e+01	7.8355	11.531868	0.000319	3.193694	0.541026	0.000032
 790	7.8505e+01	7.8493	11.559567	0.000278	2.784246	0.471664	0.000028
 791	7.8605e+01	7.8576	11.588488	0.000291	2.907081	0.492473	0.000029
 792	7.8704e+01	7.8666	11.616188	0.000278	2.784246	0.471664	0.000028
 793	7.8804e+01	7.8793	11.645109	0.000291	2.907081	0.492473	0.000029
 794	7.8903e+01	7.8867	11.677696	0.000328	3.275584	0.554899	0.000033
 795	7.9003e+01	7.8967	11.706618	0.000291	2.907081	0.492473	0.000029
 796	7.9103e+01	7.9078	11.731465	0.000250	2.497633	0.423110	0.000025
 797	7.9202e+01	7.9173	11.762831	0.000315	3.152750	0.534090	0.000032
 798	7.9302e+01	7.9256	11.792974	0.000303	3.029915	0.513282	0.000030
 799	7.9401e+01	7.9376	11.819044	0.000262	2.620467	0.443919	0.000026
 800	7.9501e+01	7.9459	11.849187	0.000303	3.029915	0.513282	0.000030
 801	7.9600e+01	7.9554	11.877294	0.000283	2.825191	0.478600	0.000028
 802	7.9700e+01	7.9688	11.903771	0.000266	2.661412	0.450855	0.000027
 803	7.9799e+01	7.9785	11.931063	0.000274	2.743302	0.464728	0.000027
 804	7.9898e+01	7.9897	11.954689	0.000237	2.374798	0.402302	0.000024
 805	7.9998e+01	7.9955	11.980352	0.000258	2.579522	0.436983	0.000026
 806	8.0097e+01	8.0075	12.008866	0.000287	2.866136	0.485537	0.000029
 807	8.0197e+01	8.0167	12.036158	0.000274	2.743302	0.464728	0.000027
 808	8.0296e+01	8.0244	12.066708	0.000307	3.070860	0.520218	0.000031
 809	8.0396e+01	8.0375	12.092778	0.000262	2.620467	0.443919	0.000026
 810	8.0496e+01	8.0462	12.121292	0.000287	2.866136	0.485537	0.000029
 811	8.0595e+01	8.0575	12.147770	0.000266	2.661412	0.450855	0.000027
 812	8.0695e+01	8.0664	12.176691	0.000291	2.907081	0.492473	0.000029
 813	8.0794e+01	8.0775	12.206427	0.000299	2.988970	0.506345	0.000030
 814	8.0894e+01	8.0853	12.234126	0.000278	2.784246	0.471664	0.000028
 815	8.0993e+01	8.0970	12.258974	0.000250	2.497633	0.423110	0.000025
 816	8.1093e+01	8.1045	12.294006	0.000352	3.521253	0.596516	0.000035
 817	8.1192e+01	8.1174	12.318853	0.000250	2.497633	0.423110	0.000025
 818	8.1291e+01	8.1242	12.349811	0.000311	3.111805	0.527154	0.000031
 819	8.1391e+01	8.1335	12.377511	0.000278	2.784246	0.471664	0.000028
 820	8.1490e+01	8.1463	12.402766	0.000254	2.538578	0.430047	0.000025
 821	8.1590e+01	8.1554	12.432502	0.000299	2.988970	0.506345	0.000030
 822	8.1689e+01	8.1638	12.462238	0.000299	2.988970	0.506345	0.000030
 823	8.1789e+01	8.1767	12.485864	0.000237	2.374798	0.402302	0.000024
 824	8.1888e+01	8.1861	12.520488	0.000348	3.480308	0.589580	0.000035
 825	8.1988e+01	8.1984	12.545336	0.000250	2.497633	0.423110	0.000025
 826	8.2088e+01	8.2026	12.575072	0.000299	2.988970	0.506345	0.000030
 827	8.2187e+01	8.2166	12.601957	0.000270	2.702357	0.457792	0.000027
 828	8.2287e+01	8.2251	12.631693	0.000299	2.988970	0.506345	0.000030
 829	8.2386e+01	8.2373	12.661021	0.000295	2.948026	0.499409	0.000029
 830	8.2486e+01	8.2458	12.687091	0.000262	2.620467	0.443919	0.000026
 831	8.2585e+01	8.2556	12.714383	0.000274	2.743302	0.464728	0.000027
 832	8.2684e+01	8.2646	12.743304	0.000291	2.907081	0.492473	0.000029
 833	8.2784e+01	8.2777	12.773040	0.000299	2.988970	0.506345	0.000030
 834	8.2883e+01	8.2861	12.803591	0.000307	3.070860	0.520218	0.000031
 835	8.2983e+01	8.2964	12.830068	0.000266	2.661412	0.450855	0.000027
 836	8.3082e+01	8.3065	12.856138	0.000262	2.620467	0.443919	0.000026
 837	8.3182e+01	8.3161	12.886689	0.000307	3.070860	0.520218	0.000031
 838	8.3281e+01	8.3228	12.915203	0.000287	2.866136	0.485537	0.000029
 839	8.3381e+01	8.3346	12.940458	0.000254	2.538578	0.430047	0.000025
 840	8.3481e+01	8.3453	12.965713	0.000254	2.538578	0.430047	0.000025
 841	8.3580e+01	8.3532	12.995857	0.000303	3.029915	0.513282	0.000030
 842	8.3680e+01	8.3660	13.023963	0.000283	2.825191	0.478600	0.000028
 843	8.3779e+01	8.3743	13.053292	0.000295	2.948026	0.499409	0.000029
 844	8.3879e+01	8.3843	13.085065	0.000319	3.193694	0.541026	0.000032
 845	8.3978e+01	8.3929	13.113986	0.000291	2.907081	0.492473	0.000029
 846	8.4078e+01	8.4040	13.142907	0.000291	2.907081	0.492473	0.000029
 847	8.4177e+01	8.4154	13.173051	0.000303	3.029915	0.513282	0.000030
 848	8.4276e+01	8.4246	13.198306	0.000254	2.538578	0.430047	0.000025
 849	8.4376e+01	8.4338	13.226005	0.000278	2.784246	0.471664	0.000028
 850	8.4475e+01	8.4439	13.256149	0.000303	3.029915	0.513282	0.000030
 851	8.4575e+01	8.4561	13.283033	0.000270	2.702357	0.457792	0.000027
 852	8.4674e+01	8.4638	13.310325	0.000274	2.743302	0.464728	0.000027
 853	8.4774e+01	8.4736	13.340061	0.000299	2.988970	0.506345	0.000030
 854	8.4874e+01	8.4853	13.364502	0.000246	2.456688	0.416174	0.000025
 855	8.4973e+01	8.4962	13.395460	0.000311	3.111805	0.527154	0.000031
 856	8.5073e+01	8.5036	13.423974	0.000287	2.866136	0.485537	0.000029
 857	8.5172e+01	8.5156	13.451673	0.000278	2.784246	0.471664	0.000028
 858	8.5272e+01	8.5242	13.479372	0.000278	2.784246	0.471664	0.000028
 859	8.5371e+01	8.5317	13.510738	0.000315	3.152750	0.534090	0.000032
 860	8.5471e+01	8.5452	13.542103	0.000315	3.152750	0.534090	0.000032
 861	8.5570e+01	8.5554	13.567766	0.000258	2.579522	0.436983	0.000026
 862	8.5669e+01	8.5645	13.599538	0.000319	3.193694	0.541026	0.000032
 863	8.5769e+01	8.5731	13.621128	0.000217	2.170074	0.367621	0.000022
 864	8.5868e+01	8.5842	13.652900	0.000319	3.193694	0.541026	0.000032
 865	8.5968e+01	8.5915	13.681414	0.000287	2.866136	0.485537	0.000029
 866	8.6067e+01	8.6024	13.706670	0.000254	2.538578	0.430047	0.000025
 867	8.6167e+01	8.6135	13.731110	0.000246	2.456688	0.416174	0.000025
 868	8.6266e+01	8.6231	13.758402	0.000274	2.743302	0.464728	0.000027
 869	8.6366e+01	8.6334	13.786916	0.000287	2.866136	0.485537	0.000029
 870	8.6466e+01	8.6437	13.815023	0.000283	2.825191	0.478600	0.000028
 871	8.6565e+01	8.6520	13.836612	0.000217	2.170074	0.367621	0.000022
 872	8.6665e+01	8.6625	13.865533	0.000291	2.907081	0.492473	0.000029
 873	8.6764e+01	8.6742	13.893640	0.000283	2.825191	0.478600	0.000028
 874	8.6864e+01	8.6805	13.923376	0.000299	2.988970	0.506345	0.000030
 875	8.6963e+01	8.6902	13.950260	0.000270	2.702357	0.457792	0.000027
 876	8.7063e+01	8.7023	13.984070	0.000340	3.398418	0.575708	0.000034
 877	8.7162e+01	8.7135	14.012176	0.000283	2.825191	0.478600	0.000028
 878	8.7261e+01	8.7220	14.035802	0.000237	2.374798	0.402302	0.000024
 879	8.7361e+01	8.7325	14.065946	0.000303	3.029915	0.513282	0.000030
 880	8.7460e+01	8.7428	14.092830	0.000270	2.702357	0.457792	0.000027
 881	8.7560e+01	8.7518	14.119715	0.000270	2.702357	0.457792	0.000027
 882	8.7659e+01	8.7647	14.151895	0.000323	3.234639	0.547963	0.000032
 883	8.7759e+01	8.7715	14.173891	0.000221	2.211019	0.374557	0.000022
 884	8.7859e+01	8.7829	14.203220	0.000295	2.948026	0.499409	0.000029
 885	8.7958e+01	8.7925	14.237030	0.000340	3.398418	0.575708	0.000034
 886	8.8058e+01	8.8062	14.270839	0.000340	3.398418	0.575708	0.000034
 887	8.8157e+01	8.8148	14.299353	0.000287	2.866136	0.485537	0.000029
 888	8.8257e+01	8.8235	14.327460	0.000283	2.825191	0.478600	0.000028
 889	8.8356e+01	8.8364	14.361269	0.000340	3.398418	0.575708	0.000034
 890	8.8456e+01	8.8428	14.389376	0.000283	2.825191	0.478600	0.000028
 891	8.8555e+01	8.8508	14.417890	0.000287	2.866136	0.485537	0.000029
 892	8.8654e+01	8.8607	14.447218	0.000295	2.948026	0.499409	0.000029
 893	8.8754e+01	8.8729	14.475325	0.000283	2.825191	0.478600	0.000028
 894	8.8853e+01	8.8822	14.503839	0.000287	2.866136	0.485537	0.000029
 895	8.8953e+01	8.8918	14.537241	0.000336	3.357474	0.568771	0.000034
 896	8.9052e+01	8.9004	14.564126	0.000270	2.702357	0.457792	0.000027
 897	8.9152e+01	8.9132	14.590603	0.000266	2.661412	0.450855	0.000027
 898	8.9251e+01	8.9207	14.621561	0.000311	3.111805	0.527154	0.000031
 899	8.9351e+01	8.9331	14.651704	0.000303	3.029915	0.513282	0.000030
 900	8.9451e+01	8.9419	14.685921	0.000344	3.439363	0.582644	0.000034
 901	8.9550e+01	8.9539	14.704659	0.000188	1.883461	0.319067	0.000019
 902	8.9650e+01	8.9628	14.736839	0.000323	3.234639	0.547963	0.000032
 903	8.9749e+01	8.9722	14.765353	0.000287	2.866136	0.485537	0.000029
 904	8.9849e+01	8.9795	14.794681	0.000295	2.948026	0.499409	0.000029
 905	8.9948e+01	8.9907	14.824417	0.000299	2.988970	0.506345	0.000030
 906	9.0047e+01	9.0023	14.848043	0.000237	2.374798	0.402302	0.000024
 907	9.0147e+01	9.0128	14.879409	0.000315	3.152750	0.534090	0.000032
 908	9.0246e+01	9.0210	14.907923	0.000287	2.866136	0.485537	0.000029
 909	9.0346e+01	9.0298	14.934400	0.000266	2.661412	0.450855	0.000027
 910	9.0445e+01	9.0417	14.967802	0.000336	3.357474	0.568771	0.000034
 911	9.0545e+01	9.0479	14.993057	0.000254	2.538578	0.430047	0.000025
 912	9.0644e+01	9.0611	15.023201	0.000303	3.029915	0.513282	0.000030
 913	9.0744e+01	9.0713	15.052122	0.000291	2.907081	0.492473	0.000029
 914	9.0844e+01	9.0833	15.082265	0.000303	3.029915	0.513282	0.000030
 915	9.0943e+01	9.0924	15.108743	0.000266	2.661412	0.450855	0.000027
 916	9.1043e+01	9.1006	15.140108	0.000315	3.152750	0.534090	0.000032
 917	9.1142e+01	9.1119	15.166178	0.000262	2.620467	0.443919	0.000026
 918	9.1242e+01	9.1198	15.195914	0.000299	2.988970	0.506345	0.000030
 919	9.1341e+01	9.1317	15.224835	0.000291	2.907081	0.492473	0.000029
 920	9.1441e+01	9.1408	15.255793	0.000311	3.111805	0.527154	0.000031
 921	9.1540e+01	9.1474	15.285529	0.000299	2.988970	0.506345	0.000030
 922	9.1639e+01	9.1613	15.314043	0.000287	2.866136	0.485537	0.000029
 923	9.1739e+01	9.1720	15.342557	0.000287	2.866136	0.485537	0.000029
 924	9.1838e+01	9.1805	15.371071	0.000287	2.866136	0.485537	0.000029
 925	9.1938e+01	9.1895	15.402029	0.000311	3.111805	0.527154	0.000031
 926	9.2037e+01	9.1992	15.427692	0.000258	2.579522	0.436983	0.000026
 927	9.2137e+01	9.2092	15.456613	0.000291	2.907081	0.492473	0.000029
 928	9.2237e+01	9.2200	15.485127	0.000287	2.866136	0.485537	0.000029
 929	9.2336e+01	9.2287	15.514048	0.000291	2.907081	0.492473	0.000029
 930	9.2436e+01	9.2407	15.545414	0.000315	3.152750	0.534090	0.000032
 931	9.2535e+01	9.2490	15.568225	0.000229	2.292909	0.388429	0.000023
 932	9.2635e+01	9.2590	15.600812	0.000328	3.275584	0.554899	0.000033
 933	9.2734e+01	9.2683	15.625253	0.000246	2.456688	0.416174	0.000025
 934	9.2834e+01	9.2798	15.659470	0.000344	3.439363	0.582644	0.000034
 935	9.2933e+01	9.2883	15.685132	0.000258	2.579522	0.436983	0.000026
 936	9.3032e+01	9.3011	15.716090	0.000311	3.111805	0.527154	0.000031
 937	9.3132e+01	9.3099	15.745012	0.000291	2.907081	0.492473	0.000029
 938	9.3231e+01	9.3183	15.772711	0.000278	2.784246	0.471664	0.000028
 939	9.3331e+01	9.3319	15.802854	0.000303	3.029915	0.513282	0.000030
 940	9.3430e+01	9.3418	15.833405	0.000307	3.070860	0.520218	0.000031
 941	9.3530e+01	9.3493	15.859475	0.000262	2.620467	0.443919	0.000026
 942	9.3629e+01	9.3581	15.891655	0.000323	3.234639	0.547963	0.000032
 943	9.3729e+01	9.3702	15.916503	0.000250	2.497633	0.423110	0.000025
 944	9.3829e+01	9.3783	15.945424	0.000291	2.907081	0.492473	0.000029
 945	9.3928e+01	9.3890	15.975160	0.000299	2.988970	0.506345	0.000030
 946	9.4028e+01	9.3996	16.002859	0.000278	2.784246	0.471664	0.000028
 947	9.4127e+01	9.4094	16.031373	0.000287	2.866136	0.485537	0.000029
 948	9.4227e+01	9.4181	16.062331	0.000311	3.111805	0.527154	0.000031
 949	9.4326e+01	9.4271	16.090031	0.000278	2.784246	0.471664	0.000028
 950	9.4425e+01	9.4388	16.123433	0.000336	3.357474	0.568771	0.000034
 951	9.4525e+01	9.4492	16.156020	0.000328	3.275584	0.554899	0.000033
 952	9.4624e+01	9.4540	16.183720	0.000278	2.784246	0.471664	0.000028
 953	9.4724e+01	9.4678	16.215085	0.000315	3.152750	0.534090	0.000032
 954	9.4823e+01	9.4798	16.246043	0.000311	3.111805	0.527154	0.000031
 955	9.4923e+01	9.4891	16.277408	0.000315	3.152750	0.534090	0.000032
 956	9.5022e+01	9.5004	16.306737	0.000295	2.948026	0.499409	0.000029
 957	9.5122e+01	9.5092	16.336066	0.000295	2.948026	0.499409	0.000029
 958	9.5222e+01	9.5187	16.360914	0.000250	2.497633	0.423110	0.000025
 959	9.5321e+01	9.5298	16.389020	0.000283	2.825191	0.478600	0.000028
 960	9.5421e+01	9.5388	16.417127	0.000283	2.825191	0.478600	0.000028
 961	9.5520e+01	9.5509	16.448085	0.000311	3.111805	0.527154	0.000031
 962	9.5620e+01	9.5583	16.478228	0.000303	3.029915	0.513282	0.000030
 963	9.5719e+01	9.5718	16.507150	0.000291	2.907081	0.492473	0.000029
 964	9.5819e+01	9.5794	16.540144	0.000332	3.316529	0.561835	0.000033
 965	9.5918e+01	9.5881	16.566214	0.000262	2.620467	0.443919	0.000026
 966	9.6017e+01	9.6006	16.593914	0.000278	2.784246	0.471664	0.000028
 967	9.6117e+01	9.6096	16.628945	0.000352	3.521253	0.596516	0.000035
 968	9.6216e+01	9.6179	16.655015	0.000262	2.620467	0.443919	0.000026
 969	9.6316e+01	9.6258	16.681900	0.000270	2.702357	0.457792	0.000027
 970	9.6415e+01	9.6372	16.711228	0.000295	2.948026	0.499409	0.000029
 971	9.6515e+01	9.6495	16.735669	0.000246	2.456688	0.416174	0.000025
 972	9.6615e+01	9.6588	16.762961	0.000274	2.743302	0.464728	0.000027
 973	9.6714e+01	9.6682	16.788623	0.000258	2.579522	0.436983	0.000026
 974	9.6814e+01	9.6780	16.819174	0.000307	3.070860	0.520218	0.000031
 975	9.6913e+01	9.6882	16.850132	0.000311	3.111805	0.527154	0.000031
 976	9.7013e+01	9.6973	16.875795	0.000258	2.579522	0.436983	0.000026
 977	9.7112e+01	9.7085	16.901050	0.000254	2.538578	0.430047	0.000025
 978	9.7212e+01	9.7149	16.931193	0.000303	3.029915	0.513282	0.000030
 979	9.7311e+01	9.7273	16.962559	0.000315	3.152750	0.534090	0.000032
 980	9.7410e+01	9.7378	16.991073	0.000287	2.866136	0.485537	0.000029
 981	9.7510e+01	9.7453	17.019586	0.000287	2.866136	0.485537	0.000029
 982	9.7609e+01	9.7570	17.049730	0.000303	3.029915	0.513282	0.000030
 983	9.7709e+01	9.7633	17.082317	0.000328	3.275584	0.554899	0.000033
 984	9.7808e+01	9.7757	17.110017	0.000278	2.784246	0.471664	0.000028
 985	9.7908e+01	9.7870	17.140567	0.000307	3.070860	0.520218	0.000031
 986	9.8007e+01	9.7968	17.167044	0.000266	2.661412	0.450855	0.000027
 987	9.8107e+01	9.8078	17.197595	0.000307	3.070860	0.520218	0.000031
 988	9.8207e+01	9.8169	17.224480	0.000270	2.702357	0.457792	0.000027
 989	9.8306e+01	9.8257	17.256253	0.000319	3.193694	0.541026	0.000032
 990	9.8406e+01	9.8364	17.282730	0.000266	2.661412	0.450855	0.000027
 991	9.8505e+01	9.8457	17.313688	0.000311	3.111805	0.527154	0.000031
 992	9.8605e+01	9.8584	17.343831	0.000303	3.029915	0.513282	0.000030
 993	9.8704e+01	9.8658	17.372345	0.000287	2.866136	0.485537	0.000029
 994	9.8803e+01	9.8740	17.402081	0.000299	2.988970	0.506345	0.000030
 995	9.8903e+01	9.8895	17.431002	0.000291	2.907081	0.492473	0.000029
 996	9.9002e+01	9.8975	17.464405	0.000336	3.357474	0.568771	0.000034
 997	9.9102e+01	9.9064	17.492919	0.000287	2.866136	0.485537	0.000029
 998	9.9201e+01	9.9170	17.523062	0.000303	3.029915	0.513282	0.000030
 999	9.9301e+01	9.9256	17.551983	0.000291	2.907081	0.492473	0.000029
1000	9.9400e+01	9.9319	17.584571	0.000328	3.275584	0.554899	0.000033
1001	9.9500e+01	9.9472	17.613492	0.000291	2.907081	0.492473	0.000029
1002	9.9600e+01	9.9548	17.642006	0.000287	2.866136	0.485537	0.000029
1003	9.9699e+01	9.9651	17.673371	0.000315	3.152750	0.534090	0.000032
1004	9.9799e+01	9.9747	17.696590	0.000233	2.333854	0.395365	0.000023
1005	9.9898e+01	9.9862	17.727548	0.000311	3.111805	0.527154	0.000031
1006	9.9998e+01	9.9951	17.757691	0.000303	3.029915	0.513282	0.000030
1007	1.0010e+02	9.9860	17.741397	0.000164	1.637792	0.277449	-0.000016
1008	1.0020e+02	9.9760	17.725104	0.000164	1.637792	0.277449	-0.000016
1009	1.0030e+02	9.9686	17.711254	0.000139	1.392123	0.235832	-0.000014
1010	1.0040e+02	9.9561	17.690072	0.000213	2.129130	0.360684	-0.000021
1011	1.0050e+02	9.9470	17.675001	0.000151	1.514958	0.256641	-0.000015
1012	1.0059e+02	9.9343	17.656263	0.000188	1.883461	0.319067	-0.000019
1013	1.0069e+02	9.9227	17.639155	0.000172	1.719682	0.291322	-0.000017
1014	1.0079e+02	9.9148	17.624083	0.000151	1.514958	0.256641	-0.000015
1015	1.0089e+02	9.9076	17.609011	0.000151	1.514958	0.256641	-0.000015
1016	1.0099e+02	9.9006	17.589459	0.000197	1.965350	0.332939	-0.000020
1017	1.0109e+02	9.8877	17.570314	0.000192	1.924406	0.326003	-0.000019
1018	1.0119e+02	9.8755	17.551169	0.000192	1.924406	0.326003	-0.000019
1019	1.0129e+02	9.8669	17.533653	0.000176	1.760626	0.298258	-0.000018
1020	1.0139e+02	9.8578	17.514508	0.000192	1.924406	0.326003	-0.000019
1021	1.0149e+02	9.8475	17.493326	0.000213	2.129130	0.360684	-0.000021
1022	1.0159e+02	9.8347	17.473773	0.000197	1.965350	0.332939	-0.000020
1023	1.0169e+02	9.8291	17.455850	0.000180	1.801571	0.305194	-0.000018
1024	1.0179e+02	9.8171	17.437113	0.000188	1.883461	0.319067	-0.000019
1025	1.0189e+02	9.8090	17.415931	0.000213	2.129130	0.360684	-0.000021
1026	1.0199e+02	9.7941	17.399637	0.000164	1.637792	0.277449	-0.000016
1027	1.0209e+02	9.7883	17.377233	0.000225	2.251964	0.381493	-0.000023
1028	1.0219e+02	9.7803	17.358495	0.000188	1.883461	0.319067	-0.000019
1029	1.0229e+02	9.7663	17.340572	0.000180	1.801571	0.305194	-0.000018
1030	1.0239e+02	9.7546	17.319798	0.000209	2.088185	0.353748	-0.000021
1031	1.0248e+02	9.7466	17.298616	0.000213	2.129130	0.360684	-0.000021
1032	1.0258e+02	9.7412	17.279064	0.000197	1.965350	0.332939	-0.000020
1033	1.0268e+02	9.7266	17.254623	0.000246	2.456688	0.416174	-0.000025
1034	1.0278e+02	9.7204	17.235071	0.000197	1.965350	0.332939	-0.000020
1035	1.0288e+02	9.7086	17.210630	0.000246	2.456688	0.416174	-0.000025
1036	1.0298e+02	9.6975	17.189041	0.000217	2.170074	0.367621	-0.000022
1037	1.0308e+02	9.6875	17.167452	0.000217	2.170074	0.367621	-0.000022
1038	1.0318e+02	9.6753	17.142197	0.000254	2.538578	0.430047	-0.000025
1039	1.0328e+02	9.6680	17.122644	0.000197	1.965350	0.332939	-0.000020
1040	1.0338e+02	9.6582	17.102277	0.000205	2.047240	0.346812	-0.000020
1041	1.0348e+02	9.6497	17.083947	0.000184	1.842516	0.312131	-0.000018
1042	1.0358e+02	9.6377	17.063987	0.000201	2.006295	0.339876	-0.000020
1043	1.0368e+02	9.6272	17.042805	0.000213	2.129130	0.360684	-0.000021
1044	1.0378e+02	9.6177	17.020809	0.000221	2.211019	0.374557	-0.000022
1045	1.0388e+02	9.6075	17.000441	0.000205	2.047240	0.346812	-0.000020
1046	1.0398e+02	9.5979	16.979667	0.000209	2.088185	0.353748	-0.000021
1047	1.0408e+02	9.5875	16.956856	0.000229	2.292909	0.388429	-0.000023
1048	1.0418e+02	9.5763	16.934859	0.000221	2.211019	0.374557	-0.000022
1049	1.0428e+02	9.5661	16.912863	0.000221	2.211019	0.374557	-0.000022
1050	1.0438e+02	9.5557	16.889644	0.000233	2.333854	0.395365	-0.000023
1051	1.0447e+02	9.5484	16.873758	0.000160	1.596847	0.270513	-0.000016
1052	1.0457e+02	9.5403	16.846873	0.000270	2.702357	0.457792	-0.000027
1053	1.0467e+02	9.5268	16.832616	0.000143	1.433068	0.242768	-0.000014
1054	1.0477e+02	9.5181	16.811027	0.000217	2.170074	0.367621	-0.000022
1055	1.0487e+02	9.5083	16.789438	0.000217	2.170074	0.367621	-0.000022
1056	1.0497e+02	9.4958	16.771922	0.000176	1.760626	0.298258	-0.000018
1057	1.0507e+02	9.4904	16.753592	0.000184	1.842516	0.312131	-0.000018
1058	1.0517e+02	9.4833	16.729559	0.000242	2.415743	0.409238	-0.000024
1059	1.0527e+02	9.4712	16.710821	0.000188	1.883461	0.319067	-0.000019
1060	1.0537e+02	9.4570	16.692490	0.000184	1.842516	0.312131	-0.000018
1061	1.0547e+02	9.4482	16.671309	0.000213	2.129130	0.360684	-0.000021
1062	1.0557e+02	9.4385	16.650941	0.000205	2.047240	0.346812	-0.000020
1063	1.0567e+02	9.4271	16.624872	0.000262	2.620467	0.443919	-0.000026
1064	1.0577e+02	9.4201	16.606948	0.000180	1.801571	0.305194	-0.000018
1065	1.0587e+02	9.4100	16.580471	0.000266	2.661412	0.450855	-0.000027
1066	1.0597e+02	9.3978	16.561733	0.000188	1.883461	0.319067	-0.000019
1067	1.0607e+02	9.3876	16.540552	0.000213	2.129130	0.360684	-0.000021
1068	1.0617e+02	9.3786	16.516926	0.000237	2.374798	0.402302	-0.000024
1069	1.0627e+02	9.3716	16.495744	0.000213	2.129130	0.360684	-0.000021
1070	1.0637e+02	9.3574	16.472525	0.000233	2.333854	0.395365	-0.000023
1071	1.0647e+02	9.3506	16.452566	0.000201	2.006295	0.339876	-0.000020
1072	1.0656e+02	9.3401	16.426088	0.000266	2.661412	0.450855	-0.000027
1073	1.0666e+02	9.3281	16.404907	0.000213	2.129130	0.360684	-0.000021
1074	1.0676e+02	9.3201	16.379651	0.000254	2.538578	0.430047	-0.000025
1075	1.0686e+02	9.3122	16.362136	0.000176	1.760626	0.298258	-0.000018
1076	1.0696e+02	9.2971	16.340546	0.000217	2.170074	0.367621	-0.000022
1077	1.0706e+02	9.2908	16.318143	0.000225	2.251964	0.381493	-0.000023
1078	1.0716e+02	9.2776	16.292887	0.000254	2.538578	0.430047	-0.000025
1079	1.0726e+02	9.2712	16.272113	0.000209	2.088185	0.353748	-0.000021
1080	1.0736e+02	9.2593	16.248487	0.000237	2.374798	0.402302	-0.000024
1081	1.0746e+02	9.2469	16.227305	0.000213	2.129130	0.360684	-0.000021
1082	1.0756e+02	9.2391	16.202457	0.000250	2.497633	0.423110	-0.000025
1083	1.0766e+02	9.2319	16.181276	0.000213	2.129130	0.360684	-0.000021
1084	1.0776e+02	9.2198	16.158872	0.000225	2.251964	0.381493	-0.000023
1085	1.0786e+02	9.2129	16.136060	0.000229	2.292909	0.388429	-0.000023
1086	1.0796e+02	9.1994	16.112435	0.000237	2.374798	0.402302	-0.000024
1087	1.0806e+02	9.1886	16.091253	0.000213	2.129130	0.360684	-0.000021
1088	1.0816e+02	9.1766	16.067220	0.000242	2.415743	0.409238	-0.000024
1089	1.0826e+02	9.1706	16.044001	0.000233	2.333854	0.395365	-0.000023
1090	1.0836e+02	9.1608	16.024449	0.000197	1.965350	0.332939	-0.000020
1091	1.0845e+02	9.1494	16.000008	0.000246	2.456688	0.416174	-0.000025
1092	1.0855e+02	9.1402	15.978419	0.000217	2.170074	0.367621	-0.000022
1093	1.0865e+02	9.1309	15.954386	0.000242	2.415743	0.409238	-0.000024
1094	1.0875e+02	9.1199	15.931982	0.000225	2.251964	0.381493	-0.000023
1095	1.0885e+02	9.1117	15.907949	0.000242	2.415743	0.409238	-0.000024
1096	1.0895e+02	9.0992	15.885137	0.000229	2.292909	0.388429	-0.000023
1097	1.0905e+02	9.0918	15.857846	0.000274	2.743302	0.464728	-0.000027
1098	1.0915e+02	9.0807	15.833405	0.000246	2.456688	0.416174	-0.000025
1099	1.0925e+02	9.0699	15.810186	0.000233	2.333854	0.395365	-0.000023
1100	1.0935e+02	9.0612	15.788190	0.000221	2.211019	0.374557	-0.000022
1101	1.0945e+02	9.0517	15.765379	0.000229	2.292909	0.388429	-0.000023
1102	1.0955e+02	9.0410	15.745419	0.000201	2.006295	0.339876	-0.000020
1103	1.0965e+02	9.0284	15.719349	0.000262	2.620467	0.443919	-0.000026
1104	1.0975e+02	9.0228	15.695316	0.000242	2.415743	0.409238	-0.000024
1105	1.0985e+02	9.0121	15.673319	0.000221	2.211019	0.374557	-0.000022
1106	1.0995e+02	9.0039	15.652138	0.000213	2.129130	0.360684	-0.000021
1107	1.1005e+02	8.9887	15.626882	0.000254	2.538578	0.430047	-0.000025
1108	1.1015e+02	8.9801	15.600812	0.000262	2.620467	0.443919	-0.000026
1109	1.1025e+02	8.9698	15.580853	0.000201	2.006295	0.339876	-0.000020
1110	1.1035e+02	8.9648	15.553153	0.000278	2.784246	0.471664	-0.000028
1111	1.1044e+02	8.9526	15.530749	0.000225	2.251964	0.381493	-0.000023
1112	1.1054e+02	8.9405	15.507531	0.000233	2.333854	0.395365	-0.000023
1113	1.1064e+02	8.9293	15.484312	0.000233	2.333854	0.395365	-0.000023
1114	1.1074e+02	8.9190	15.461909	0.000225	2.251964	0.381493	-0.000023
1115	1.1084e+02	8.9111	15.437468	0.000246	2.456688	0.416174	-0.000025
1116	1.1094e+02	8.9030	15.409769	0.000278	2.784246	0.471664	-0.000028
1117	1.1104e+02	8.8931	15.391846	0.000180	1.801571	0.305194	-0.000018
1118	1.1114e+02	8.8818	15.367812	0.000242	2.415743	0.409238	-0.000024
1119	1.1124e+02	8.8703	15.343372	0.000246	2.456688	0.416174	-0.000025
1120	1.1134e+02	8.8613	15.323819	0.000197	1.965350	0.332939	-0.000020
1121	1.1144e+02	8.8538	15.301416	0.000225	2.251964	0.381493	-0.000023
1122	1.1154e+02	8.8415	15.279419	0.000221	2.211019	0.374557	-0.000022
1123	1.1164e+02	8.8335	15.252534	0.000270	2.702357	0.457792	-0.000027
1124	1.1174e+02	8.8209	15.232982	0.000197	1.965350	0.332939	-0.000020
1125	1.1184e+02	8.8140	15.208134	0.000250	2.497633	0.423110	-0.000025
1126	1.1194e+02	8.8026	15.181250	0.000270	2.702357	0.457792	-0.000027
1127	1.1204e+02	8.7935	15.160068	0.000213	2.129130	0.360684	-0.000021
1128	1.1214e+02	8.7832	15.135220	0.000250	2.497633	0.423110	-0.000025
1129	1.1224e+02	8.7733	15.109557	0.000258	2.579522	0.436983	-0.000026
1130	1.1234e+02	8.7618	15.090412	0.000192	1.924406	0.326003	-0.000019
1131	1.1244e+02	8.7507	15.064342	0.000262	2.620467	0.443919	-0.000026
1132	1.1253e+02	8.7436	15.038272	0.000262	2.620467	0.443919	-0.000026
1133	1.1263e+02	8.7342	15.015054	0.000233	2.333854	0.395365	-0.000023
1134	1.1273e+02	8.7244	14.989799	0.000254	2.538578	0.430047	-0.000025
1135	1.1283e+02	8.7138	14.964951	0.000250	2.497633	0.423110	-0.000025
1136	1.1293e+02	8.7051	14.939288	0.000258	2.579522	0.436983	-0.000026
1137	1.1303e+02	8.6930	14.912811	0.000266	2.661412	0.450855	-0.000027
1138	1.1313e+02	8.6845	14.885926	0.000270	2.702357	0.457792	-0.000027
1139	1.1323e+02	8.6735	14.861893	0.000242	2.415743	0.409238	-0.000024
1140	1.1333e+02	8.6627	14.831750	0.000303	3.029915	0.513282	-0.000030
1141	1.1343e+02	8.6534	14.807716	0.000242	2.415743	0.409238	-0.000024
1142	1.1353e+02	8.6442	14.779202	0.000287	2.866136	0.485537	-0.000029
1143	1.1363e+02	8.6384	14.753947	0.000254	2.538578	0.430047	-0.000025
1144	1.1373e+02	8.6219	14.726248	0.000278	2.784246	0.471664	-0.000028
1145	1.1383e+02	8.6166	14.702622	0.000237	2.374798	0.402302	-0.000024
1146	1.1393e+02	8.6042	14.674108	0.000287	2.866136	0.485537	-0.000029
1147	1.1403e+02	8.5939	14.653741	0.000205	2.047240	0.346812	-0.000020
1148	1.1413e+02	8.5837	14.629300	0.000246	2.456688	0.416174	-0.000025
1149	1.1423e+02	8.5728	14.607304	0.000221	2.211019	0.374557	-0.000022
1150	1.1433e+02	8.5639	14.580827	0.000266	2.661412	0.450855	-0.000027
1151	1.1442e+02	8.5516	14.555571	0.000254	2.538578	0.430047	-0.000025
1152	1.1452e+02	8.5427	14.529909	0.000258	2.579522	0.436983	-0.000026
1153	1.1462e+02	8.5329	14.506690	0.000233	2.333854	0.395365	-0.000023
1154	1.1472e+02	8.5273	14.478584	0.000283	2.825191	0.478600	-0.000028
1155	1.1482e+02	8.5157	14.454958	0.000237	2.374798	0.402302	-0.000024
1156	1.1492e+02	8.5059	14.429295	0.000258	2.579522	0.436983	-0.000026
1157	1.1502e+02	8.4912	14.405669	0.000237	2.374798	0.402302	-0.000024
1158	1.1512e+02	8.4815	14.377155	0.000287	2.866136	0.485537	-0.000029
1159	1.1522e+02	8.4760	14.354344	0.000229	2.292909	0.388429	-0.000023
1160	1.1532e+02	8.4635	14.326645	0.000278	2.784246	0.471664	-0.000028
1161	1.1542e+02	8.4515	14.300982	0.000258	2.579522	0.436983	-0.000026
1162	1.1552e+02	8.4437	14.277356	0.000237	2.374798	0.402302	-0.000024
1163	1.1562e+02	8.4341	14.253323	0.000242	2.415743	0.409238	-0.000024
1164	1.1572e+02	8.4241	14.224809	0.000287	2.866136	0.485537	-0.000029
1165	1.1582e+02	8.4172	14.199554	0.000254	2.538578	0.430047	-0.000025
1166	1.1592e+02	8.4033	14.172669	0.000270	2.702357	0.457792	-0.000027
1167	1.1602e+02	8.3962	14.149044	0.000237	2.374798	0.402302	-0.000024
1168	1.1612e+02	8.3846	14.122974	0.000262	2.620467	0.443919	-0.000026
1169	1.1622e+02	8.3761	14.100977	0.000221	2.211019	0.374557	-0.000022
1170	1.1632e+02	8.3636	14.074500	0.000266	2.661412	0.450855	-0.000027
1171	1.1642e+02	8.3546	14.047208	0.000274	2.743302	0.464728	-0.000027
1172	1.1651e+02	8.3442	14.021138	0.000262	2.620467	0.443919	-0.000026
1173	1.1661e+02	8.3363	13.995068	0.000262	2.620467	0.443919	-0.000026
1174	1.1671e+02	8.3225	13.966147	0.000291	2.907081	0.492473	-0.000029
1175	1.1681e+02	8.3147	13.945780	0.000205	2.047240	0.346812	-0.000020
1176	1.1691e+02	8.3057	13.914414	0.000315	3.152750	0.534090	-0.000032
1177	1.1701e+02	8.2952	13.891603	0.000229	2.292909	0.388429	-0.000023
1178	1.1711e+02	8.2838	13.870014	0.000217	2.170074	0.367621	-0.000022
1179	1.1721e+02	8.2764	13.843944	0.000262	2.620467	0.443919	-0.000026
1180	1.1731e+02	8.2673	13.819096	0.000250	2.497633	0.423110	-0.000025
1181	1.1741e+02	8.2540	13.793433	0.000258	2.579522	0.436983	-0.000026
1182	1.1751e+02	8.2458	13.768178	0.000254	2.538578	0.430047	-0.000025
1183	1.1761e+02	8.2380	13.743738	0.000246	2.456688	0.416174	-0.000025
1184	1.1771e+02	8.2259	13.716446	0.000274	2.743302	0.464728	-0.000027
1185	1.1781e+02	8.2152	13.685895	0.000307	3.070860	0.520218	-0.000031
1186	1.1791e+02	8.2084	13.667565	0.000184	1.842516	0.312131	-0.000018
1187	1.1801e+02	8.1937	13.640273	0.000274	2.743302	0.464728	-0.000027
1188	1.1811e+02	8.1853	13.611759	0.000287	2.866136	0.485537	-0.000029
1189	1.1821e+02	8.1765	13.588133	0.000237	2.374798	0.402302	-0.000024
1190	1.1831e+02	8.1660	13.564914	0.000233	2.333854	0.395365	-0.000023
1191	1.1841e+02	8.1580	13.536808	0.000283	2.825191	0.478600	-0.000028
1192	1.1850e+02	8.1463	13.511145	0.000258	2.579522	0.436983	-0.000026
1193	1.1860e+02	8.1351	13.485075	0.000262	2.620467	0.443919	-0.000026
1194	1.1870e+02	8.1264	13.461449	0.000237	2.374798	0.402302	-0.000024
1195	1.1880e+02	8.1155	13.437416	0.000242	2.415743	0.409238	-0.000024
1196	1.1890e+02	8.1055	13.408087	0.000295	2.948026	0.499409	-0.000029
1197	1.1900e+02	8.0959	13.381610	0.000266	2.661412	0.450855	-0.000027
1198	1.1910e+02	8.0849	13.355948	0.000258	2.579522	0.436983	-0.000026
1199	1.1920e+02	8.0755	13.333544	0.000225	2.251964	0.381493	-0.000023
1200	1.1930e+02	8.0648	13.302993	0.000307	3.070860	0.520218	-0.000031
1201	1.1940e+02	8.0548	13.276516	0.000266	2.661412	0.450855	-0.000027
1202	1.1950e+02	8.0477	13.250446	0.000262	2.620467	0.443919	-0.000026
1203	1.1960e+02	8.0389	13.219895	0.000307	3.070860	0.520218	-0.000031
1204	1.1970e+02	8.0260	13.192196	0.000278	2.784246	0.471664	-0.000028
1205	1.1980e+02	8.0141	13.166941	0.000254	2.538578	0.430047	-0.000025
1206	1.1990e+02	8.0085	13.133131	0.000340	3.398418	0.575708	-0.000034
1207	1.2000e+02	7.9952	13.109098	0.000242	2.415743	0.409238	-0.000024
1208	1.2010e+02	7.9829	13.085879	0.000233	2.333854	0.395365	-0.000023
1209	1.2020e+02	7.9768	13.060624	0.000254	2.538578	0.430047	-0.000025
1210	1.2030e+02	7.9639	13.038628	0.000221	2.211019	0.374557	-0.000022
1211	1.2039e+02	7.9562	13.009706	0.000291	2.907081	0.492473	-0.000029
1212	1.2049e+02	7.9456	12.978748	0.000311	3.111805	0.527154	-0.000031
1213	1.2059e+02	7.9378	12.955937	0.000229	2.292909	0.388429	-0.000023
1214	1.2069e+02	7.9297	12.929867	0.000262	2.620467	0.443919	-0.000026
1215	1.2079e+02	7.9188	12.905834	0.000242	2.415743	0.409238	-0.000024
1216	1.2089e+02	7.9115	12.878135	0.000278	2.784246	0.471664	-0.000028
1217	1.2099e+02	7.8987	12.851657	0.000266	2.661412	0.450855	-0.000027
1218	1.2109e+02	7.8860	12.823144	0.000287	2.866136	0.485537	-0.000029
1219	1.2119e+02	7.8776	12.796259	0.000270	2.702357	0.457792	-0.000027
1220	1.2129e+02	7.8667	12.775484	0.000209	2.088185	0.353748	-0.000021
1221	1.2139e+02	7.8577	12.748600	0.000270	2.702357	0.457792	-0.000027
1222	1.2149e+02	7.8454	12.727011	0.000217	2.170074	0.367621	-0.000022
1223	1.2159e+02	7.8371	12.700941	0.000262	2.620467	0.443919	-0.000026
1224	1.2169e+02	7.8283	12.676908	0.000242	2.415743	0.409238	-0.000024
1225	1.2179e+02	7.8178	12.652467	0.000246	2.456688	0.416174	-0.000025
1226	1.2189e+02	7.8072	12.627212	0.000254	2.538578	0.430047	-0.000025
1227	1.2199e+02	7.7982	12.599920	0.000274	2.743302	0.464728	-0.000027
1228	1.2209e+02	7.7882	12.576294	0.000237	2.374798	0.402302	-0.000024
1229	1.2219e+02	7.7766	12.551853	0.000246	2.456688	0.416174	-0.000025
1230	1.2229e+02	7.7646	12.526598	0.000254	2.538578	0.430047	-0.000025
1231	1.2239e+02	7.7596	12.500936	0.000258	2.579522	0.436983	-0.000026
1232	1.2248e+02	7.7480	12.473236	0.000278	2.784246	0.471664	-0.000028
1233	1.2258e+02	7.7364	12.447166	0.000262	2.620467	0.443919	-0.000026
1234	1.2268e+02	7.7262	12.421504	0.000258	2.579522	0.436983	-0.000026
1235	1.2278e+02	7.7194	12.395841	0.000258	2.579522	0.436983	-0.000026
1236	1.2288e+02	7.7056	12.370179	0.000258	2.579522	0.436983	-0.000026
1237	1.2298e+02	7.6975	12.342072	0.000283	2.825191	0.478600	-0.000028
1238	1.2308e+02	7.6908	12.317631	0.000246	2.456688	0.416174	-0.000025
1239	1.2318e+02	7.6761	12.287488	0.000303	3.029915	0.513282	-0.000030
1240	1.2328e+02	7.6671	12.259789	0.000278	2.784246	0.471664	-0.000028
1241	1.2338e+02	7.6568	12.238200	0.000217	2.170074	0.367621	-0.000022
1242	1.2348e+02	7.6453	12.208056	0.000303	3.029915	0.513282	-0.000030
1243	1.2358e+02	7.6397	12.184023	0.000242	2.415743	0.409238	-0.000024
1244	1.2368e+02	7.6258	12.156731	0.000274	2.743302	0.464728	-0.000027
1245	1.2378e+02	7.6196	12.131069	0.000258	2.579522	0.436983	-0.000026
1246	1.2388e+02	7.6102	12.101333	0.000299	2.988970	0.506345	-0.000030
1247	1.2398e+02	7.5977	12.079336	0.000221	2.211019	0.374557	-0.000022
1248	1.2408e+02	7.5879	12.049600	0.000299	2.988970	0.506345	-0.000030
1249	1.2418e+02	7.5776	12.020679	0.000291	2.907081	0.492473	-0.000029
1250	1.2428e+02	7.5692	11.997460	0.000233	2.333854	0.395365	-0.000023
1251	1.2438e+02	7.5570	11.969354	0.000283	2.825191	0.478600	-0.000028
1252	1.2447e+02	7.5477	11.941654	0.000278	2.784246	0.471664	-0.000028
1253	1.2457e+02	7.5399	11.918028	0.000237	2.374798	0.402302	-0.000024
1254	1.2467e+02	7.5306	11.892366	0.000258	2.579522	0.436983	-0.000026
1255	1.2477e+02	7.5203	11.866296	0.000262	2.620467	0.443919	-0.000026
1256	1.2487e+02	7.5073	11.839411	0.000270	2.702357	0.457792	-0.000027
1257	1.2497e+02	7.4982	11.810083	0.000295	2.948026	0.499409	-0.000029
1258	1.2507e+02	7.4895	11.789308	0.000209	2.088185	0.353748	-0.000021
1259	1.2517e+02	7.4805	11.763238	0.000262	2.620467	0.443919	-0.000026
1260	1.2527e+02	7.4722	11.733095	0.000303	3.029915	0.513282	-0.000030
1261	1.2537e+02	7.4577	11.705803	0.000274	2.743302	0.464728	-0.000027
1262	1.2547e+02	7.4512	11.680548	0.000254	2.538578	0.430047	-0.000025
1263	1.2557e+02	7.4386	11.652034	0.000287	2.866136	0.485537	-0.000029
1264	1.2567e+02	7.4328	11.623520	0.000287	2.866136	0.485537	-0.000029
1265	1.2577e+02	7.4195	11.594191	0.000295	2.948026	0.499409	-0.000029
1266	1.2587e+02	7.4117	11.568936	0.000254	2.538578	0.430047	-0.000025
1267	1.2597e+02	7.3985	11.542459	0.000266	2.661412	0.450855	-0.000027
1268	1.2607e+02	7.3893	11.515574	0.000270	2.702357	0.457792	-0.000027
1269	1.2617e+02	7.3815	11.489911	0.000258	2.579522	0.436983	-0.000026
1270	1.2627e+02	7.3739	11.462619	0.000274	2.743302	0.464728	-0.000027
1271	1.2636e+02	7.3591	11.439808	0.000229	2.292909	0.388429	-0.000023
1272	1.2646e+02	7.3486	11.409258	0.000307	3.070860	0.520218	-0.000031
1273	1.2656e+02	7.3412	11.380336	0.000291	2.907081	0.492473	-0.000029
1274	1.2666e+02	7.3286	11.352637	0.000278	2.784246	0.471664	-0.000028
1275	1.2676e+02	7.3208	11.325345	0.000274	2.743302	0.464728	-0.000027
1276	1.2686e+02	7.3098	11.296831	0.000287	2.866136	0.485537	-0.000029
1277	1.2696e+02	7.3000	11.269946	0.000270	2.702357	0.457792	-0.000027
1278	1.2706e+02	7.2878	11.243876	0.000262	2.620467	0.443919	-0.000026
1279	1.2716e+02	7.2813	11.213733	0.000303	3.029915	0.513282	-0.000030
1280	1.2726e+02	7.2692	11.184404	0.000295	2.948026	0.499409	-0.000029
1281	1.2736e+02	7.2594	11.158335	0.000262	2.620467	0.443919	-0.000026
1282	1.2746e+02	7.2491	11.135523	0.000229	2.292909	0.388429	-0.000023
1283	1.2756e+02	7.2417	11.105787	0.000299	2.988970	0.506345	-0.000030
1284	1.2766e+02	7.2305	11.076459	0.000295	2.948026	0.499409	-0.000029
1285	1.2776e+02	7.2240	11.055277	0.000213	2.129130	0.360684	-0.000021
1286	1.2786e+02	7.2125	11.029614	0.000258	2.579522	0.436983	-0.000026
1287	1.2796e+02	7.1989	11.002322	0.000274	2.743302	0.464728	-0.000027
1288	1.2806e+02	7.1909	10.976660	0.000258	2.579522	0.436983	-0.000026
1289	1.2816e+02	7.1813	10.950997	0.000258	2.579522	0.436983	-0.000026
1290	1.2826e+02	7.1707	10.926557	0.000246	2.456688	0.416174	-0.000025
1291	1.2835e+02	7.1609	10.900079	0.000266	2.661412	0.450855	-0.000027
1292	1.2845e+02	7.1505	10.870751	0.000295	2.948026	0.499409	-0.000029
1293	1.2855e+02	7.1418	10.843051	0.000278	2.784246	0.471664	-0.000028
1294	1.2865e+02	7.1304	10.813723	0.000295	2.948026	0.499409	-0.000029
1295	1.2875e+02	7.1214	10.785209	0.000287	2.866136	0.485537	-0.000029
1296	1.2885e+02	7.1128	10.756287	0.000291	2.907081	0.492473	-0.000029
1297	1.2895e+02	7.1009	10.731440	0.000250	2.497633	0.423110	-0.000025
1298	1.2905e+02	7.0911	10.701704	0.000299	2.988970	0.506345	-0.000030
1299	1.2915e+02	7.0779	10.671968	0.000299	2.988970	0.506345	-0.000030
1300	1.2925e+02	7.0731	10.647934	0.000242	2.415743	0.409238	-0.000024
1301	1.2935e+02	7.0616	10.622272	0.000258	2.579522	0.436983	-0.000026
1302	1.2945e+02	7.0533	10.593758	0.000287	2.866136	0.485537	-0.000029
1303	1.2955e+02	7.0415	10.564429	0.000295	2.948026	0.499409	-0.000029
1304	1.2965e+02	7.0332	10.532249	0.000323	3.234639	0.547963	-0.000032
1305	1.2975e+02	7.0200	10.502920	0.000295	2.948026	0.499409	-0.000029
1306	1.2985e+02	7.0101	10.474406	0.000287	2.866136	0.485537	-0.000029
1307	1.2995e+02	7.0037	10.441412	0.000332	3.316529	0.561835	-0.000033
1308	1.3005e+02	6.9912	10.413305	0.000283	2.825191	0.478600	-0.000028
1309	1.3015e+02	6.9840	10.383976	0.000295	2.948026	0.499409	-0.000029
1310	1.3025e+02	6.9703	10.354240	0.000299	2.988970	0.506345	-0.000030
1311	1.3034e+02	6.9595	10.320431	0.000340	3.398418	0.575708	-0.000034
1312	1.3044e+02	6.9509	10.293546	0.000270	2.702357	0.457792	-0.000027
1313	1.3054e+02	6.9421	10.265440	0.000283	2.825191	0.478600	-0.000028
1314	1.3064e+02	6.9320	10.235296	0.000303	3.029915	0.513282	-0.000030
1315	1.3074e+02	6.9239	10.208819	0.000266	2.661412	0.450855	-0.000027
1316	1.3084e+02	6.9118	10.183564	0.000254	2.538578	0.430047	-0.000025
1317	1.3094e+02	6.9012	10.152606	0.000311	3.111805	0.527154	-0.000031
1318	1.3104e+02	6.8914	10.122462	0.000303	3.029915	0.513282	-0.000030
1319	1.3114e+02	6.8829	10.095578	0.000270	2.702357	0.457792	-0.000027
1320	1.3124e+02	6.8713	10.068693	0.000270	2.702357	0.457792	-0.000027
1321	1.3134e+02	6.8639	10.043031	0.000258	2.579522	0.436983	-0.000026
1322	1.3144e+02	6.8496	10.010851	0.000323	3.234639	0.547963	-0.000032
1323	1.3154e+02	6.8428	9.985188	0.000258	2.579522	0.436983	-0.000026
1324	1.3164e+02	6.8307	9.955045	0.000303	3.029915	0.513282	-0.000030
1325	1.3174e+02	6.8188	9.929382	0.000258	2.579522	0.436983	-0.000026
1326	1.3184e+02	6.8127	9.897609	0.000319	3.193694	0.541026	-0.000032
1327	1.3194e+02	6.8041	9.870725	0.000270	2.702357	0.457792	-0.000027
1328	1.3204e+02	6.7942	9.843840	0.000270	2.702357	0.457792	-0.000027
1329	1.3214e+02	6.7827	9.812475	0.000315	3.152750	0.534090	-0.000032
1330	1.3224e+02	6.7725	9.782331	0.000303	3.029915	0.513282	-0.000030
1331	1.3234e+02	6.7638	9.756669	0.000258	2.579522	0.436983	-0.000026
1332	1.3243e+02	6.7532	9.724081	0.000328	3.275584	0.554899	-0.000033
1333	1.3253e+02	6.7416	9.697604	0.000266	2.661412	0.450855	-0.000027
1334	1.3263e+02	6.7345	9.671127	0.000266	2.661412	0.450855	-0.000027
1335	1.3273e+02	6.7214	9.639761	0.000315	3.152750	0.534090	-0.000032
1336	1.3283e+02	6.7138	9.610025	0.000299	2.988970	0.506345	-0.000030
1337	1.3293e+02	6.7033	9.583956	0.000262	2.620467	0.443919	-0.000026
1338	1.3303e+02	6.6944	9.553405	0.000307	3.070860	0.520218	-0.000031
1339	1.3313e+02	6.6841	9.522854	0.000307	3.070860	0.520218	-0.000031
1340	1.3323e+02	6.6721	9.492711	0.000303	3.029915	0.513282	-0.000030
1341	1.3333e+02	6.6618	9.463382	0.000295	2.948026	0.499409	-0.000029
1342	1.3343e+02	6.6541	9.432424	0.000311	3.111805	0.527154	-0.000031
1343	1.3353e+02	6.6442	9.405947	0.000266	2.661412	0.450855	-0.000027
1344	1.3363e+02	6.6355	9.377433	0.000287	2.866136	0.485537	-0.000029
1345	1.3373e+02	6.6232	9.347697	0.000299	2.988970	0.506345	-0.000030
1346	1.3383e+02	6.6125	9.320405	0.000274	2.743302	0.464728	-0.000027
1347	1.3393e+02	6.6039	9.290262	0.000303	3.029915	0.513282	-0.000030
1348	1.3403e+02	6.5954	9.262562	0.000278	2.784246	0.471664	-0.000028
1349	1.3413e+02	6.5827	9.233234	0.000295	2.948026	0.499409	-0.000029
1350	1.3423e+02	6.5755	9.210015	0.000233	2.333854	0.395365	-0.000023
1351	1.3432e+02	6.5624	9.177835	0.000323	3.234639	0.547963	-0.000032
1352	1.3442e+02	6.5529	9.148914	0.000291	2.907081	0.492473	-0.000029
1353	1.3452e+02	6.5398	9.120400	0.000287	2.866136	0.485537	-0.000029
1354	1.3462e+02	6.5340	9.089442	0.000311	3.111805	0.527154	-0.000031
1355	1.3472e+02	6.5229	9.062557	0.000270	2.702357	0.457792	-0.000027
1356	1.3482e+02	6.5176	9.031599	0.000311	3.111805	0.527154	-0.000031
1357	1.3492e+02	6.5043	9.003085	0.000287	2.866136	0.485537	-0.000029
1358	1.3502e+02	6.4936	8.972942	0.000303	3.029915	0.513282	-0.000030
1359	1.3512e+02	6.4860	8.943206	0.000299	2.988970	0.506345	-0.000030
1360	1.3522e+02	6.4715	8.919987	0.000233	2.333854	0.395365	-0.000023
1361	1.3532e+02	6.4651	8.886585	0.000336	3.357474	0.568771	-0.000034
1362	1.3542e+02	6.4544	8.862145	0.000246	2.456688	0.416174	-0.000025
1363	1.3552e+02	6.4446	8.830779	0.000315	3.152750	0.534090	-0.000032
1364	1.3562e+02	6.4336	8.803895	0.000270	2.702357	0.457792	-0.000027
1365	1.3572e+02	6.4245	8.772529	0.000315	3.152750	0.534090	-0.000032
1366	1.3582e+02	6.4141	8.741571	0.000311	3.111805	0.527154	-0.000031
1367	1.3592e+02	6.4056	8.713057	0.000287	2.866136	0.485537	-0.000029
1368	1.3602e+02	6.3944	8.681284	0.000319	3.193694	0.541026	-0.000032
1369	1.3612e+02	6.3835	8.650734	0.000307	3.070860	0.520218	-0.000031
1370	1.3622e+02	6.3738	8.617739	0.000332	3.316529	0.561835	-0.000033
1371	1.3631e+02	6.3628	8.585559	0.000323	3.234639	0.547963	-0.000032
1372	1.3641e+02	6.3552	8.554601	0.000311	3.111805	0.527154	-0.000031
1373	1.3651e+02	6.3439	8.522421	0.000323	3.234639	0.547963	-0.000032
1374	1.3661e+02	6.3317	8.494314	0.000283	2.825191	0.478600	-0.000028
1375	1.3671e+02	6.3247	8.467022	0.000274	2.743302	0.464728	-0.000027
1376	1.3681e+02	6.3137	8.437694	0.000295	2.948026	0.499409	-0.000029
1377	1.3691e+02	6.3033	8.407958	0.000299	2.988970	0.506345	-0.000030
1378	1.3701e+02	6.2930	8.379851	0.000283	2.825191	0.478600	-0.000028
1379	1.3711e+02	6.2864	8.352966	0.000270	2.702357	0.457792	-0.000027
1380	1.3721e+02	6.2760	8.323230	0.000299	2.988970	0.506345	-0.000030
1381	1.3731e+02	6.2633	8.293087	0.000303	3.029915	0.513282	-0.000030
1382	1.3741e+02	6.2533	8.262129	0.000311	3.111805	0.527154	-0.000031
1383	1.3751e+02	6.2447	8.236059	0.000262	2.620467	0.443919	-0.000026
1384	1.3761e+02	6.2371	8.203472	0.000328	3.275584	0.554899	-0.000033
1385	1.3771e+02	6.2264	8.173328	0.000303	3.029915	0.513282	-0.000030
1386	1.3781e+02	6.2165	8.145222	0.000283	2.825191	0.478600	-0.000028
1387	1.3791e+02	6.2064	8.116300	0.000291	2.907081	0.492473	-0.000029
1388	1.3801e+02	6.1973	8.089416	0.000270	2.702357	0.457792	-0.000027
1389	1.3811e+02	6.1855	8.062531	0.000270	2.702357	0.457792	-0.000027
1390	1.3821e+02	6.1761	8.032388	0.000303	3.029915	0.513282	-0.000030
1391	1.3831e+02	6.1671	8.006725	0.000258	2.579522	0.436983	-0.000026
1392	1.3840e+02	6.1596	7.978619	0.000283	2.825191	0.478600	-0.000028
1393	1.3850e+02	6.1448	7.946438	0.000323	3.234639	0.547963	-0.000032
1394	1.3860e+02	6.1343	7.919147	0.000274	2.743302	0.464728	-0.000027
1395	1.3870e+02	6.1259	7.893077	0.000262	2.620467	0.443919	-0.000026
1396	1.3880e+02	6.1166	7.865785	0.000274	2.743302	0.464728	-0.000027
1397	1.3890e+02	6.1063	7.832383	0.000336	3.357474	0.568771	-0.000034
1398	1.3900e+02	6.0956	7.804276	0.000283	2.825191	0.478600	-0.000028
1399	1.3910e+02	6.0862	7.776169	0.000283	2.825191	0.478600	-0.000028
1400	1.3920e+02	6.0753	7.748063	0.000283	2.825191	0.478600	-0.000028
1401	1.3930e+02	6.0658	7.716290	0.000319	3.193694	0.541026	-0.000032
1402	1.3940e+02	6.0564	7.686554	0.000299	2.988970	0.506345	-0.000030
1403	1.3950e+02	6.0450	7.656818	0.000299	2.988970	0.506345	-0.000030
1404	1.3960e+02	6.0360	7.625045	0.000319	3.193694	0.541026	-0.000032
1405	1.3970e+02	6.0307	7.600197	0.000250	2.497633	0.423110	-0.000025
1406	1.3980e+02	6.0168	7.568425	0.000319	3.193694	0.541026	-0.000032
1407	1.3990e+02	6.0052	7.539503	0.000291	2.907081	0.492473	-0.000029
1408	1.4000e+02	5.9945	7.512211	0.000274	2.743302	0.464728	-0.000027
1409	1.4010e+02	5.9869	7.481661	0.000307	3.070860	0.520218	-0.000031
1410	1.4020e+02	5.9750	7.448259	0.000336	3.357474	0.568771	-0.000034
1411	1.4029e+02	5.9666	7.418930	0.000295	2.948026	0.499409	-0.000029
1412	1.4039e+02	5.9557	7.387565	0.000315	3.152750	0.534090	-0.000032
1413	1.4049e+02	5.9451	7.358643	0.000291	2.907081	0.492473	-0.000029
1414	1.4059e+02	5.9368	7.328907	0.000299	2.988970	0.506345	-0.000030
1415	1.4069e+02	5.9261	7.301208	0.000278	2.784246	0.471664	-0.000028
1416	1.4079e+02	5.9180	7.267806	0.000336	3.357474	0.568771	-0.000034
1417	1.4089e+02	5.9093	7.239699	0.000283	2.825191	0.478600	-0.000028
1418	1.4099e+02	5.9003	7.209963	0.000299	2.988970	0.506345	-0.000030
1419	1.4109e+02	5.8868	7.176561	0.000336	3.357474	0.568771	-0.000034
1420	1.4119e+02	5.8755	7.148047	0.000287	2.866136	0.485537	-0.000029
1421	1.4129e+02	5.8644	7.119533	0.000287	2.866136	0.485537	-0.000029
1422	1.4139e+02	5.8578	7.089797	0.000299	2.988970	0.506345	-0.000030
1423	1.4149e+02	5.8483	7.063320	0.000266	2.661412	0.450855	-0.000027
1424	1.4159e+02	5.8389	7.031954	0.000315	3.152750	0.534090	-0.000032
1425	1.4169e+02	5.8294	6.999367	0.000328	3.275584	0.554899	-0.000033
1426	1.4179e+02	5.8158	6.969224	0.000303	3.029915	0.513282	-0.000030
1427	1.4189e+02	5.8111	6.939895	0.000295	2.948026	0.499409	-0.000029
1428	1.4199e+02	5.7987	6.910159	0.000299	2.988970	0.506345	-0.000030
1429	1.4209e+02	5.7879	6.878386	0.000319	3.193694	0.541026	-0.000032
1430	1.4219e+02	5.7781	6.849872	0.000287	2.866136	0.485537	-0.000029
1431	1.4228e+02	5.7684	6.816063	0.000340	3.398418	0.575708	-0.000034
1432	1.4238e+02	5.7583	6.786734	0.000295	2.948026	0.499409	-0.000029
1433	1.4248e+02	5.7473	6.755369	0.000315	3.152750	0.534090	-0.000032
1434	1.4258e+02	5.7384	6.726040	0.000295	2.948026	0.499409	-0.000029
1435	1.4268e+02	5.7284	6.693860	0.000323	3.234639	0.547963	-0.000032
1436	1.4278e+02	5.7203	6.664124	0.000299	2.988970	0.506345	-0.000030
1437	1.4288e+02	5.7101	6.633981	0.000303	3.029915	0.513282	-0.000030
1438	1.4298e+02	5.6966	6.601801	0.000323	3.234639	0.547963	-0.000032
1439	1.4308e+02	5.6908	6.572879	0.000291	2.907081	0.492473	-0.000029
1440	1.4318e+02	5.6768	6.544773	0.000283	2.825191	0.478600	-0.000028
1441	1.4328e+02	5.6672	6.512593	0.000323	3.234639	0.547963	-0.000032
1442	1.4338e+02	5.6597	6.482449	0.000303	3.029915	0.513282	-0.000030
1443	1.4348e+02	5.6524	6.451491	0.000311	3.111805	0.527154	-0.000031
1444	1.4358e+02	5.6390	6.417682	0.000340	3.398418	0.575708	-0.000034
1445	1.4368e+02	5.6298	6.385094	0.000328	3.275584	0.554899	-0.000033
1446	1.4378e+02	5.6165	6.354951	0.000303	3.029915	0.513282	-0.000030
1447	1.4388e+02	5.6094	6.324808	0.000303	3.029915	0.513282	-0.000030
1448	1.4398e+02	5.5982	6.294257	0.000307	3.070860	0.520218	-0.000031
1449	1.4408e+02	5.5862	6.262892	0.000315	3.152750	0.534090	-0.000032
1450	1.4418e+02	5.5790	6.232341	0.000307	3.070860	0.520218	-0.000031
1451	1.4428e+02	5.5682	6.204642	0.000278	2.784246	0.471664	-0.000028
1452	1.4437e+02	5.5596	6.174906	0.000299	2.988970	0.506345	-0.000030
1453	1.4447e+02	5.5520	6.145577	0.000295	2.948026	0.499409	-0.000029
1454	1.4457e+02	5.5431	6.117878	0.000278	2.784246	0.471664	-0.000028
1455	1.4467e+02	5.5291	6.086512	0.000315	3.152750	0.534090	-0.000032
1456	1.4477e+02	5.5190	6.055554	0.000311	3.111805	0.527154	-0.000031
1457	1.4487e+02	5.5074	6.028670	0.000270	2.702357	0.457792	-0.000027
1458	1.4497e+02	5.5022	5.997712	0.000311	3.111805	0.527154	-0.000031
1459	1.4507e+02	5.4891	5.965939	0.000319	3.193694	0.541026	-0.000032
1460	1.4517e+02	5.4765	5.932537	0.000336	3.357474	0.568771	-0.000034
1461	1.4527e+02	5.4689	5.899950	0.000328	3.275584	0.554899	-0.000033
1462	1.4537e+02	5.4586	5.871028	0.000291	2.907081	0.492473	-0.000029
1463	1.4547e+02	5.4514	5.840885	0.000303	3.029915	0.513282	-0.000030
1464	1.4557e+02	5.4400	5.809519	0.000315	3.152750	0.534090	-0.000032
1465	1.4567e+02	5.4299	5.773673	0.000360	3.603142	0.610389	-0.000036
1466	1.4577e+02	5.4192	5.749233	0.000246	2.456688	0.416174	-0.000025
1467	1.4587e+02	5.4107	5.715831	0.000336	3.357474	0.568771	-0.000034
1468	1.4597e+02	5.3996	5.686502	0.000295	2.948026	0.499409	-0.000029
1469	1.4607e+02	5.3902	5.653915	0.000328	3.275584	0.554899	-0.000033
1470	1.4617e+02	5.3811	5.622957	0.000311	3.111805	0.527154	-0.000031
1471	1.4626e+02	5.3693	5.589147	0.000340	3.398418	0.575708	-0.000034
1472	1.4636e+02	5.3564	5.554116	0.000352	3.521253	0.596516	-0.000035
1473	1.4646e+02	5.3495	5.519084	0.000352	3.521253	0.596516	-0.000035
1474	1.4656e+02	5.3405	5.488941	0.000303	3.029915	0.513282	-0.000030
1475	1.4666e+02	5.3293	5.451058	0.000381	3.807866	0.645070	-0.000038
1476	1.4676e+02	5.3205	5.420915	0.000303	3.029915	0.513282	-0.000030
1477	1.4686e+02	5.3118	5.388735	0.000323	3.234639	0.547963	-0.000032
1478	1.4696e+02	5.3036	5.354925	0.000340	3.398418	0.575708	-0.000034
1479	1.4706e+02	5.2929	5.323152	0.000319	3.193694	0.541026	-0.000032
1480	1.4716e+02	5.2805	5.289750	0.000336	3.357474	0.568771	-0.000034
1481	1.4726e+02	5.2688	5.256348	0.000336	3.357474	0.568771	-0.000034
1482	1.4736e+02	5.2589	5.226612	0.000299	2.988970	0.506345	-0.000030
1483	1.4746e+02	5.2531	5.194840	0.000319	3.193694	0.541026	-0.000032
1484	1.4756e+02	5.2409	5.161845	0.000332	3.316529	0.561835	-0.000033
1485	1.4766e+02	5.2325	5.132516	0.000295	2.948026	0.499409	-0.000029
1486	1.4776e+02	5.2213	5.096263	0.000364	3.644087	0.617325	-0.000036
1487	1.4786e+02	5.2128	5.066119	0.000303	3.029915	0.513282	-0.000030
1488	1.4796e+02	5.2058	5.034754	0.000315	3.152750	0.534090	-0.000032
1489	1.4806e+02	5.1937	5.001352	0.000336	3.357474	0.568771	-0.000034
1490	1.4816e+02	5.1780	4.969579	0.000319	3.193694	0.541026	-0.000032
1491	1.4825e+02	5.1714	4.938214	0.000315	3.152750	0.534090	-0.000032
1492	1.4835e+02	5.1591	4.903997	0.000344	3.439363	0.582644	-0.000034
1493	1.4845e+02	5.1507	4.871817	0.000323	3.234639	0.547963	-0.000032
1494	1.4855e+02	5.1440	4.836378	0.000356	3.562198	0.603453	-0.000036
1495	1.4865e+02	5.1299	4.807457	0.000291	2.907081	0.492473	-0.000029
1496	1.4875e+02	5.1215	4.773647	0.000340	3.398418	0.575708	-0.000034
1497	1.4885e+02	5.1070	4.741467	0.000323	3.234639	0.547963	-0.000032
1498	1.4895e+02	5.1026	4.708473	0.000332	3.316529	0.561835	-0.000033
1499	1.4905e+02	5.0918	4.678329	0.000303	3.029915	0.513282	-0.000030
1500	1.4915e+02	5.0817	4.646556	0.000319	3.193694	0.541026	-0.000032
1501	1.4925e+02	5.0707	4.611525	0.000352	3.521253	0.596516	-0.000035
1502	1.4935e+02	5.0611	4.580567	0.000311	3.111805	0.527154	-0.000031
1503	1.4945e+02	5.0518	4.549609	0.000311	3.111805	0.527154	-0.000031
1504	1.4955e+02	5.0402	4.518651	0.000311	3.111805	0.527154	-0.000031
1505	1.4965e+02	5.0277	4.484027	0.000348	3.480308	0.589580	-0.000035
1506	1.4975e+02	5.0211	4.453476	0.000307	3.070860	0.520218	-0.000031
1507	1.4985e+02	5.0130	4.416815	0.000369	3.685032	0.624261	-0.000037
1508	1.4995e+02	5.0017	4.385857	0.000311	3.111805	0.527154	-0.000031
1509	1.5005e+02	4.9926	4.353270	0.000328	3.275584	0.554899	-0.000033
1510	1.5015e+02	4.9829	4.323126	0.000303	3.029915	0.513282	-0.000030
1511	1.5025e+02	4.9718	4.287688	0.000356	3.562198	0.603453	-0.000036
1512	1.5034e+02	4.9621	4.253064	0.000348	3.480308	0.589580	-0.000035
1513	1.5044e+02	4.9523	4.220884	0.000323	3.234639	0.547963	-0.000032
1514	1.5054e+02	4.9441	4.189111	0.000319	3.193694	0.541026	-0.000032
1515	1.5064e+02	4.9322	4.156523	0.000328	3.275584	0.554899	-0.000033
1516	1.5074e+02	4.9236	4.128009	0.000287	2.866136	0.485537	-0.000029
1517	1.5084e+02	4.9139	4.092978	0.000352	3.521253	0.596516	-0.000035
1518	1.5094e+02	4.9017	4.060798	0.000323	3.234639	0.547963	-0.000032
1519	1.5104e+02	4.8942	4.029025	0.000319	3.193694	0.541026	-0.000032
1520	1.5114e+02	4.8809	3.996030	0.000332	3.316529	0.561835	-0.000033
1521	1.5124e+02	4.8730	3.964258	0.000319	3.193694	0.541026	-0.000032
1522	1.5134e+02	4.8594	3.928819	0.000356	3.562198	0.603453	-0.000036
1523	1.5144e+02	4.8544	3.896232	0.000328	3.275584	0.554899	-0.000033
1524	1.5154e+02	4.8417	3.866088	0.000303	3.029915	0.513282	-0.000030
1525	1.5164e+02	4.8319	3.829427	0.000369	3.685032	0.624261	-0.000037
1526	1.5174e+02	4.8226	3.800913	0.000287	2.866136	0.485537	-0.000029
1527	1.5184e+02	4.8101	3.762623	0.000385	3.848811	0.652006	-0.000038
1528	1.5194e+02	4.8026	3.736146	0.000266	2.661412	0.450855	-0.000027
1529	1.5204e+02	4.7930	3.701929	0.000344	3.439363	0.582644	-0.000034
1530	1.5214e+02	4.7829	3.668120	0.000340	3.398418	0.575708	-0.000034
1531	1.5224e+02	4.7746	3.635532	0.000328	3.275584	0.554899	-0.000033
1532	1.5233e+02	4.7629	3.606611	0.000291	2.907081	0.492473	-0.000029
1533	1.5243e+02	4.7519	3.571987	0.000348	3.480308	0.589580	-0.000035
1534	1.5253e+02	4.7453	3.539399	0.000328	3.275584	0.554899	-0.000033
1535	1.5263e+02	4.7360	3.500295	0.000393	3.930701	0.665879	-0.000039
1536	1.5273e+02	4.7253	3.468522	0.000319	3.193694	0.541026	-0.000032
1537	1.5283e+02	4.7140	3.431454	0.000373	3.725977	0.631198	-0.000037
1538	1.5293e+02	4.7027	3.397237	0.000344	3.439363	0.582644	-0.000034
1539	1.5303e+02	4.6941	3.358539	0.000389	3.889756	0.658942	-0.000039
1540	1.5313e+02	4.6847	3.326359	0.000323	3.234639	0.547963	-0.000032
1541	1.5323e+02	4.6722	3.295809	0.000307	3.070860	0.520218	-0.000031
1542	1.5333e+02	4.6629	3.257926	0.000381	3.807866	0.645070	-0.000038
1543	1.5343e+02	4.6566	3.225746	0.000323	3.234639	0.547963	-0.000032
1544	1.5353e+02	4.6426	3.193566	0.000323	3.234639	0.547963	-0.000032
1545	1.5363e+02	4.6345	3.160164	0.000336	3.357474	0.568771	-0.000034
1546	1.5373e+02	4.6194	3.128391	0.000319	3.193694	0.541026	-0.000032
1547	1.5383e+02	4.6148	3.094581	0.000340	3.398418	0.575708	-0.000034
1548	1.5393e+02	4.6049	3.060365	0.000344	3.439363	0.582644	-0.000034
1549	1.5403e+02	4.5931	3.027777	0.000328	3.275584	0.554899	-0.000033
1550	1.5413e+02	4.5809	2.991116	0.000369	3.685032	0.624261	-0.000037
1551	1.5422e+02	4.5738	2.959751	0.000315	3.152750	0.534090	-0.000032
1552	1.5432e+02	4.5643	2.923090	0.000369	3.685032	0.624261	-0.000037
1553	1.5442e+02	4.5525	2.893761	0.000295	2.948026	0.499409	-0.000029
1554	1.5452e+02	4.5457	2.859952	0.000340	3.398418	0.575708	-0.000034
1555	1.5462e+02	4.5354	2.824921	0.000352	3.521253	0.596516	-0.000035
1556	1.5472e+02	4.5248	2.796814	0.000283	2.825191	0.478600	-0.000028
1557	1.5482e+02	4.5159	2.764227	0.000328	3.275584	0.554899	-0.000033
1558	1.5492e+02	4.5059	2.734491	0.000299	2.988970	0.506345	-0.000030
1559	1.5502e+02	4.4940	2.699866	0.000348	3.480308	0.589580	-0.000035
1560	1.5512e+02	4.4816	2.669316	0.000307	3.070860	0.520218	-0.000031
1561	1.5522e+02	4.4744	2.634692	0.000348	3.480308	0.589580	-0.000035
1562	1.5532e+02	4.4665	2.602512	0.000323	3.234639	0.547963	-0.000032
1563	1.5542e+02	4.4527	2.571146	0.000315	3.152750	0.534090	-0.000032
1564	1.5552e+02	4.4442	2.539373	0.000319	3.193694	0.541026	-0.000032
1565	1.5562e+02	4.4364	2.506379	0.000332	3.316529	0.561835	-0.000033
1566	1.5572e+02	4.4230	2.470940	0.000356	3.562198	0.603453	-0.000036
1567	1.5582e+02	4.4131	2.438760	0.000323	3.234639	0.547963	-0.000032
1568	1.5592e+02	4.4041	2.404950	0.000340	3.398418	0.575708	-0.000034
1569	1.5602e+02	4.3951	2.372770	0.000323	3.234639	0.547963	-0.000032
1570	1.5612e+02	4.3856	2.337739	0.000352	3.521253	0.596516	-0.000035
1571	1.5622e+02	4.3731	2.303522	0.000344	3.439363	0.582644	-0.000034
1572	1.5631e+02	4.3609	2.271749	0.000319	3.193694	0.541026	-0.000032
1573	1.5641e+02	4.3535	2.237125	0.000348	3.480308	0.589580	-0.000035
1574	1.5651e+02	4.3447	2.203316	0.000340	3.398418	0.575708	-0.000034
1575	1.5661e+02	4.3340	2.169914	0.000336	3.357474	0.568771	-0.000034
1576	1.5671e+02	4.3243	2.134475	0.000356	3.562198	0.603453	-0.000036
1577	1.5681e+02	4.3116	2.101480	0.000332	3.316529	0.561835	-0.000033
1578	1.5691e+02	4.3056	2.069708	0.000319	3.193694	0.541026	-0.000032
1579	1.5701e+02	4.2950	2.033454	0.000364	3.644087	0.617325	-0.000036
1580	1.5711e+02	4.2852	1.997608	0.000360	3.603142	0.610389	-0.000036
1581	1.5721e+02	4.2745	1.967465	0.000303	3.029915	0.513282	-0.000030
1582	1.5731e+02	4.2635	1.931618	0.000360	3.603142	0.610389	-0.000036
1583	1.5741e+02	4.2532	1.897809	0.000340	3.398418	0.575708	-0.000034
1584	1.5751e+02	4.2458	1.860741	0.000373	3.725977	0.631198	-0.000037
1585	1.5761e+02	4.2385	1.828968	0.000319	3.193694	0.541026	-0.000032
1586	1.5771e+02	4.2237	1.792307	0.000369	3.685032	0.624261	-0.000037
1587	1.5781e+02	4.2158	1.761349	0.000311	3.111805	0.527154	-0.000031
1588	1.5791e+02	4.2032	1.726725	0.000348	3.480308	0.589580	-0.000035
1589	1.5801e+02	4.1938	1.692101	0.000348	3.480308	0.589580	-0.000035
1590	1.5811e+02	4.1860	1.660328	0.000319	3.193694	0.541026	-0.000032
1591	1.5821e+02	4.1753	1.625297	0.000352	3.521253	0.596516	-0.000035
1592	1.5830e+02	4.1644	1.587414	0.000381	3.807866	0.645070	-0.000038
1593	1.5840e+02	4.1578	1.560529	0.000270	2.702357	0.457792	-0.000027
1594	1.5850e+02	4.1476	1.523868	0.000369	3.685032	0.624261	-0.000037
1595	1.5860e+02	4.1342	1.492096	0.000319	3.193694	0.541026	-0.000032
1596	1.5870e+02	4.1276	1.453398	0.000389	3.889756	0.658942	-0.000039
1597	1.5880e+02	4.1171	1.419181	0.000344	3.439363	0.582644	-0.000034
1598	1.5890e+02	4.1064	1.386594	0.000328	3.275584	0.554899	-0.000033
1599	1.5900e+02	4.0989	1.347082	0.000397	3.971645	0.672815	-0.000040
1600	1.5910e+02	4.0868	1.312865	0.000344	3.439363	0.582644	-0.000034
1601	1.5920e+02	4.0772	1.279870	0.000332	3.316529	0.561835	-0.000033
1602	1.5930e+02	4.0673	1.245654	0.000344	3.439363	0.582644	-0.000034
1603	1.5940e+02	4.0562	1.208585	0.000373	3.725977	0.631198	-0.000037
1604	1.5950e+02	4.0479	1.172332	0.000364	3.644087	0.617325	-0.000036
1605	1.5960e+02	4.0353	1.142189	0.000303	3.029915	0.513282	-0.000030
1606	1.5970e+02	4.0276	1.107972	0.000344	3.439363	0.582644	-0.000034
1607	1.5980e+02	4.0147	1.071311	0.000369	3.685032	0.624261	-0.000037
1608	1.5990e+02	4.0057	1.037094	0.000344	3.439363	0.582644	-0.000034
1609	1.6000e+02	3.9959	1.004099	0.000332	3.316529	0.561835	-0.000033
1610	1.6010e+02	3.9876	0.963365	0.000409	4.094480	0.693624	-0.000041
1611	1.6019e+02	3.9759	0.932407	0.000311	3.111805	0.527154	-0.000031
1612	1.6029e+02	3.9658	0.896561	0.000360	3.603142	0.610389	-0.000036
1613	1.6039e+02	3.9556	0.859900	0.000369	3.685032	0.624261	-0.000037
1614	1.6049e+02	3.9468	0.824461	0.000356	3.562198	0.603453	-0.000036
1615	1.6059e+02	3.9364	0.788615	0.000360	3.603142	0.610389	-0.000036
1616	1.6069e+02	3.9271	0.752362	0.000364	3.644087	0.617325	-0.000036
1617	1.6079e+02	3.9163	0.718960	0.000336	3.357474	0.568771	-0.000034
1618	1.6089e+02	3.9069	0.685965	0.000332	3.316529	0.561835	-0.000033
1619	1.6099e+02	3.8958	0.651748	0.000344	3.439363	0.582644	-0.000034
1620	1.6109e+02	3.8889	0.618346	0.000336	3.357474	0.568771	-0.000034
1621	1.6119e+02	3.8795	0.585759	0.000328	3.275584	0.554899	-0.000033
1622	1.6129e+02	3.8688	0.549912	0.000360	3.603142	0.610389	-0.000036
1623	1.6139e+02	3.8570	0.520584	0.000295	2.948026	0.499409	-0.000029
1624	1.6149e+02	3.8458	0.485145	0.000356	3.562198	0.603453	-0.000036
1625	1.6159e+02	3.8367	0.448484	0.000369	3.685032	0.624261	-0.000037
1626	1.6169e+02	3.8277	0.414675	0.000340	3.398418	0.575708	-0.000034
1627	1.6179e+02	3.8175	0.377199	0.000377	3.766921	0.638134	-0.000038
1628	1.6189e+02	3.8085	0.342575	0.000348	3.480308	0.589580	-0.000035
1629	1.6199e+02	3.7978	0.305507	0.000373	3.725977	0.631198	-0.000037
1630	1.6209e+02	3.7846	0.268846	0.000369	3.685032	0.624261	-0.000037
1631	1.6219e+02	3.7788	0.235444	0.000336	3.357474	0.568771	-0.000034
1632	1.6228e+02	3.7674	0.201227	0.000344	3.439363	0.582644	-0.000034
1633	1.6238e+02	3.7585	0.164974	0.000364	3.644087	0.617325	-0.000036
1634	1.6248e+02	3.7481	0.134830	0.000303	3.029915	0.513282	-0.000030
1635	1.6258e+02	3.7404	0.097762	0.000373	3.725977	0.631198	-0.000037
1636	1.6268e+02	3.7292	0.057435	0.000405	4.053535	0.686687	-0.000041
1637	1.6278e+02	3.7202	0.025663	0.000319	3.193694	0.541026	-0.000032
1638	1.6288e+02	3.7125	-0.015479	0.000414	4.135425	0.700560	-0.000041
1639	1.6298e+02	3.6991	-0.053769	0.000385	3.848811	0.652006	-0.000038
1640	1.6308e+02	3.6904	-0.090023	0.000364	3.644087	0.617325	-0.000036
1641	1.6318e+02	3.6794	-0.127091	0.000373	3.725977	0.631198	-0.000037
1642	1.6328e+02	3.6675	-0.164974	0.000381	3.807866	0.645070	-0.000038
1643	1.6338e+02	3.6618	-0.202857	0.000381	3.807866	0.645070	-0.000038
1644	1.6348e+02	3.6506	-0.240739	0.000381	3.807866	0.645070	-0.000038
1645	1.6358e+02	3.6401	-0.276993	0.000364	3.644087	0.617325	-0.000036
1646	1.6368e+02	3.6317	-0.315283	0.000385	3.848811	0.652006	-0.000038
1647	1.6378e+02	3.6239	-0.352351	0.000373	3.725977	0.631198	-0.000037
1648	1.6388e+02	3.6092	-0.388605	0.000364	3.644087	0.617325	-0.000036
1649	1.6398e+02	3.6028	-0.427302	0.000389	3.889756	0.658942	-0.000039
1650	1.6408e+02	3.5882	-0.461519	0.000344	3.439363	0.582644	-0.000034
1651	1.6418e+02	3.5779	-0.495736	0.000344	3.439363	0.582644	-0.000034
1652	1.6427e+02	3.5702	-0.534026	0.000385	3.848811	0.652006	-0.000038
1653	1.6437e+02	3.5575	-0.572316	0.000385	3.848811	0.652006	-0.000038
1654	1.6447e+02	3.5473	-0.607348	0.000352	3.521253	0.596516	-0.000035
1655	1.6457e+02	3.5380	-0.648897	0.000418	4.176369	0.707496	-0.000042
1656	1.6467e+02	3.5297	-0.683113	0.000344	3.439363	0.582644	-0.000034
1657	1.6477e+02	3.5169	-0.715294	0.000323	3.234639	0.547963	-0.000032
1658	1.6487e+02	3.5071	-0.754398	0.000393	3.930701	0.665879	-0.000039
1659	1.6497e+02	3.4956	-0.792689	0.000385	3.848811	0.652006	-0.000038
1660	1.6507e+02	3.4873	-0.829349	0.000369	3.685032	0.624261	-0.000037
1661	1.6517e+02	3.4798	-0.863974	0.000348	3.480308	0.589580	-0.000035
1662	1.6527e+02	3.4675	-0.903486	0.000397	3.971645	0.672815	-0.000040
1663	1.6537e+02	3.4608	-0.939739	0.000364	3.644087	0.617325	-0.000036
1664	1.6547e+02	3.4492	-0.974363	0.000348	3.480308	0.589580	-0.000035
1665	1.6557e+02	3.4396	-1.011024	0.000369	3.685032	0.624261	-0.000037
1666	1.6567e+02	3.4283	-1.049722	0.000389	3.889756	0.658942	-0.000039
1667	1.6577e+02	3.4226	-1.086383	0.000369	3.685032	0.624261	-0.000037
1668	1.6587e+02	3.4103	-1.120599	0.000344	3.439363	0.582644	-0.000034
1669	1.6597e+02	3.4002	-1.161334	0.000409	4.094480	0.693624	-0.000041
1670	1.6607e+02	3.3908	-1.198809	0.000377	3.766921	0.638134	-0.000038
1671	1.6616e+02	3.3787	-1.235470	0.000369	3.685032	0.624261	-0.000037
1672	1.6626e+02	3.3671	-1.269687	0.000344	3.439363	0.582644	-0.000034
1673	1.6636e+02	3.3617	-1.308384	0.000389	3.889756	0.658942	-0.000039
1674	1.6646e+02	3.3489	-1.344230	0.000360	3.603142	0.610389	-0.000036
1675	1.6656e+02	3.3395	-1.386187	0.000422	4.217314	0.714432	-0.000042
1676	1.6666e+02	3.3311	-1.423255	0.000373	3.725977	0.631198	-0.000037
1677	1.6676e+02	3.3202	-1.460730	0.000377	3.766921	0.638134	-0.000038
1678	1.6686e+02	3.3110	-1.496577	0.000360	3.603142	0.610389	-0.000036
1679	1.6696e+02	3.3009	-1.536903	0.000405	4.053535	0.686687	-0.000041
1680	1.6706e+02	3.2887	-1.572342	0.000356	3.562198	0.603453	-0.000036
1681	1.6716e+02	3.2819	-1.607374	0.000352	3.521253	0.596516	-0.000035
1682	1.6726e+02	3.2707	-1.644849	0.000377	3.766921	0.638134	-0.000038
1683	1.6736e+02	3.2617	-1.679881	0.000352	3.521253	0.596516	-0.000035
1684	1.6746e+02	3.2513	-1.712875	0.000332	3.316529	0.561835	-0.000033
1685	1.6756e+02	3.2388	-1.754832	0.000422	4.217314	0.714432	-0.000042
1686	1.6766e+02	3.2294	-1.793122	0.000385	3.848811	0.652006	-0.000038
1687	1.6776e+02	3.2179	-1.833856	0.000409	4.094480	0.693624	-0.000041
1688	1.6786e+02	3.2095	-1.867666	0.000340	3.398418	0.575708	-0.000034
1689	1.6796e+02	3.2025	-1.904734	0.000373	3.725977	0.631198	-0.000037
1690	1.6806e+02	3.1902	-1.943431	0.000389	3.889756	0.658942	-0.000039
1691	1.6816e+02	3.1792	-1.981722	0.000385	3.848811	0.652006	-0.000038
1692	1.6825e+02	3.1709	-2.019604	0.000381	3.807866	0.645070	-0.000038
1693	1.6835e+02	3.1607	-2.053821	0.000344	3.439363	0.582644	-0.000034
1694	1.6845e+02	3.1509	-2.095777	0.000422	4.217314	0.714432	-0.000042
1695	1.6855e+02	3.1422	-2.131216	0.000356	3.562198	0.603453	-0.000036
1696	1.6865e+02	3.1308	-2.163804	0.000328	3.275584	0.554899	-0.000033
1697	1.6875e+02	3.1216	-2.206167	0.000426	4.258259	0.721369	-0.000043
1698	1.6885e+02	3.1103	-2.242828	0.000369	3.685032	0.624261	-0.000037
1699	1.6895e+02	3.0996	-2.278674	0.000360	3.603142	0.610389	-0.000036
1700	1.6905e+02	3.0932	-2.318186	0.000397	3.971645	0.672815	-0.000040
1701	1.6915e+02	3.0831	-2.356477	0.000385	3.848811	0.652006	-0.000038
1702	1.6925e+02	3.0718	-2.393545	0.000373	3.725977	0.631198	-0.000037
1703	1.6935e+02	3.0633	-2.436723	0.000434	4.340149	0.735241	-0.000043
1704	1.6945e+02	3.0535	-2.473791	0.000373	3.725977	0.631198	-0.000037
1705	1.6955e+02	3.0386	-2.514933	0.000414	4.135425	0.700560	-0.000041
1706	1.6965e+02	3.0287	-2.556482	0.000418	4.176369	0.707496	-0.000042
1707	1.6975e+02	3.0219	-2.595587	0.000393	3.930701	0.665879	-0.000039
1708	1.6985e+02	3.0106	-2.638358	0.000430	4.299204	0.728305	-0.000043
1709	1.6995e+02	3.0004	-2.674204	0.000360	3.603142	0.610389	-0.000036
1710	1.7005e+02	2.9924	-2.712901	0.000389	3.889756	0.658942	-0.000039
1711	1.7015e+02	2.9806	-2.749155	0.000364	3.644087	0.617325	-0.000036
1712	1.7024e+02	2.9696	-2.787445	0.000385	3.848811	0.652006	-0.000038
1713	1.7034e+02	2.9634	-2.824513	0.000373	3.725977	0.631198	-0.000037
1714	1.7044e+02	2.9505	-2.861581	0.000373	3.725977	0.631198	-0.000037
1715	1.7054e+02	2.9434	-2.902723	0.000414	4.135425	0.700560	-0.000041
1716	1.7064e+02	2.9320	-2.938977	0.000364	3.644087	0.617325	-0.000036
1717	1.7074e+02	2.9220	-2.979303	0.000405	4.053535	0.686687	-0.000041
1718	1.7084e+02	2.9114	-3.018001	0.000389	3.889756	0.658942	-0.000039
1719	1.7094e+02	2.9044	-3.055476	0.000377	3.766921	0.638134	-0.000038
1720	1.7104e+02	2.8930	-3.095803	0.000405	4.053535	0.686687	-0.000041
1721	1.7114e+02	2.8820	-3.132464	0.000369	3.685032	0.624261	-0.000037
1722	1.7124e+02	2.8719	-3.167088	0.000348	3.480308	0.589580	-0.000035
1723	1.7134e+02	2.8622	-3.204971	0.000381	3.807866	0.645070	-0.000038
1724	1.7144e+02	2.8510	-3.242854	0.000381	3.807866	0.645070	-0.000038
1725	1.7154e+02	2.8426	-3.279922	0.000373	3.725977	0.631198	-0.000037
1726	1.7164e+02	2.8343	-3.316990	0.000373	3.725977	0.631198	-0.000037
1727	1.7174e+02	2.8226	-3.349578	0.000328	3.275584	0.554899	-0.000033
1728	1.7184e+02	2.8116	-3.389905	0.000405	4.053535	0.686687	-0.000041
1729	1.7194e+02	2.8040	-3.425344	0.000356	3.562198	0.603453	-0.000036
1730	1.7204e+02	2.7932	-3.465263	0.000401	4.012590	0.679751	-0.000040
1731	1.7213e+02	2.7834	-3.501109	0.000360	3.603142	0.610389	-0.000036
1732	1.7223e+02	2.7706	-3.543473	0.000426	4.258259	0.721369	-0.000043
1733	1.7233e+02	2.7633	-3.578097	0.000348	3.480308	0.589580	-0.000035
1734	1.7243e+02	2.7537	-3.615980	0.000381	3.807866	0.645070	-0.000038
1735	1.7253e+02	2.7410	-3.656307	0.000405	4.053535	0.686687	-0.000041
1736	1.7263e+02	2.7360	-3.692968	0.000369	3.685032	0.624261	-0.000037
1737	1.7273e+02	2.7225	-3.734924	0.000422	4.217314	0.714432	-0.000042
1738	1.7283e+02	2.7123	-3.770770	0.000360	3.603142	0.610389	-0.000036
1739	1.7293e+02	2.7038	-3.812319	0.000418	4.176369	0.707496	-0.000042
1740	1.7303e+02	2.6929	-3.847758	0.000356	3.562198	0.603453	-0.000036
1741	1.7313e+02	2.6839	-3.888492	0.000409	4.094480	0.693624	-0.000041
1742	1.7323e+02	2.6756	-3.927190	0.000389	3.889756	0.658942	-0.000039
1743	1.7333e+02	2.6647	-3.968331	0.000414	4.135425	0.700560	-0.000041
1744	1.7343e+02	2.6550	-4.007843	0.000397	3.971645	0.672815	-0.000040
1745	1.7353e+02	2.6440	-4.044912	0.000373	3.725977	0.631198	-0.000037
1746	1.7363e+02	2.6334	-4.086053	0.000414	4.135425	0.700560	-0.000041
1747	1.7373e+02	2.6244	-4.125565	0.000397	3.971645	0.672815	-0.000040
1748	1.7383e+02	2.6128	-4.163448	0.000381	3.807866	0.645070	-0.000038
1749	1.7393e+02	2.6046	-4.200924	0.000377	3.766921	0.638134	-0.000038
1750	1.7403e+02	2.5928	-4.237585	0.000369	3.685032	0.624261	-0.000037
1751	1.7413e+02	2.5827	-4.278726	0.000414	4.135425	0.700560	-0.000041
1752	1.7422e+02	2.5706	-4.317831	0.000393	3.930701	0.665879	-0.000039
1753	1.7432e+02	2.5658	-4.356121	0.000385	3.848811	0.652006	-0.000038
1754	1.7442e+02	2.5544	-4.396856	0.000409	4.094480	0.693624	-0.000041
1755	1.7452e+02	2.5411	-4.437182	0.000405	4.053535	0.686687	-0.000041
1756	1.7462e+02	2.5338	-4.476287	0.000393	3.930701	0.665879	-0.000039
1757	1.7472e+02	2.5239	-4.515392	0.000393	3.930701	0.665879	-0.000039
1758	1.7482e+02	2.5111	-4.553275	0.000381	3.807866	0.645070	-0.000038
1759	1.7492e+02	2.5036	-4.591565	0.000385	3.848811	0.652006	-0.000038
1760	1.7502e+02	2.4928	-4.630263	0.000389	3.889756	0.658942	-0.000039
1761	1.7512e+02	2.4842	-4.670590	0.000405	4.053535	0.686687	-0.000041
1762	1.7522e+02	2.4740	-4.710917	0.000405	4.053535	0.686687	-0.000041
1763	1.7532e+02	2.4624	-4.752873	0.000422	4.217314	0.714432	-0.000042
1764	1.7542e+02	2.4516	-4.787904	0.000352	3.521253	0.596516	-0.000035
1765	1.7552e+02	2.4458	-4.830675	0.000430	4.299204	0.728305	-0.000043
1766	1.7562e+02	2.4331	-4.873039	0.000426	4.258259	0.721369	-0.000043
1767	1.7572e+02	2.4248	-4.912551	0.000397	3.971645	0.672815	-0.000040
1768	1.7582e+02	2.4139	-4.954100	0.000418	4.176369	0.707496	-0.000042
1769	1.7592e+02	2.4038	-4.993205	0.000393	3.930701	0.665879	-0.000039
1770	1.7602e+02	2.3916	-5.032717	0.000397	3.971645	0.672815	-0.000040
1771	1.7612e+02	2.3830	-5.070600	0.000381	3.807866	0.645070	-0.000038
1772	1.7621e+02	2.3749	-5.110927	0.000405	4.053535	0.686687	-0.000041
1773	1.7631e+02	2.3640	-5.154105	0.000434	4.340149	0.735241	-0.000043
1774	1.7641e+02	2.3571	-5.192396	0.000385	3.848811	0.652006	-0.000038
1775	1.7651e+02	2.3444	-5.230686	0.000385	3.848811	0.652006	-0.000038
1776	1.7661e+02	2.3336	-5.271013	0.000405	4.053535	0.686687	-0.000041
1777	1.7671e+02	2.3238	-5.311747	0.000409	4.094480	0.693624	-0.000041
1778	1.7681e+02	2.3138	-5.354925	0.000434	4.340149	0.735241	-0.000043
1779	1.7691e+02	2.3059	-5.396881	0.000422	4.217314	0.714432	-0.000042
1780	1.7701e+02	2.2934	-5.440060	0.000434	4.340149	0.735241	-0.000043
1781	1.7711e+02	2.2870	-5.475906	0.000360	3.603142	0.610389	-0.000036
1782	1.7721e+02	2.2774	-5.517862	0.000422	4.217314	0.714432	-0.000042
1783	1.7731e+02	2.2635	-5.556967	0.000393	3.930701	0.665879	-0.000039
1784	1.7741e+02	2.2552	-5.594850	0.000381	3.807866	0.645070	-0.000038
1785	1.7751e+02	2.2462	-5.639658	0.000450	4.503928	0.762986	-0.000045
1786	1.7761e+02	2.2330	-5.676726	0.000373	3.725977	0.631198	-0.000037
1787	1.7771e+02	2.2215	-5.718275	0.000418	4.176369	0.707496	-0.000042
1788	1.7781e+02	2.2147	-5.752899	0.000348	3.480308	0.589580	-0.000035
1789	1.7791e+02	2.2082	-5.792004	0.000393	3.930701	0.665879	-0.000039
1790	1.7801e+02	2.1953	-5.833960	0.000422	4.217314	0.714432	-0.000042
1791	1.7810e+02	2.1864	-5.871436	0.000377	3.766921	0.638134	-0.000038
1792	1.7820e+02	2.1748	-5.913799	0.000426	4.258259	0.721369	-0.000043
1793	1.7830e+02	2.1654	-5.950867	0.000373	3.725977	0.631198	-0.000037
1794	1.7840e+02	2.1555	-5.994453	0.000438	4.381093	0.742177	-0.000044
1795	1.7850e+02	2.1471	-6.035187	0.000409	4.094480	0.693624	-0.000041
1796	1.7860e+02	2.1363	-6.077144	0.000422	4.217314	0.714432	-0.000042
1797	1.7870e+02	2.1252	-6.119507	0.000426	4.258259	0.721369	-0.000043
1798	1.7880e+02	2.1176	-6.158612	0.000393	3.930701	0.665879	-0.000039
1799	1.7890e+02	2.1065	-6.198532	0.000401	4.012590	0.679751	-0.000040
1800	1.7900e+02	2.0982	-6.242525	0.000442	4.422038	0.749114	-0.000044
1801	1.7910e+02	2.0851	-6.282037	0.000397	3.971645	0.672815	-0.000040
1802	1.7920e+02	2.0770	-6.325215	0.000434	4.340149	0.735241	-0.000043
1803	1.7930e+02	2.0666	-6.367579	0.000426	4.258259	0.721369	-0.000043
1804	1.7940e+02	2.0566	-6.404240	0.000369	3.685032	0.624261	-0.000037
1805	1.7950e+02	2.0458	-6.447418	0.000434	4.340149	0.735241	-0.000043
1806	1.7960e+02	2.0353	-6.487745	0.000405	4.053535	0.686687	-0.000041
1807	1.7970e+02	2.0248	-6.537848	0.000504	5.036210	0.853157	-0.000050
1808	1.7980e+02	2.0184	-6.579397	0.000418	4.176369	0.707496	-0.000042
1809	1.7990e+02	2.0050	-6.619316	0.000401	4.012590	0.679751	-0.000040
1810	1.8000e+02	1.9967	-6.663717	0.000446	4.462983	0.756050	-0.000045
1811	1.8009e+02	1.9848	-6.706488	0.000430	4.299204	0.728305	-0.000043
1812	1.8019e+02	1.9755	-6.750888	0.000446	4.462983	0.756050	-0.000045
1813	1.8029e+02	1.9645	-6.794474	0.000438	4.381093	0.742177	-0.000044
1814	1.8039e+02	1.9555	-6.838874	0.000446	4.462983	0.756050	-0.000045
1815	1.8049e+02	1.9462	-6.882052	0.000434	4.340149	0.735241	-0.000043
1816	1.8059e+02	1.9372	-6.923194	0.000414	4.135425	0.700560	-0.000041
1817	1.8069e+02	1.9288	-6.966372	0.000434	4.340149	0.735241	-0.000043
1818	1.8079e+02	1.9159	-7.006292	0.000401	4.012590	0.679751	-0.000040
1819	1.8089e+02	1.9073	-7.049470	0.000434	4.340149	0.735241	-0.000043
1820	1.8099e+02	1.8971	-7.091834	0.000426	4.258259	0.721369	-0.000043
1821	1.8109e+02	1.8880	-7.130939	0.000393	3.930701	0.665879	-0.000039
1822	1.8119e+02	1.8780	-7.173302	0.000426	4.258259	0.721369	-0.000043
1823	1.8129e+02	1.8658	-7.214851	0.000418	4.176369	0.707496	-0.000042
1824	1.8139e+02	1.8587	-7.260474	0.000459	4.585817	0.776859	-0.000046
1825	1.8149e+02	1.8459	-7.301208	0.000409	4.094480	0.693624	-0.000041
1826	1.8159e+02	1.8367	-7.344386	0.000434	4.340149	0.735241	-0.000043
1827	1.8169e+02	1.8266	-7.389194	0.000450	4.503928	0.762986	-0.000045
1828	1.8179e+02	1.8152	-7.433187	0.000442	4.422038	0.749114	-0.000044
1829	1.8189e+02	1.8086	-7.472292	0.000393	3.930701	0.665879	-0.000039
1830	1.8199e+02	1.7971	-7.513026	0.000409	4.094480	0.693624	-0.000041
1831	1.8209e+02	1.7853	-7.557426	0.000446	4.462983	0.756050	-0.000045
1832	1.8218e+02	1.7767	-7.600605	0.000434	4.340149	0.735241	-0.000043
1833	1.8228e+02	1.7677	-7.644598	0.000442	4.422038	0.749114	-0.000044
1834	1.8238e+02	1.7561	-7.682481	0.000381	3.807866	0.645070	-0.000038
1835	1.8248e+02	1.7498	-7.727696	0.000454	4.544873	0.769922	-0.000045
1836	1.8258e+02	1.7368	-7.770467	0.000430	4.299204	0.728305	-0.000043
1837	1.8268e+02	1.7254	-7.812015	0.000418	4.176369	0.707496	-0.000042
1838	1.8278e+02	1.7191	-7.859675	0.000479	4.790541	0.811540	-0.000048
1839	1.8288e+02	1.7081	-7.902853	0.000434	4.340149	0.735241	-0.000043
1840	1.8298e+02	1.7000	-7.942772	0.000401	4.012590	0.679751	-0.000040
1841	1.8308e+02	1.6882	-7.988802	0.000463	4.626762	0.783795	-0.000046
1842	1.8318e+02	1.6764	-8.030351	0.000418	4.176369	0.707496	-0.000042
1843	1.8328e+02	1.6657	-8.073937	0.000438	4.381093	0.742177	-0.000044
1844	1.8338e+02	1.6601	-8.117930	0.000442	4.422038	0.749114	-0.000044
1845	1.8348e+02	1.6492	-8.161108	0.000434	4.340149	0.735241	-0.000043
1846	1.8358e+02	1.6388	-8.202657	0.000418	4.176369	0.707496	-0.000042
1847	1.8368e+02	1.6255	-8.249501	0.000471	4.708652	0.797667	-0.000047
1848	1.8378e+02	1.6166	-8.292680	0.000434	4.340149	0.735241	-0.000043
1849	1.8388e+02	1.6087	-8.333821	0.000414	4.135425	0.700560	-0.000041
1850	1.8398e+02	1.5977	-8.375370	0.000418	4.176369	0.707496	-0.000042
1851	1.8407e+02	1.5881	-8.417734	0.000426	4.258259	0.721369	-0.000043
1852	1.8417e+02	1.5774	-8.462542	0.000450	4.503928	0.762986	-0.000045
1853	1.8427e+02	1.5694	-8.506942	0.000446	4.462983	0.756050	-0.000045
1854	1.8437e+02	1.5620	-8.548491	0.000418	4.176369	0.707496	-0.000042
1855	1.8447e+02	1.5478	-8.588410	0.000401	4.012590	0.679751	-0.000040
1856	1.8457e+02	1.5393	-8.638106	0.000500	4.995265	0.846221	-0.000050
1857	1.8467e+02	1.5305	-8.680062	0.000422	4.217314	0.714432	-0.000042
1858	1.8477e+02	1.5165	-8.722833	0.000430	4.299204	0.728305	-0.000043
1859	1.8487e+02	1.5096	-8.768048	0.000454	4.544873	0.769922	-0.000045
1860	1.8497e+02	1.4991	-8.813671	0.000459	4.585817	0.776859	-0.000046
1861	1.8507e+02	1.4851	-8.853183	0.000397	3.971645	0.672815	-0.000040
1862	1.8517e+02	1.4816	-8.900027	0.000471	4.708652	0.797667	-0.000047
1863	1.8527e+02	1.4671	-8.938725	0.000389	3.889756	0.658942	-0.000039
1864	1.8537e+02	1.4611	-8.980681	0.000422	4.217314	0.714432	-0.000042
1865	1.8547e+02	1.4462	-9.025082	0.000446	4.462983	0.756050	-0.000045
1866	1.8557e+02	1.4398	-9.070297	0.000454	4.544873	0.769922	-0.000045
1867	1.8567e+02	1.4294	-9.111846	0.000418	4.176369	0.707496	-0.000042
1868	1.8577e+02	1.4207	-9.159912	0.000483	4.831486	0.818476	-0.000048
1869	1.8587e+02	1.4095	-9.205942	0.000463	4.626762	0.783795	-0.000046
1870	1.8597e+02	1.3995	-9.247083	0.000414	4.135425	0.700560	-0.000041
1871	1.8606e+02	1.3872	-9.292706	0.000459	4.585817	0.776859	-0.000046
1872	1.8616e+02	1.3781	-9.343216	0.000508	5.077155	0.860093	-0.000051
1873	1.8626e+02	1.3702	-9.390875	0.000479	4.790541	0.811540	-0.000048
1874	1.8636e+02	1.3614	-9.433239	0.000426	4.258259	0.721369	-0.000043
1875	1.8646e+02	1.3505	-9.476824	0.000438	4.381093	0.742177	-0.000044
1876	1.8656e+02	1.3405	-9.522447	0.000459	4.585817	0.776859	-0.000046
1877	1.8666e+02	1.3297	-9.568069	0.000459	4.585817	0.776859	-0.000046
1878	1.8676e+02	1.3229	-9.616543	0.000487	4.872431	0.825412	-0.000049
1879	1.8686e+02	1.3090	-9.657277	0.000409	4.094480	0.693624	-0.000041
1880	1.8696e+02	1.3004	-9.702900	0.000459	4.585817	0.776859	-0.000046
1881	1.8706e+02	1.2910	-9.742412	0.000397	3.971645	0.672815	-0.000040
1882	1.8716e+02	1.2777	-9.788442	0.000463	4.626762	0.783795	-0.000046
1883	1.8726e+02	1.2685	-9.833249	0.000450	4.503928	0.762986	-0.000045
1884	1.8736e+02	1.2617	-9.876020	0.000430	4.299204	0.728305	-0.000043
1885	1.8746e+02	1.2512	-9.920013	0.000442	4.422038	0.749114	-0.000044
1886	1.8756e+02	1.2385	-9.965228	0.000454	4.544873	0.769922	-0.000045
1887	1.8766e+02	1.2292	-10.009629	0.000446	4.462983	0.756050	-0.000045
1888	1.8776e+02	1.2215	-10.055658	0.000463	4.626762	0.783795	-0.000046
1889	1.8786e+02	1.2107	-10.100059	0.000446	4.462983	0.756050	-0.000045
1890	1.8796e+02	1.1980	-10.143644	0.000438	4.381093	0.742177	-0.000044
1891	1.8806e+02	1.1922	-10.181934	0.000385	3.848811	0.652006	-0.000038
1892	1.8815e+02	1.1799	-10.228371	0.000467	4.667707	0.790731	-0.000047
1893	1.8825e+02	1.1679	-10.271957	0.000438	4.381093	0.742177	-0.000044
1894	1.8835e+02	1.1616	-10.307396	0.000356	3.562198	0.603453	-0.000036
1895	1.8845e+02	1.1519	-10.354240	0.000471	4.708652	0.797667	-0.000047
1896	1.8855e+02	1.1388	-10.396197	0.000422	4.217314	0.714432	-0.000042
1897	1.8865e+02	1.1321	-10.447114	0.000512	5.118100	0.867030	-0.000051
1898	1.8875e+02	1.1192	-10.485812	0.000389	3.889756	0.658942	-0.000039
1899	1.8885e+02	1.1083	-10.533878	0.000483	4.831486	0.818476	-0.000048
1900	1.8895e+02	1.1004	-10.575020	0.000414	4.135425	0.700560	-0.000041
1901	1.8905e+02	1.0903	-10.616162	0.000414	4.135425	0.700560	-0.000041
1902	1.8915e+02	1.0818	-10.664635	0.000487	4.872431	0.825412	-0.000049
1903	1.8925e+02	1.0722	-10.710258	0.000459	4.585817	0.776859	-0.000046
1904	1.8935e+02	1.0627	-10.753029	0.000430	4.299204	0.728305	-0.000043
1905	1.8945e+02	1.0500	-10.797429	0.000446	4.462983	0.756050	-0.000045
1906	1.8955e+02	1.0412	-10.843866	0.000467	4.667707	0.790731	-0.000047
1907	1.8965e+02	1.0318	-10.890303	0.000467	4.667707	0.790731	-0.000047
1908	1.8975e+02	1.0214	-10.936333	0.000463	4.626762	0.783795	-0.000046
1909	1.8985e+02	1.0091	-10.980733	0.000446	4.462983	0.756050	-0.000045
1910	1.8995e+02	1.0031	-11.026763	0.000463	4.626762	0.783795	-0.000046
1911	1.9004e+02	0.9940	-11.074015	0.000475	4.749597	0.804603	-0.000047
1912	1.9014e+02	0.9806	-11.115971	0.000422	4.217314	0.714432	-0.000042
1913	1.9024e+02	0.9704	-11.164037	0.000483	4.831486	0.818476	-0.000048
1914	1.9034e+02	0.9608	-11.205994	0.000422	4.217314	0.714432	-0.000042
1915	1.9044e+02	0.9518	-11.253245	0.000475	4.749597	0.804603	-0.000047
1916	1.9054e+02	0.9412	-11.298868	0.000459	4.585817	0.776859	-0.000046
1917	1.9064e+02	0.9307	-11.344083	0.000454	4.544873	0.769922	-0.000045
1918	1.9074e+02	0.9196	-11.387261	0.000434	4.340149	0.735241	-0.000043
1919	1.9084e+02	0.9134	-11.431661	0.000446	4.462983	0.756050	-0.000045
1920	1.9094e+02	0.9015	-11.479320	0.000479	4.790541	0.811540	-0.000048
1921	1.9104e+02	0.8893	-11.527387	0.000483	4.831486	0.818476	-0.000048
1922	1.9114e+02	0.8805	-11.572602	0.000454	4.544873	0.769922	-0.000045
1923	1.9124e+02	0.8723	-11.618632	0.000463	4.626762	0.783795	-0.000046
1924	1.9134e+02	0.8624	-11.663032	0.000446	4.462983	0.756050	-0.000045
1925	1.9144e+02	0.8527	-11.708654	0.000459	4.585817	0.776859	-0.000046
1926	1.9154e+02	0.8450	-11.754684	0.000463	4.626762	0.783795	-0.000046
1927	1.9164e+02	0.8334	-11.801121	0.000467	4.667707	0.790731	-0.000047
1928	1.9174e+02	0.8225	-11.843485	0.000426	4.258259	0.721369	-0.000043
1929	1.9184e+02	0.8120	-11.889107	0.000459	4.585817	0.776859	-0.000046
1930	1.9194e+02	0.8019	-11.936766	0.000479	4.790541	0.811540	-0.000048
1931	1.9203e+02	0.7923	-11.982388	0.000459	4.585817	0.776859	-0.000046
1932	1.9213e+02	0.7815	-12.028011	0.000459	4.585817	0.776859	-0.000046
1933	1.9223e+02	0.7742	-12.076077	0.000483	4.831486	0.818476	-0.000048
1934	1.9233e+02	0.7610	-12.124144	0.000483	4.831486	0.818476	-0.000048
1935	1.9243e+02	0.7519	-12.170173	0.000463	4.626762	0.783795	-0.000046
1936	1.9253e+02	0.7428	-12.217832	0.000479	4.790541	0.811540	-0.000048
1937	1.9263e+02	0.7342	-12.267121	0.000495	4.954321	0.839285	-0.000050
1938	1.9273e+02	0.7202	-12.307448	0.000405	4.053535	0.686687	-0.000041
1939	1.9283e+02	0.7121	-12.354292	0.000471	4.708652	0.797667	-0.000047
1940	1.9293e+02	0.7053	-12.405210	0.000512	5.118100	0.867030	-0.000051
1941	1.9303e+02	0.6955	-12.445944	0.000409	4.094480	0.693624	-0.000041
1942	1.9313e+02	0.6835	-12.495640	0.000500	4.995265	0.846221	-0.000050
1943	1.9323e+02	0.6723	-12.542892	0.000475	4.749597	0.804603	-0.000047
1944	1.9333e+02	0.6666	-12.586885	0.000442	4.422038	0.749114	-0.000044
1945	1.9343e+02	0.6534	-12.634544	0.000479	4.790541	0.811540	-0.000048
1946	1.9353e+02	0.6433	-12.680981	0.000467	4.667707	0.790731	-0.000047
1947	1.9363e+02	0.6342	-12.733121	0.000524	5.240934	0.887838	-0.000052
1948	1.9373e+02	0.6218	-12.779965	0.000471	4.708652	0.797667	-0.000047
1949	1.9383e+02	0.6144	-12.825180	0.000454	4.544873	0.769922	-0.000045
1950	1.9393e+02	0.6042	-12.871617	0.000467	4.667707	0.790731	-0.000047
1951	1.9403e+02	0.5925	-12.916018	0.000446	4.462983	0.756050	-0.000045
1952	1.9412e+02	0.5828	-12.964084	0.000483	4.831486	0.818476	-0.000048
1953	1.9422e+02	0.5737	-13.010928	0.000471	4.708652	0.797667	-0.000047
1954	1.9432e+02	0.5629	-13.056143	0.000454	4.544873	0.769922	-0.000045
1955	1.9442e+02	0.5546	-13.103803	0.000479	4.790541	0.811540	-0.000048
1956	1.9452e+02	0.5430	-13.147388	0.000438	4.381093	0.742177	-0.000044
1957	1.9462e+02	0.5346	-13.190974	0.000438	4.381093	0.742177	-0.000044
1958	1.9472e+02	0.5230	-13.239448	0.000487	4.872431	0.825412	-0.000049
1959	1.9482e+02	0.5135	-13.284663	0.000454	4.544873	0.769922	-0.000045
1960	1.9492e+02	0.5055	-13.325397	0.000409	4.094480	0.693624	-0.000041
1961	1.9502e+02	0.4935	-13.375500	0.000504	5.036210	0.853157	-0.000050
1962	1.9512e+02	0.4832	-13.426010	0.000508	5.077155	0.860093	-0.000051
1963	1.9522e+02	0.4750	-13.472448	0.000467	4.667707	0.790731	-0.000047
1964	1.9532e+02	0.4666	-13.520514	0.000483	4.831486	0.818476	-0.000048
1965	1.9542e+02	0.4539	-13.568988	0.000487	4.872431	0.825412	-0.000049
1966	1.9552e+02	0.4435	-13.615017	0.000463	4.626762	0.783795	-0.000046
1967	1.9562e+02	0.4329	-13.663084	0.000483	4.831486	0.818476	-0.000048
1968	1.9572e+02	0.4237	-13.713187	0.000504	5.036210	0.853157	-0.000050
1969	1.9582e+02	0.4141	-13.756365	0.000434	4.340149	0.735241	-0.000043
1970	1.9592e+02	0.4044	-13.805246	0.000491	4.913376	0.832348	-0.000049
1971	1.9601e+02	0.3910	-13.851683	0.000467	4.667707	0.790731	-0.000047
1972	1.9611e+02	0.3820	-13.900565	0.000491	4.913376	0.832348	-0.000049
1973	1.9621e+02	0.3725	-13.952297	0.000520	5.199989	0.880902	-0.000052
1974	1.9631e+02	0.3650	-13.998734	0.000467	4.667707	0.790731	-0.000047
1975	1.9641e+02	0.3552	-14.046801	0.000483	4.831486	0.818476	-0.000048
1976	1.9651e+02	0.3462	-14.099348	0.000528	5.281879	0.894775	-0.000053
1977	1.9661e+02	0.3332	-14.148636	0.000495	4.954321	0.839285	-0.000050
1978	1.9671e+02	0.3234	-14.200369	0.000520	5.199989	0.880902	-0.000052
1979	1.9681e+02	0.3138	-14.248842	0.000487	4.872431	0.825412	-0.000049
1980	1.9691e+02	0.3043	-14.298946	0.000504	5.036210	0.853157	-0.000050
1981	1.9701e+02	0.2953	-14.347827	0.000491	4.913376	0.832348	-0.000049
1982	1.9711e+02	0.2859	-14.397115	0.000495	4.954321	0.839285	-0.000050
1983	1.9721e+02	0.2741	-14.446811	0.000500	4.995265	0.846221	-0.000050
1984	1.9731e+02	0.2651	-14.494470	0.000479	4.790541	0.811540	-0.000048
1985	1.9741e+02	0.2574	-14.540907	0.000467	4.667707	0.790731	-0.000047
1986	1.9751e+02	0.2424	-14.592232	0.000516	5.159045	0.873966	-0.000052
1987	1.9761e+02	0.2370	-14.637447	0.000454	4.544873	0.769922	-0.000045
1988	1.9771e+02	0.2245	-14.689587	0.000524	5.240934	0.887838	-0.000052
1989	1.9781e+02	0.2168	-14.738061	0.000487	4.872431	0.825412	-0.000049
1990	1.9791e+02	0.2069	-14.786942	0.000491	4.913376	0.832348	-0.000049
1991	1.9800e+02	0.1933	-14.832564	0.000459	4.585817	0.776859	-0.000046
1992	1.9810e+02	0.1859	-14.882260	0.000500	4.995265	0.846221	-0.000050
1993	1.9820e+02	0.1775	-14.933585	0.000516	5.159045	0.873966	-0.000052
1994	1.9830e+02	0.1669	-14.980430	0.000471	4.708652	0.797667	-0.000047
1995	1.9840e+02	0.1588	-15.028496	0.000483	4.831486	0.818476	-0.000048
1996	1.9850e+02	0.1444	-15.083487	0.000553	5.527548	0.936392	-0.000055
1997	1.9860e+02	0.1322	-15.129110	0.000459	4.585817	0.776859	-0.000046
1998	1.9870e+02	0.1265	-15.175954	0.000471	4.708652	0.797667	-0.000047
1999	1.9880e+02	0.1173	-15.224835	0.000491	4.913376	0.832348	-0.000049
2000	1.9890e+02	0.1048	-15.276568	0.000520	5.199989	0.880902	-0.000052
2001	1.9900e+02	0.0949	-15.323005	0.000467	4.667707	0.790731	-0.000047
2002	1.9910e+02	0.0870	-15.373108	0.000504	5.036210	0.853157	-0.000050
2003	1.9920e+02	0.0758	-15.417916	0.000450	4.503928	0.762986	-0.000045
2004	1.9930e+02	0.0655	-15.468426	0.000508	5.077155	0.860093	-0.000051
2005	1.9940e+02	0.0539	-15.515678	0.000475	4.749597	0.804603	-0.000047
2006	1.9950e+02	0.0454	-15.564966	0.000495	4.954321	0.839285	-0.000050
2007	1.9960e+02	0.0365	-15.615069	0.000504	5.036210	0.853157	-0.000050
2008	1.9970e+02	0.0272	-15.668024	0.000532	5.322824	0.901711	-0.000053
2009	1.9980e+02	0.0159	-15.717312	0.000495	4.954321	0.839285	-0.000050
2010	1.9990e+02	0.0053	-15.770267	0.000532	5.322824	0.901711	-0.000053
2011	2.0000e+02	-0.0034	-15.816704	0.000532	5.322824	0.901711	-0.000047

PMax (uC/cm2):	3.55e+01
Pr (uC/cm2):	1.94e+00
-Pr (uC/cm2):	0.00e+00
PLoss (uC/cm2):	0.00e+00
C (Max-Eff) (nF):	3.55e-01
K (Eff):	6.02e+02
Vert. (+/-Pr) Shift (uC/cm2):	9.68e-01
Offset (uC/cm2):	1.78e+01

A (Loop Area - uC/cm2·Volts):	-1.92e-02



Hysteresis Version: 5.48.1 - Radiant Technologies, Inc., 1999 - 9/12/24

