»»»»»»»»»»»»»»»»»»»»»»»»»»»»»»»»»»»» Hysteresis ««««««««««««««««««««««««««««««««««««
»»»  Executed Version:	5.48.1
»»»  Vision Version:	5.48.4 (R)
»»»  Vision Compiled:	9/18/24
»»»  Driver Version:	5.47.0
»»»  Windows Version:	Windows 8 or 8.1
»»»  Processor Information:	x86 (AMD or Intel) - 32 Processors
»»»  Tester Name:	PMF21124-494 (100V)
»»»  Tester S/N:	PMF21124-494
»»»  Internal Amp Type:	100V RevK 270k
»»»  Internal Amp S/N:	iAB2-596/K     
»»»  Execution Count:	1
»»»»»»»»»»»»»»»»»»»»»»»»»»»»»»»»»»»»»»»»»»««««««««««««««««««««««««««««««««««««««««««

Stored:	6/30/2025 - 11:22:17
Configured:	06/30/25 10:19:58 AM
Executed:	06/30/25 11:21:49 AM

»»»»»»»»»»»»»»»»»»»»»»»»»»»»»»»»»»» Sample Info ««««««««««««««««««««««««««««««««««««
Sample Name:	
Lot Name:	
Wafer Name:	
Die Row/Column:	0/0
Capacitor Number:	0
Sample Area (cm2):	1.00e-04
Sample Thickness (microns):	1.50e-01

Amplifier:	Internal

»»»»»»»»»»»»»»»»»»»»»»»»»»»»»»»»»»» Tester Info «««««««««««««««««««««««««««««««««««
Tester Name:	PMF21124-494 (100V)
Tester Serial Number:	PMF21124-494
Return Signal Amp. Level:	1.9 [Index: 2]

»»»»»»»»»»»»»»»»»»»»»»»»»»»»»»»» Hysteresis Info ««««««««««««««««««««««««««««««««««
Task Name:	Hyst-1804
Volts:	10.00
Field:	666.67 (kV/cm)
DCBias:	0.00
DCField:	0.00 (kV/cm)
Hysteresis Period (ms):	2.00e+02
Preset:	Enabled
Preset Delay (ms):	1.00e+03
Profile:	Standard Monopolar

»»»»»»»»»»»»»»»»»»»»»»»»»»»»»»»»»»»»»» Data «««««««««««««««««««««««««««««««««««««««
Points:	2011

Valid Data

Point	Time (ms)	Drive Voltage	Measured Polarization (uC/cm2)	Capacitance (uF)	Normalized Capacitance (uF/cm2)	Dielectric Constant	Instantaneous Current (mA)
   1	0.0000e+00	-0.0031	-16.178628	0.000336	3.357512	0.568778	0.000034
   2	9.9500e-02	0.0052	-16.145226	0.000336	3.357512	0.568778	0.000034
   3	1.9900e-01	0.0184	-16.107343	0.000381	3.807910	0.645077	0.000038
   4	2.9850e-01	0.0253	-16.072719	0.000348	3.480348	0.589587	0.000035
   5	3.9800e-01	0.0334	-16.031170	0.000418	4.176417	0.707504	0.000042
   6	4.9750e-01	0.0438	-15.993287	0.000381	3.807910	0.645077	0.000038
   7	5.9700e-01	0.0550	-15.959070	0.000344	3.439402	0.582651	0.000034
   8	6.9650e-01	0.0662	-15.919558	0.000397	3.971691	0.672823	0.000040
   9	7.9600e-01	0.0762	-15.885748	0.000340	3.398457	0.575714	0.000034
  10	8.9550e-01	0.0871	-15.849088	0.000369	3.685074	0.624268	0.000037
  11	9.9500e-01	0.0936	-15.805095	0.000442	4.422089	0.749122	0.000044
  12	1.0945e+00	0.1037	-15.764768	0.000405	4.053581	0.686695	0.000041
  13	1.1940e+00	0.1140	-15.729736	0.000352	3.521293	0.596523	0.000035
  14	1.2935e+00	0.1261	-15.689409	0.000405	4.053581	0.686695	0.000041
  15	1.3930e+00	0.1339	-15.652749	0.000369	3.685074	0.624268	0.000037
  16	1.4925e+00	0.1434	-15.617310	0.000356	3.562238	0.603459	0.000036
  17	1.5920e+00	0.1544	-15.579020	0.000385	3.848855	0.652014	0.000038
  18	1.6915e+00	0.1657	-15.538693	0.000405	4.053581	0.686695	0.000041
  19	1.7910e+00	0.1749	-15.502032	0.000369	3.685074	0.624268	0.000037
  20	1.8905e+00	0.1836	-15.465371	0.000369	3.685074	0.624268	0.000037
  21	1.9900e+00	0.1985	-15.428303	0.000373	3.726019	0.631205	0.000037
  22	2.0895e+00	0.2014	-15.392864	0.000356	3.562238	0.603459	0.000036
  23	2.1890e+00	0.2132	-15.354166	0.000389	3.889800	0.658950	0.000039
  24	2.2885e+00	0.2245	-15.319135	0.000352	3.521293	0.596523	0.000035
  25	2.3880e+00	0.2351	-15.282067	0.000373	3.726019	0.631205	0.000037
  26	2.4875e+00	0.2488	-15.245813	0.000364	3.644129	0.617332	0.000036
  27	2.5870e+00	0.2540	-15.209153	0.000369	3.685074	0.624268	0.000037
  28	2.6865e+00	0.2634	-15.172899	0.000364	3.644129	0.617332	0.000036
  29	2.7860e+00	0.2757	-15.130535	0.000426	4.258308	0.721377	0.000043
  30	2.8855e+00	0.2850	-15.089801	0.000409	4.094527	0.693632	0.000041
  31	2.9850e+00	0.2936	-15.056399	0.000336	3.357512	0.568778	0.000034
  32	3.0845e+00	0.3044	-15.015257	0.000414	4.135472	0.700568	0.000041
  33	3.1840e+00	0.3140	-14.978189	0.000373	3.726019	0.631205	0.000037
  34	3.2835e+00	0.3255	-14.941121	0.000373	3.726019	0.631205	0.000037
  35	3.3830e+00	0.3334	-14.905275	0.000360	3.603184	0.610396	0.000036
  36	3.4825e+00	0.3426	-14.864133	0.000414	4.135472	0.700568	0.000041
  37	3.5820e+00	0.3522	-14.828287	0.000360	3.603184	0.610396	0.000036
  38	3.6815e+00	0.3620	-14.788775	0.000397	3.971691	0.672823	0.000040
  39	3.7810e+00	0.3756	-14.751707	0.000373	3.726019	0.631205	0.000037
  40	3.8805e+00	0.3821	-14.711380	0.000405	4.053581	0.686695	0.000041
  41	3.9800e+00	0.3945	-14.669424	0.000422	4.217363	0.714441	0.000042
  42	4.0795e+00	0.4032	-14.627467	0.000422	4.217363	0.714441	0.000042
  43	4.1790e+00	0.4121	-14.589177	0.000385	3.848855	0.652014	0.000038
  44	4.2785e+00	0.4227	-14.549258	0.000401	4.012636	0.679759	0.000040
  45	4.3780e+00	0.4336	-14.510153	0.000393	3.930746	0.665886	0.000039
  46	4.4775e+00	0.4428	-14.471455	0.000389	3.889800	0.658950	0.000039
  47	4.5770e+00	0.4544	-14.433980	0.000377	3.766965	0.638141	0.000038
  48	4.6765e+00	0.4648	-14.391616	0.000426	4.258308	0.721377	0.000043
  49	4.7760e+00	0.4734	-14.353326	0.000385	3.848855	0.652014	0.000038
  50	4.8755e+00	0.4819	-14.312184	0.000414	4.135472	0.700568	0.000041
  51	4.9750e+00	0.4931	-14.274301	0.000381	3.807910	0.645077	0.000038
  52	5.0745e+00	0.5030	-14.234382	0.000401	4.012636	0.679759	0.000040
  53	5.1740e+00	0.5131	-14.198128	0.000364	3.644129	0.617332	0.000036
  54	5.2735e+00	0.5215	-14.159023	0.000393	3.930746	0.665886	0.000039
  55	5.3730e+00	0.5332	-14.119104	0.000401	4.012636	0.679759	0.000040
  56	5.4725e+00	0.5437	-14.079999	0.000393	3.930746	0.665886	0.000039
  57	5.5720e+00	0.5554	-14.046190	0.000340	3.398457	0.575714	0.000034
  58	5.6715e+00	0.5623	-14.006270	0.000401	4.012636	0.679759	0.000040
  59	5.7710e+00	0.5711	-13.969609	0.000369	3.685074	0.624268	0.000037
  60	5.8705e+00	0.5816	-13.928468	0.000414	4.135472	0.700568	0.000041
  61	5.9700e+00	0.5913	-13.889770	0.000389	3.889800	0.658950	0.000039
  62	6.0695e+00	0.6041	-13.849850	0.000401	4.012636	0.679759	0.000040
  63	6.1690e+00	0.6139	-13.814412	0.000356	3.562238	0.603459	0.000036
  64	6.2685e+00	0.6229	-13.777343	0.000373	3.726019	0.631205	0.000037
  65	6.3680e+00	0.6333	-13.739868	0.000377	3.766965	0.638141	0.000038
  66	6.4675e+00	0.6435	-13.699541	0.000405	4.053581	0.686695	0.000041
  67	6.5670e+00	0.6526	-13.666546	0.000332	3.316567	0.561842	0.000033
  68	6.6665e+00	0.6641	-13.625405	0.000414	4.135472	0.700568	0.000041
  69	6.7660e+00	0.6728	-13.586300	0.000393	3.930746	0.665886	0.000039
  70	6.8655e+00	0.6809	-13.549232	0.000373	3.726019	0.631205	0.000037
  71	6.9650e+00	0.6932	-13.508905	0.000405	4.053581	0.686695	0.000041
  72	7.0645e+00	0.7027	-13.471837	0.000373	3.726019	0.631205	0.000037
  73	7.1640e+00	0.7121	-13.431102	0.000409	4.094527	0.693632	0.000041
  74	7.2635e+00	0.7221	-13.396071	0.000352	3.521293	0.596523	0.000035
  75	7.3630e+00	0.7346	-13.356966	0.000393	3.930746	0.665886	0.000039
  76	7.4625e+00	0.7407	-13.318676	0.000385	3.848855	0.652014	0.000038
  77	7.5620e+00	0.7551	-13.278756	0.000401	4.012636	0.679759	0.000040
  78	7.6615e+00	0.7629	-13.239244	0.000397	3.971691	0.672823	0.000040
  79	7.7610e+00	0.7725	-13.201361	0.000381	3.807910	0.645077	0.000038
  80	7.8605e+00	0.7832	-13.165922	0.000356	3.562238	0.603459	0.000036
  81	7.9600e+00	0.7921	-13.124373	0.000418	4.176417	0.707504	0.000042
  82	8.0595e+00	0.8018	-13.091786	0.000328	3.275621	0.554905	0.000033
  83	8.1590e+00	0.8120	-13.049830	0.000422	4.217363	0.714441	0.000042
  84	8.2585e+00	0.8219	-13.015206	0.000348	3.480348	0.589587	0.000035
  85	8.3580e+00	0.8335	-12.977730	0.000377	3.766965	0.638141	0.000038
  86	8.4575e+00	0.8447	-12.938218	0.000397	3.971691	0.672823	0.000040
  87	8.5570e+00	0.8514	-12.901964	0.000364	3.644129	0.617332	0.000036
  88	8.6565e+00	0.8652	-12.861637	0.000405	4.053581	0.686695	0.000041
  89	8.7560e+00	0.8723	-12.822940	0.000389	3.889800	0.658950	0.000039
  90	8.8555e+00	0.8836	-12.785464	0.000377	3.766965	0.638141	0.000038
  91	8.9550e+00	0.8943	-12.748804	0.000369	3.685074	0.624268	0.000037
  92	9.0545e+00	0.9001	-12.713365	0.000356	3.562238	0.603459	0.000036
  93	9.1540e+00	0.9113	-12.673445	0.000401	4.012636	0.679759	0.000040
  94	9.2535e+00	0.9247	-12.633933	0.000397	3.971691	0.672823	0.000040
  95	9.3530e+00	0.9317	-12.594013	0.000401	4.012636	0.679759	0.000040
  96	9.4525e+00	0.9406	-12.558167	0.000360	3.603184	0.610396	0.000036
  97	9.5520e+00	0.9503	-12.523950	0.000344	3.439402	0.582651	0.000034
  98	9.6515e+00	0.9611	-12.487290	0.000369	3.685074	0.624268	0.000037
  99	9.7510e+00	0.9718	-12.448999	0.000385	3.848855	0.652014	0.000038
 100	9.8505e+00	0.9826	-12.411524	0.000377	3.766965	0.638141	0.000038
 101	9.9500e+00	0.9933	-12.372419	0.000393	3.930746	0.665886	0.000039
 102	1.0050e+01	1.0010	-12.336573	0.000360	3.603184	0.610396	0.000036
 103	1.0149e+01	1.0108	-12.291765	0.000450	4.503979	0.762995	0.000045
 104	1.0248e+01	1.0244	-12.254290	0.000377	3.766965	0.638141	0.000038
 105	1.0348e+01	1.0328	-12.215592	0.000389	3.889800	0.658950	0.000039
 106	1.0447e+01	1.0432	-12.178931	0.000369	3.685074	0.624268	0.000037
 107	1.0547e+01	1.0500	-12.137382	0.000418	4.176417	0.707504	0.000042
 108	1.0646e+01	1.0605	-12.098277	0.000393	3.930746	0.665886	0.000039
 109	1.0746e+01	1.0738	-12.057951	0.000405	4.053581	0.686695	0.000041
 110	1.0845e+01	1.0794	-12.020068	0.000381	3.807910	0.645077	0.000038
 111	1.0945e+01	1.0902	-11.981370	0.000389	3.889800	0.658950	0.000039
 112	1.1044e+01	1.0993	-11.941043	0.000405	4.053581	0.686695	0.000041
 113	1.1144e+01	1.1101	-11.911715	0.000295	2.948059	0.499415	0.000029
 114	1.1243e+01	1.1201	-11.870980	0.000409	4.094527	0.693632	0.000041
 115	1.1343e+01	1.1288	-11.834727	0.000364	3.644129	0.617332	0.000036
 116	1.1443e+01	1.1391	-11.795622	0.000393	3.930746	0.665886	0.000039
 117	1.1542e+01	1.1499	-11.757739	0.000381	3.807910	0.645077	0.000038
 118	1.1642e+01	1.1603	-11.719856	0.000381	3.807910	0.645077	0.000038
 119	1.1741e+01	1.1750	-11.681566	0.000385	3.848855	0.652014	0.000038
 120	1.1841e+01	1.1809	-11.643683	0.000381	3.807910	0.645077	0.000038
 121	1.1940e+01	1.1895	-11.604578	0.000393	3.930746	0.665886	0.000039
 122	1.2040e+01	1.1990	-11.572806	0.000319	3.193731	0.541033	0.000032
 123	1.2139e+01	1.2109	-11.530442	0.000426	4.258308	0.721377	0.000043
 124	1.2239e+01	1.2189	-11.498262	0.000323	3.234676	0.547969	0.000032
 125	1.2338e+01	1.2323	-11.462823	0.000356	3.562238	0.603459	0.000036
 126	1.2438e+01	1.2414	-11.424126	0.000389	3.889800	0.658950	0.000039
 127	1.2537e+01	1.2499	-11.393575	0.000307	3.070895	0.520224	0.000031
 128	1.2636e+01	1.2615	-11.357321	0.000364	3.644129	0.617332	0.000036
 129	1.2736e+01	1.2675	-11.323512	0.000340	3.398457	0.575714	0.000034
 130	1.2835e+01	1.2780	-11.288480	0.000352	3.521293	0.596523	0.000035
 131	1.2935e+01	1.2897	-11.247746	0.000409	4.094527	0.693632	0.000041
 132	1.3034e+01	1.2989	-11.213937	0.000340	3.398457	0.575714	0.000034
 133	1.3134e+01	1.3087	-11.179313	0.000348	3.480348	0.589587	0.000035
 134	1.3233e+01	1.3189	-11.140615	0.000389	3.889800	0.658950	0.000039
 135	1.3333e+01	1.3294	-11.105176	0.000356	3.562238	0.603459	0.000036
 136	1.3432e+01	1.3381	-11.069330	0.000360	3.603184	0.610396	0.000036
 137	1.3532e+01	1.3506	-11.029411	0.000401	4.012636	0.679759	0.000040
 138	1.3632e+01	1.3597	-10.992750	0.000369	3.685074	0.624268	0.000037
 139	1.3731e+01	1.3680	-10.956089	0.000369	3.685074	0.624268	0.000037
 140	1.3831e+01	1.3780	-10.921465	0.000348	3.480348	0.589587	0.000035
 141	1.3930e+01	1.3907	-10.882360	0.000393	3.930746	0.665886	0.000039
 142	1.4030e+01	1.3971	-10.849773	0.000328	3.275621	0.554905	0.000033
 143	1.4129e+01	1.4079	-10.805780	0.000442	4.422089	0.749122	0.000044
 144	1.4229e+01	1.4162	-10.768304	0.000377	3.766965	0.638141	0.000038
 145	1.4328e+01	1.4283	-10.734495	0.000340	3.398457	0.575714	0.000034
 146	1.4428e+01	1.4374	-10.694575	0.000401	4.012636	0.679759	0.000040
 147	1.4527e+01	1.4500	-10.661173	0.000336	3.357512	0.568778	0.000034
 148	1.4627e+01	1.4594	-10.623697	0.000377	3.766965	0.638141	0.000038
 149	1.4726e+01	1.4690	-10.585815	0.000381	3.807910	0.645077	0.000038
 150	1.4825e+01	1.4780	-10.550783	0.000352	3.521293	0.596523	0.000035
 151	1.4925e+01	1.4886	-10.511271	0.000397	3.971691	0.672823	0.000040
 152	1.5024e+01	1.4993	-10.476647	0.000348	3.480348	0.589587	0.000035
 153	1.5124e+01	1.5090	-10.436727	0.000401	4.012636	0.679759	0.000040
 154	1.5223e+01	1.5183	-10.404954	0.000319	3.193731	0.541033	0.000032
 155	1.5323e+01	1.5292	-10.366664	0.000385	3.848855	0.652014	0.000038
 156	1.5422e+01	1.5401	-10.327559	0.000393	3.930746	0.665886	0.000039
 157	1.5522e+01	1.5486	-10.290899	0.000369	3.685074	0.624268	0.000037
 158	1.5621e+01	1.5571	-10.255867	0.000352	3.521293	0.596523	0.000035
 159	1.5721e+01	1.5673	-10.219206	0.000369	3.685074	0.624268	0.000037
 160	1.5820e+01	1.5780	-10.183767	0.000356	3.562238	0.603459	0.000036
 161	1.5920e+01	1.5878	-10.149551	0.000344	3.439402	0.582651	0.000034
 162	1.6020e+01	1.6006	-10.112075	0.000377	3.766965	0.638141	0.000038
 163	1.6119e+01	1.6058	-10.075007	0.000373	3.726019	0.631205	0.000037
 164	1.6218e+01	1.6174	-10.039161	0.000360	3.603184	0.610396	0.000036
 165	1.6318e+01	1.6264	-10.000463	0.000389	3.889800	0.658950	0.000039
 166	1.6418e+01	1.6391	-9.961766	0.000389	3.889800	0.658950	0.000039
 167	1.6517e+01	1.6479	-9.922661	0.000393	3.930746	0.665886	0.000039
 168	1.6616e+01	1.6592	-9.890073	0.000328	3.275621	0.554905	0.000033
 169	1.6716e+01	1.6673	-9.848525	0.000418	4.176417	0.707504	0.000042
 170	1.6816e+01	1.6778	-9.813086	0.000356	3.562238	0.603459	0.000036
 171	1.6915e+01	1.6878	-9.780906	0.000323	3.234676	0.547969	0.000032
 172	1.7015e+01	1.6978	-9.739764	0.000414	4.135472	0.700568	0.000041
 173	1.7114e+01	1.7071	-9.700252	0.000397	3.971691	0.672823	0.000040
 174	1.7213e+01	1.7161	-9.672145	0.000283	2.825223	0.478606	0.000028
 175	1.7313e+01	1.7263	-9.631818	0.000405	4.053581	0.686695	0.000041
 176	1.7413e+01	1.7376	-9.594343	0.000377	3.766965	0.638141	0.000038
 177	1.7512e+01	1.7468	-9.558904	0.000356	3.562238	0.603459	0.000036
 178	1.7611e+01	1.7564	-9.522650	0.000364	3.644129	0.617332	0.000036
 179	1.7711e+01	1.7670	-9.485582	0.000373	3.726019	0.631205	0.000037
 180	1.7811e+01	1.7779	-9.449329	0.000364	3.644129	0.617332	0.000036
 181	1.7910e+01	1.7882	-9.411853	0.000377	3.766965	0.638141	0.000038
 182	1.8009e+01	1.7981	-9.370712	0.000414	4.135472	0.700568	0.000041
 183	1.8109e+01	1.8060	-9.333236	0.000377	3.766965	0.638141	0.000038
 184	1.8209e+01	1.8172	-9.298612	0.000348	3.480348	0.589587	0.000035
 185	1.8308e+01	1.8266	-9.261544	0.000373	3.726019	0.631205	0.000037
 186	1.8407e+01	1.8375	-9.225698	0.000360	3.603184	0.610396	0.000036
 187	1.8507e+01	1.8478	-9.192703	0.000332	3.316567	0.561842	0.000033
 188	1.8607e+01	1.8572	-9.155635	0.000373	3.726019	0.631205	0.000037
 189	1.8706e+01	1.8655	-9.125084	0.000307	3.070895	0.520224	0.000031
 190	1.8805e+01	1.8746	-9.086387	0.000389	3.889800	0.658950	0.000039
 191	1.8905e+01	1.8855	-9.053392	0.000332	3.316567	0.561842	0.000033
 192	1.9005e+01	1.8963	-9.015509	0.000381	3.807910	0.645077	0.000038
 193	1.9104e+01	1.9080	-8.984144	0.000315	3.152786	0.534096	0.000032
 194	1.9203e+01	1.9165	-8.951149	0.000332	3.316567	0.561842	0.000033
 195	1.9303e+01	1.9274	-8.915710	0.000356	3.562238	0.603459	0.000036
 196	1.9402e+01	1.9361	-8.874161	0.000418	4.176417	0.707504	0.000042
 197	1.9502e+01	1.9477	-8.837908	0.000364	3.644129	0.617332	0.000036
 198	1.9602e+01	1.9582	-8.800839	0.000373	3.726019	0.631205	0.000037
 199	1.9701e+01	1.9650	-8.770289	0.000307	3.070895	0.520224	0.000031
 200	1.9800e+01	1.9762	-8.732406	0.000381	3.807910	0.645077	0.000038
 201	1.9900e+01	1.9846	-8.694116	0.000385	3.848855	0.652014	0.000038
 202	2.0000e+01	1.9946	-8.655826	0.000385	3.848855	0.652014	0.000038
 203	2.0099e+01	2.0080	-8.623238	0.000328	3.275621	0.554905	0.000033
 204	2.0198e+01	2.0161	-8.587392	0.000360	3.603184	0.610396	0.000036
 205	2.0298e+01	2.0267	-8.551546	0.000360	3.603184	0.610396	0.000036
 206	2.0398e+01	2.0348	-8.511219	0.000405	4.053581	0.686695	0.000041
 207	2.0497e+01	2.0461	-8.475373	0.000360	3.603184	0.610396	0.000036
 208	2.0596e+01	2.0592	-8.436675	0.000389	3.889800	0.658950	0.000039
 209	2.0696e+01	2.0658	-8.402866	0.000340	3.398457	0.575714	0.000034
 210	2.0796e+01	2.0745	-8.361317	0.000418	4.176417	0.707504	0.000042
 211	2.0895e+01	2.0890	-8.323841	0.000377	3.766965	0.638141	0.000038
 212	2.0994e+01	2.0946	-8.286773	0.000373	3.726019	0.631205	0.000037
 213	2.1094e+01	2.1056	-8.244410	0.000426	4.258308	0.721377	0.000043
 214	2.1194e+01	2.1146	-8.209378	0.000352	3.521293	0.596523	0.000035
 215	2.1293e+01	2.1267	-8.173939	0.000356	3.562238	0.603459	0.000036
 216	2.1392e+01	2.1354	-8.135649	0.000385	3.848855	0.652014	0.000038
 217	2.1492e+01	2.1443	-8.100210	0.000356	3.562238	0.603459	0.000036
 218	2.1591e+01	2.1573	-8.063142	0.000373	3.726019	0.631205	0.000037
 219	2.1691e+01	2.1680	-8.028518	0.000348	3.480348	0.589587	0.000035
 220	2.1791e+01	2.1796	-7.989413	0.000393	3.930746	0.665886	0.000039
 221	2.1890e+01	2.1850	-7.955196	0.000344	3.439402	0.582651	0.000034
 222	2.1989e+01	2.1938	-7.917314	0.000381	3.807910	0.645077	0.000038
 223	2.2089e+01	2.2034	-7.879431	0.000381	3.807910	0.645077	0.000038
 224	2.2189e+01	2.2143	-7.844807	0.000348	3.480348	0.589587	0.000035
 225	2.2288e+01	2.2247	-7.812626	0.000323	3.234676	0.547969	0.000032
 226	2.2387e+01	2.2365	-7.770670	0.000422	4.217363	0.714441	0.000042
 227	2.2487e+01	2.2466	-7.738083	0.000328	3.275621	0.554905	0.000033
 228	2.2587e+01	2.2517	-7.700200	0.000381	3.807910	0.645077	0.000038
 229	2.2686e+01	2.2628	-7.665576	0.000348	3.480348	0.589587	0.000035
 230	2.2785e+01	2.2775	-7.626878	0.000389	3.889800	0.658950	0.000039
 231	2.2885e+01	2.2833	-7.591847	0.000352	3.521293	0.596523	0.000035
 232	2.2985e+01	2.2950	-7.556001	0.000360	3.603184	0.610396	0.000036
 233	2.3084e+01	2.3055	-7.521784	0.000344	3.439402	0.582651	0.000034
 234	2.3183e+01	2.3113	-7.486345	0.000356	3.562238	0.603459	0.000036
 235	2.3283e+01	2.3254	-7.447240	0.000393	3.930746	0.665886	0.000039
 236	2.3383e+01	2.3367	-7.415467	0.000319	3.193731	0.541033	0.000032
 237	2.3482e+01	2.3484	-7.373511	0.000422	4.217363	0.714441	0.000042
 238	2.3581e+01	2.3562	-7.339294	0.000344	3.439402	0.582651	0.000034
 239	2.3681e+01	2.3633	-7.307114	0.000323	3.234676	0.547969	0.000032
 240	2.3780e+01	2.3737	-7.269232	0.000381	3.807910	0.645077	0.000038
 241	2.3880e+01	2.3862	-7.230127	0.000393	3.930746	0.665886	0.000039
 242	2.3980e+01	2.3934	-7.197947	0.000323	3.234676	0.547969	0.000032
 243	2.4079e+01	2.4065	-7.157620	0.000405	4.053581	0.686695	0.000041
 244	2.4178e+01	2.4139	-7.123403	0.000344	3.439402	0.582651	0.000034
 245	2.4278e+01	2.4215	-7.088371	0.000352	3.521293	0.596523	0.000035
 246	2.4378e+01	2.4342	-7.049267	0.000393	3.930746	0.665886	0.000039
 247	2.4477e+01	2.4470	-7.017494	0.000319	3.193731	0.541033	0.000032
 248	2.4576e+01	2.4519	-6.980426	0.000373	3.726019	0.631205	0.000037
 249	2.4676e+01	2.4648	-6.947024	0.000336	3.357512	0.568778	0.000034
 250	2.4776e+01	2.4746	-6.908733	0.000385	3.848855	0.652014	0.000038
 251	2.4875e+01	2.4844	-6.876146	0.000328	3.275621	0.554905	0.000033
 252	2.4974e+01	2.4928	-6.841929	0.000344	3.439402	0.582651	0.000034
 253	2.5074e+01	2.5028	-6.804861	0.000373	3.726019	0.631205	0.000037
 254	2.5174e+01	2.5130	-6.772274	0.000328	3.275621	0.554905	0.000033
 255	2.5273e+01	2.5237	-6.733983	0.000385	3.848855	0.652014	0.000038
 256	2.5372e+01	2.5348	-6.695693	0.000385	3.848855	0.652014	0.000038
 257	2.5472e+01	2.5417	-6.663920	0.000319	3.193731	0.541033	0.000032
 258	2.5572e+01	2.5537	-6.624408	0.000397	3.971691	0.672823	0.000040
 259	2.5671e+01	2.5626	-6.588562	0.000360	3.603184	0.610396	0.000036
 260	2.5770e+01	2.5734	-6.554753	0.000340	3.398457	0.575714	0.000034
 261	2.5870e+01	2.5805	-6.520536	0.000344	3.439402	0.582651	0.000034
 262	2.5970e+01	2.5918	-6.487948	0.000328	3.275621	0.554905	0.000033
 263	2.6069e+01	2.6080	-6.452917	0.000352	3.521293	0.596523	0.000035
 264	2.6169e+01	2.6114	-6.416256	0.000369	3.685074	0.624268	0.000037
 265	2.6268e+01	2.6215	-6.381225	0.000352	3.521293	0.596523	0.000035
 266	2.6367e+01	2.6325	-6.345786	0.000356	3.562238	0.603459	0.000036
 267	2.6467e+01	2.6433	-6.313199	0.000328	3.275621	0.554905	0.000033
 268	2.6567e+01	2.6508	-6.277352	0.000360	3.603184	0.610396	0.000036
 269	2.6666e+01	2.6617	-6.241914	0.000356	3.562238	0.603459	0.000036
 270	2.6765e+01	2.6725	-6.205253	0.000369	3.685074	0.624268	0.000037
 271	2.6865e+01	2.6846	-6.169407	0.000360	3.603184	0.610396	0.000036
 272	2.6965e+01	2.6936	-6.131931	0.000377	3.766965	0.638141	0.000038
 273	2.7064e+01	2.7044	-6.094863	0.000373	3.726019	0.631205	0.000037
 274	2.7163e+01	2.7102	-6.061053	0.000340	3.398457	0.575714	0.000034
 275	2.7263e+01	2.7253	-6.022763	0.000385	3.848855	0.652014	0.000038
 276	2.7363e+01	2.7323	-5.980400	0.000426	4.258308	0.721377	0.000043
 277	2.7462e+01	2.7435	-5.950664	0.000299	2.989005	0.506351	0.000030
 278	2.7561e+01	2.7518	-5.913188	0.000377	3.766965	0.638141	0.000038
 279	2.7661e+01	2.7595	-5.875305	0.000381	3.807910	0.645077	0.000038
 280	2.7761e+01	2.7740	-5.843533	0.000319	3.193731	0.541033	0.000032
 281	2.7860e+01	2.7819	-5.810130	0.000336	3.357512	0.568778	0.000034
 282	2.7959e+01	2.7930	-5.779580	0.000307	3.070895	0.520224	0.000031
 283	2.8059e+01	2.8014	-5.740068	0.000397	3.971691	0.672823	0.000040
 284	2.8159e+01	2.8118	-5.703407	0.000369	3.685074	0.624268	0.000037
 285	2.8258e+01	2.8242	-5.670819	0.000328	3.275621	0.554905	0.000033
 286	2.8358e+01	2.8315	-5.636603	0.000344	3.439402	0.582651	0.000034
 287	2.8457e+01	2.8420	-5.601164	0.000356	3.562238	0.603459	0.000036
 288	2.8556e+01	2.8522	-5.560429	0.000409	4.094527	0.693632	0.000041
 289	2.8656e+01	2.8626	-5.529064	0.000315	3.152786	0.534096	0.000032
 290	2.8756e+01	2.8695	-5.493625	0.000356	3.562238	0.603459	0.000036
 291	2.8855e+01	2.8814	-5.461445	0.000323	3.234676	0.547969	0.000032
 292	2.8954e+01	2.8941	-5.429673	0.000319	3.193731	0.541033	0.000032
 293	2.9054e+01	2.9030	-5.396678	0.000332	3.316567	0.561842	0.000033
 294	2.9154e+01	2.9095	-5.362868	0.000340	3.398457	0.575714	0.000034
 295	2.9253e+01	2.9234	-5.333132	0.000299	2.989005	0.506351	0.000030
 296	2.9352e+01	2.9321	-5.297286	0.000360	3.603184	0.610396	0.000036
 297	2.9452e+01	2.9435	-5.266736	0.000307	3.070895	0.520224	0.000031
 298	2.9552e+01	2.9501	-5.233741	0.000332	3.316567	0.561842	0.000033
 299	2.9651e+01	2.9591	-5.198709	0.000352	3.521293	0.596523	0.000035
 300	2.9750e+01	2.9694	-5.168159	0.000307	3.070895	0.520224	0.000031
 301	2.9850e+01	2.9784	-5.129461	0.000389	3.889800	0.658950	0.000039
 302	2.9950e+01	2.9919	-5.100947	0.000287	2.866169	0.485542	0.000029
 303	3.0049e+01	3.0010	-5.063064	0.000381	3.807910	0.645077	0.000038
 304	3.0148e+01	3.0090	-5.026811	0.000364	3.644129	0.617332	0.000036
 305	3.0248e+01	3.0219	-4.993409	0.000336	3.357512	0.568778	0.000034
 306	3.0348e+01	3.0317	-4.958377	0.000352	3.521293	0.596523	0.000035
 307	3.0447e+01	3.0398	-4.925790	0.000328	3.275621	0.554905	0.000033
 308	3.0547e+01	3.0511	-4.894017	0.000319	3.193731	0.541033	0.000032
 309	3.0646e+01	3.0598	-4.858578	0.000356	3.562238	0.603459	0.000036
 310	3.0745e+01	3.0724	-4.823954	0.000348	3.480348	0.589587	0.000035
 311	3.0845e+01	3.0787	-4.790959	0.000332	3.316567	0.561842	0.000033
 312	3.0945e+01	3.0911	-4.754706	0.000364	3.644129	0.617332	0.000036
 313	3.1044e+01	3.1003	-4.723748	0.000311	3.111840	0.527160	0.000031
 314	3.1143e+01	3.1110	-4.688716	0.000352	3.521293	0.596523	0.000035
 315	3.1243e+01	3.1223	-4.654092	0.000348	3.480348	0.589587	0.000035
 316	3.1343e+01	3.1294	-4.620690	0.000336	3.357512	0.568778	0.000034
 317	3.1442e+01	3.1397	-4.586881	0.000340	3.398457	0.575714	0.000034
 318	3.1541e+01	3.1524	-4.553886	0.000332	3.316567	0.561842	0.000033
 319	3.1641e+01	3.1605	-4.518040	0.000360	3.603184	0.610396	0.000036
 320	3.1741e+01	3.1697	-4.483823	0.000344	3.439402	0.582651	0.000034
 321	3.1840e+01	3.1805	-4.452050	0.000319	3.193731	0.541033	0.000032
 322	3.1939e+01	3.1910	-4.418648	0.000336	3.357512	0.568778	0.000034
 323	3.2039e+01	3.2000	-4.385246	0.000336	3.357512	0.568778	0.000034
 324	3.2139e+01	3.2100	-4.347771	0.000377	3.766965	0.638141	0.000038
 325	3.2238e+01	3.2214	-4.315591	0.000323	3.234676	0.547969	0.000032
 326	3.2337e+01	3.2298	-4.276486	0.000393	3.930746	0.665886	0.000039
 327	3.2437e+01	3.2395	-4.248379	0.000283	2.825223	0.478606	0.000028
 328	3.2536e+01	3.2484	-4.215384	0.000332	3.316567	0.561842	0.000033
 329	3.2636e+01	3.2592	-4.181168	0.000344	3.439402	0.582651	0.000034
 330	3.2736e+01	3.2707	-4.151432	0.000299	2.989005	0.506351	0.000030
 331	3.2835e+01	3.2771	-4.118844	0.000328	3.275621	0.554905	0.000033
 332	3.2934e+01	3.2879	-4.077703	0.000414	4.135472	0.700568	0.000041
 333	3.3034e+01	3.2942	-4.043893	0.000340	3.398457	0.575714	0.000034
 334	3.3133e+01	3.3112	-4.014157	0.000299	2.989005	0.506351	0.000030
 335	3.3233e+01	3.3196	-3.976682	0.000377	3.766965	0.638141	0.000038
 336	3.3333e+01	3.3289	-3.940836	0.000360	3.603184	0.610396	0.000036
 337	3.3432e+01	3.3378	-3.908248	0.000328	3.275621	0.554905	0.000033
 338	3.3532e+01	3.3492	-3.876068	0.000323	3.234676	0.547969	0.000032
 339	3.3631e+01	3.3585	-3.843073	0.000332	3.316567	0.561842	0.000033
 340	3.3730e+01	3.3672	-3.806820	0.000364	3.644129	0.617332	0.000036
 341	3.3830e+01	3.3782	-3.775047	0.000319	3.193731	0.541033	0.000032
 342	3.3929e+01	3.3898	-3.742867	0.000323	3.234676	0.547969	0.000032
 343	3.4029e+01	3.4011	-3.708650	0.000344	3.439402	0.582651	0.000034
 344	3.4129e+01	3.4101	-3.676470	0.000323	3.234676	0.547969	0.000032
 345	3.4228e+01	3.4194	-3.642253	0.000344	3.439402	0.582651	0.000034
 346	3.4328e+01	3.4286	-3.606815	0.000356	3.562238	0.603459	0.000036
 347	3.4427e+01	3.4385	-3.573820	0.000332	3.316567	0.561842	0.000033
 348	3.4526e+01	3.4483	-3.536344	0.000377	3.766965	0.638141	0.000038
 349	3.4626e+01	3.4579	-3.505386	0.000311	3.111840	0.527160	0.000031
 350	3.4725e+01	3.4684	-3.475243	0.000303	3.029950	0.513287	0.000030
 351	3.4825e+01	3.4798	-3.439397	0.000360	3.603184	0.610396	0.000036
 352	3.4925e+01	3.4892	-3.405587	0.000340	3.398457	0.575714	0.000034
 353	3.5024e+01	3.5013	-3.372593	0.000332	3.316567	0.561842	0.000033
 354	3.5123e+01	3.5104	-3.340820	0.000319	3.193731	0.541033	0.000032
 355	3.5223e+01	3.5195	-3.307011	0.000340	3.398457	0.575714	0.000034
 356	3.5322e+01	3.5298	-3.274016	0.000332	3.316567	0.561842	0.000033
 357	3.5422e+01	3.5376	-3.246316	0.000278	2.784278	0.471669	0.000028
 358	3.5522e+01	3.5470	-3.213729	0.000328	3.275621	0.554905	0.000033
 359	3.5621e+01	3.5610	-3.181956	0.000319	3.193731	0.541033	0.000032
 360	3.5721e+01	3.5674	-3.150184	0.000319	3.193731	0.541033	0.000032
 361	3.5820e+01	3.5792	-3.118004	0.000323	3.234676	0.547969	0.000032
 362	3.5919e+01	3.5889	-3.084194	0.000340	3.398457	0.575714	0.000034
 363	3.6019e+01	3.5979	-3.054458	0.000299	2.989005	0.506351	0.000030
 364	3.6118e+01	3.6071	-3.016983	0.000377	3.766965	0.638141	0.000038
 365	3.6218e+01	3.6163	-2.983988	0.000332	3.316567	0.561842	0.000033
 366	3.6318e+01	3.6260	-2.949364	0.000348	3.480348	0.589587	0.000035
 367	3.6417e+01	3.6370	-2.919220	0.000303	3.029950	0.513287	0.000030
 368	3.6517e+01	3.6510	-2.882967	0.000364	3.644129	0.617332	0.000036
 369	3.6616e+01	3.6595	-2.851194	0.000319	3.193731	0.541033	0.000032
 370	3.6715e+01	3.6704	-2.819421	0.000319	3.193731	0.541033	0.000032
 371	3.6815e+01	3.6794	-2.788056	0.000315	3.152786	0.534096	0.000032
 372	3.6914e+01	3.6871	-2.755469	0.000328	3.275621	0.554905	0.000033
 373	3.7014e+01	3.6990	-2.723289	0.000323	3.234676	0.547969	0.000032
 374	3.7114e+01	3.7094	-2.684591	0.000389	3.889800	0.658950	0.000039
 375	3.7213e+01	3.7171	-2.652411	0.000323	3.234676	0.547969	0.000032
 376	3.7313e+01	3.7295	-2.618602	0.000340	3.398457	0.575714	0.000034
 377	3.7412e+01	3.7381	-2.582348	0.000364	3.644129	0.617332	0.000036
 378	3.7511e+01	3.7482	-2.550575	0.000319	3.193731	0.541033	0.000032
 379	3.7611e+01	3.7591	-2.513507	0.000373	3.726019	0.631205	0.000037
 380	3.7711e+01	3.7657	-2.480105	0.000336	3.357512	0.568778	0.000034
 381	3.7810e+01	3.7771	-2.446296	0.000340	3.398457	0.575714	0.000034
 382	3.7910e+01	3.7875	-2.413301	0.000332	3.316567	0.561842	0.000033
 383	3.8009e+01	3.7983	-2.376233	0.000373	3.726019	0.631205	0.000037
 384	3.8108e+01	3.8049	-2.345275	0.000311	3.111840	0.527160	0.000031
 385	3.8208e+01	3.8142	-2.311058	0.000344	3.439402	0.582651	0.000034
 386	3.8307e+01	3.8268	-2.275619	0.000356	3.562238	0.603459	0.000036
 387	3.8407e+01	3.8393	-2.243032	0.000328	3.275621	0.554905	0.000033
 388	3.8507e+01	3.8482	-2.211259	0.000319	3.193731	0.541033	0.000032
 389	3.8606e+01	3.8580	-2.174598	0.000369	3.685074	0.624268	0.000037
 390	3.8706e+01	3.8678	-2.144862	0.000299	2.989005	0.506351	0.000030
 391	3.8805e+01	3.8781	-2.109831	0.000352	3.521293	0.596523	0.000035
 392	3.8904e+01	3.8885	-2.078873	0.000311	3.111840	0.527160	0.000031
 393	3.9004e+01	3.8971	-2.045063	0.000340	3.398457	0.575714	0.000034
 394	3.9103e+01	3.9083	-2.008402	0.000369	3.685074	0.624268	0.000037
 395	3.9203e+01	3.9149	-1.979888	0.000287	2.866169	0.485542	0.000029
 396	3.9303e+01	3.9268	-1.946486	0.000336	3.357512	0.568778	0.000034
 397	3.9402e+01	3.9379	-1.918380	0.000283	2.825223	0.478606	0.000028
 398	3.9502e+01	3.9468	-1.883348	0.000352	3.521293	0.596523	0.000035
 399	3.9601e+01	3.9559	-1.847502	0.000360	3.603184	0.610396	0.000036
 400	3.9700e+01	3.9678	-1.814915	0.000328	3.275621	0.554905	0.000033
 401	3.9800e+01	3.9742	-1.784364	0.000307	3.070895	0.520224	0.000031
 402	3.9900e+01	3.9846	-1.749740	0.000348	3.480348	0.589587	0.000035
 403	3.9999e+01	3.9983	-1.717153	0.000328	3.275621	0.554905	0.000033
 404	4.0099e+01	4.0073	-1.686602	0.000307	3.070895	0.520224	0.000031
 405	4.0198e+01	4.0159	-1.657273	0.000295	2.948059	0.499415	0.000029
 406	4.0297e+01	4.0232	-1.623056	0.000344	3.439402	0.582651	0.000034
 407	4.0397e+01	4.0374	-1.588025	0.000352	3.521293	0.596523	0.000035
 408	4.0496e+01	4.0472	-1.554216	0.000340	3.398457	0.575714	0.000034
 409	4.0596e+01	4.0565	-1.524072	0.000303	3.029950	0.513287	0.000030
 410	4.0696e+01	4.0659	-1.491077	0.000332	3.316567	0.561842	0.000033
 411	4.0795e+01	4.0752	-1.455639	0.000356	3.562238	0.603459	0.000036
 412	4.0895e+01	4.0858	-1.423459	0.000323	3.234676	0.547969	0.000032
 413	4.0994e+01	4.0945	-1.388427	0.000352	3.521293	0.596523	0.000035
 414	4.1093e+01	4.1062	-1.357469	0.000311	3.111840	0.527160	0.000031
 415	4.1193e+01	4.1167	-1.323660	0.000340	3.398457	0.575714	0.000034
 416	4.1292e+01	4.1248	-1.294738	0.000291	2.907114	0.492478	0.000029
 417	4.1392e+01	4.1349	-1.261336	0.000336	3.357512	0.568778	0.000034
 418	4.1492e+01	4.1454	-1.232822	0.000287	2.866169	0.485542	0.000029
 419	4.1591e+01	4.1544	-1.198605	0.000344	3.439402	0.582651	0.000034
 420	4.1691e+01	4.1660	-1.166833	0.000319	3.193731	0.541033	0.000032
 421	4.1790e+01	4.1740	-1.134245	0.000328	3.275621	0.554905	0.000033
 422	4.1889e+01	4.1828	-1.101658	0.000328	3.275621	0.554905	0.000033
 423	4.1989e+01	4.1965	-1.072329	0.000295	2.948059	0.499415	0.000029
 424	4.2089e+01	4.2027	-1.038927	0.000336	3.357512	0.568778	0.000034
 425	4.2188e+01	4.2122	-1.007969	0.000311	3.111840	0.527160	0.000031
 426	4.2288e+01	4.2257	-0.970494	0.000377	3.766965	0.638141	0.000038
 427	4.2387e+01	4.2376	-0.941165	0.000295	2.948059	0.499415	0.000029
 428	4.2486e+01	4.2440	-0.910614	0.000307	3.070895	0.520224	0.000031
 429	4.2586e+01	4.2553	-0.875990	0.000348	3.480348	0.589587	0.000035
 430	4.2685e+01	4.2664	-0.847476	0.000287	2.866169	0.485542	0.000029
 431	4.2785e+01	4.2742	-0.814074	0.000336	3.357512	0.568778	0.000034
 432	4.2885e+01	4.2867	-0.781487	0.000328	3.275621	0.554905	0.000033
 433	4.2984e+01	4.2947	-0.748899	0.000328	3.275621	0.554905	0.000033
 434	4.3084e+01	4.3055	-0.717941	0.000311	3.111840	0.527160	0.000031
 435	4.3183e+01	4.3153	-0.690242	0.000278	2.784278	0.471669	0.000028
 436	4.3282e+01	4.3249	-0.655618	0.000348	3.480348	0.589587	0.000035
 437	4.3382e+01	4.3368	-0.627104	0.000287	2.866169	0.485542	0.000029
 438	4.3481e+01	4.3449	-0.591258	0.000360	3.603184	0.610396	0.000036
 439	4.3581e+01	4.3545	-0.557041	0.000344	3.439402	0.582651	0.000034
 440	4.3681e+01	4.3624	-0.526083	0.000311	3.111840	0.527160	0.000031
 441	4.3780e+01	4.3734	-0.489829	0.000364	3.644129	0.617332	0.000036
 442	4.3880e+01	4.3820	-0.456835	0.000332	3.316567	0.561842	0.000033
 443	4.3979e+01	4.3946	-0.423025	0.000340	3.398457	0.575714	0.000034
 444	4.4078e+01	4.4036	-0.390030	0.000332	3.316567	0.561842	0.000033
 445	4.4178e+01	4.4151	-0.360702	0.000295	2.948059	0.499415	0.000029
 446	4.4278e+01	4.4231	-0.325670	0.000352	3.521293	0.596523	0.000035
 447	4.4377e+01	4.4343	-0.295120	0.000307	3.070895	0.520224	0.000031
 448	4.4477e+01	4.4447	-0.263347	0.000319	3.193731	0.541033	0.000032
 449	4.4576e+01	4.4537	-0.232389	0.000311	3.111840	0.527160	0.000031
 450	4.4675e+01	4.4642	-0.202653	0.000299	2.989005	0.506351	0.000030
 451	4.4775e+01	4.4750	-0.174139	0.000287	2.866169	0.485542	0.000029
 452	4.4874e+01	4.4846	-0.139922	0.000344	3.439402	0.582651	0.000034
 453	4.4974e+01	4.4934	-0.110186	0.000299	2.989005	0.506351	0.000030
 454	4.5074e+01	4.5028	-0.076784	0.000336	3.357512	0.568778	0.000034
 455	4.5173e+01	4.5139	-0.042975	0.000340	3.398457	0.575714	0.000034
 456	4.5273e+01	4.5254	-0.011202	0.000319	3.193731	0.541033	0.000032
 457	4.5372e+01	4.5330	0.018534	0.000299	2.989005	0.506351	0.000030
 458	4.5471e+01	4.5427	0.051121	0.000328	3.275621	0.554905	0.000033
 459	4.5571e+01	4.5560	0.082487	0.000315	3.152786	0.534096	0.000032
 460	4.5670e+01	4.5615	0.108557	0.000262	2.620497	0.443924	0.000026
 461	4.5770e+01	4.5739	0.137885	0.000295	2.948059	0.499415	0.000029
 462	4.5870e+01	4.5818	0.168843	0.000311	3.111840	0.527160	0.000031
 463	4.5969e+01	4.5927	0.196950	0.000283	2.825223	0.478606	0.000028
 464	4.6069e+01	4.6035	0.228316	0.000315	3.152786	0.534096	0.000032
 465	4.6168e+01	4.6129	0.256829	0.000287	2.866169	0.485542	0.000029
 466	4.6267e+01	4.6241	0.286158	0.000295	2.948059	0.499415	0.000029
 467	4.6367e+01	4.6329	0.317116	0.000311	3.111840	0.527160	0.000031
 468	4.6467e+01	4.6432	0.346852	0.000299	2.989005	0.506351	0.000030
 469	4.6566e+01	4.6517	0.383106	0.000364	3.644129	0.617332	0.000036
 470	4.6666e+01	4.6658	0.407139	0.000242	2.415771	0.409243	0.000024
 471	4.6765e+01	4.6732	0.437282	0.000303	3.029950	0.513287	0.000030
 472	4.6864e+01	4.6838	0.471906	0.000348	3.480348	0.589587	0.000035
 473	4.6964e+01	4.6926	0.501235	0.000295	2.948059	0.499415	0.000029
 474	4.7063e+01	4.7032	0.530564	0.000295	2.948059	0.499415	0.000029
 475	4.7163e+01	4.7124	0.561929	0.000315	3.152786	0.534096	0.000032
 476	4.7263e+01	4.7237	0.593294	0.000315	3.152786	0.534096	0.000032
 477	4.7362e+01	4.7332	0.620586	0.000274	2.743333	0.464733	0.000027
 478	4.7462e+01	4.7437	0.653581	0.000332	3.316567	0.561842	0.000033
 479	4.7561e+01	4.7538	0.686169	0.000328	3.275621	0.554905	0.000033
 480	4.7660e+01	4.7634	0.713053	0.000270	2.702388	0.457797	0.000027
 481	4.7760e+01	4.7755	0.744011	0.000311	3.111840	0.527160	0.000031
 482	4.7859e+01	4.7826	0.775784	0.000319	3.193731	0.541033	0.000032
 483	4.7959e+01	4.7927	0.804298	0.000287	2.866169	0.485542	0.000029
 484	4.8059e+01	4.8003	0.838515	0.000344	3.439402	0.582651	0.000034
 485	4.8158e+01	4.8121	0.869473	0.000311	3.111840	0.527160	0.000031
 486	4.8258e+01	4.8217	0.898801	0.000295	2.948059	0.499415	0.000029
 487	4.8357e+01	4.8335	0.928537	0.000299	2.989005	0.506351	0.000030
 488	4.8456e+01	4.8418	0.961939	0.000336	3.357512	0.568778	0.000034
 489	4.8556e+01	4.8527	0.989639	0.000278	2.784278	0.471669	0.000028
 490	4.8656e+01	4.8604	1.022226	0.000328	3.275621	0.554905	0.000033
 491	4.8755e+01	4.8743	1.051147	0.000291	2.907114	0.492478	0.000029
 492	4.8855e+01	4.8820	1.080883	0.000299	2.989005	0.506351	0.000030
 493	4.8954e+01	4.8940	1.111841	0.000311	3.111840	0.527160	0.000031
 494	4.9053e+01	4.9001	1.139541	0.000278	2.784278	0.471669	0.000028
 495	4.9153e+01	4.9114	1.170499	0.000311	3.111840	0.527160	0.000031
 496	4.9252e+01	4.9244	1.202679	0.000323	3.234676	0.547969	0.000032
 497	4.9352e+01	4.9319	1.230786	0.000283	2.825223	0.478606	0.000028
 498	4.9452e+01	4.9412	1.260114	0.000295	2.948059	0.499415	0.000029
 499	4.9551e+01	4.9533	1.290665	0.000307	3.070895	0.520224	0.000031
 500	4.9651e+01	4.9630	1.321623	0.000311	3.111840	0.527160	0.000031
 501	4.9750e+01	4.9722	1.348508	0.000270	2.702388	0.457797	0.000027
 502	4.9849e+01	4.9850	1.385168	0.000369	3.685074	0.624268	0.000037
 503	4.9949e+01	4.9940	1.413275	0.000283	2.825223	0.478606	0.000028
 504	5.0048e+01	5.0030	1.446270	0.000332	3.316567	0.561842	0.000033
 505	5.0148e+01	5.0098	1.476413	0.000303	3.029950	0.513287	0.000030
 506	5.0248e+01	5.0215	1.507778	0.000315	3.152786	0.534096	0.000032
 507	5.0347e+01	5.0318	1.536292	0.000287	2.866169	0.485542	0.000029
 508	5.0447e+01	5.0430	1.566436	0.000303	3.029950	0.513287	0.000030
 509	5.0546e+01	5.0506	1.596986	0.000307	3.070895	0.520224	0.000031
 510	5.0645e+01	5.0620	1.626722	0.000299	2.989005	0.506351	0.000030
 511	5.0745e+01	5.0710	1.655236	0.000287	2.866169	0.485542	0.000029
 512	5.0844e+01	5.0784	1.687009	0.000319	3.193731	0.541033	0.000032
 513	5.0944e+01	5.0925	1.717560	0.000307	3.070895	0.520224	0.000031
 514	5.1044e+01	5.1002	1.744444	0.000270	2.702388	0.457797	0.000027
 515	5.1143e+01	5.1104	1.774180	0.000299	2.989005	0.506351	0.000030
 516	5.1242e+01	5.1195	1.809212	0.000352	3.521293	0.596523	0.000035
 517	5.1342e+01	5.1334	1.841392	0.000323	3.234676	0.547969	0.000032
 518	5.1441e+01	5.1420	1.866240	0.000250	2.497661	0.423115	0.000025
 519	5.1541e+01	5.1510	1.899642	0.000336	3.357512	0.568778	0.000034
 520	5.1641e+01	5.1638	1.928563	0.000291	2.907114	0.492478	0.000029
 521	5.1740e+01	5.1705	1.955855	0.000274	2.743333	0.464733	0.000027
 522	5.1840e+01	5.1810	1.991294	0.000356	3.562238	0.603459	0.000036
 523	5.1939e+01	5.1922	2.018179	0.000270	2.702388	0.457797	0.000027
 524	5.2038e+01	5.2015	2.045063	0.000270	2.702388	0.457797	0.000027
 525	5.2138e+01	5.2105	2.070319	0.000254	2.538607	0.430052	0.000025
 526	5.2237e+01	5.2217	2.101684	0.000315	3.152786	0.534096	0.000032
 527	5.2337e+01	5.2285	2.131827	0.000303	3.029950	0.513287	0.000030
 528	5.2437e+01	5.2407	2.158305	0.000266	2.661442	0.450861	0.000027
 529	5.2536e+01	5.2501	2.185189	0.000270	2.702388	0.457797	0.000027
 530	5.2636e+01	5.2608	2.215740	0.000307	3.070895	0.520224	0.000031
 531	5.2735e+01	5.2696	2.244661	0.000291	2.907114	0.492478	0.000029
 532	5.2834e+01	5.2783	2.273990	0.000295	2.948059	0.499415	0.000029
 533	5.2934e+01	5.2898	2.306577	0.000328	3.275621	0.554905	0.000033
 534	5.3033e+01	5.2994	2.336721	0.000303	3.029950	0.513287	0.000030
 535	5.3133e+01	5.3088	2.363198	0.000266	2.661442	0.450861	0.000027
 536	5.3233e+01	5.3213	2.398229	0.000352	3.521293	0.596523	0.000035
 537	5.3332e+01	5.3280	2.423892	0.000258	2.579552	0.436988	0.000026
 538	5.3431e+01	5.3391	2.455665	0.000319	3.193731	0.541033	0.000032
 539	5.3531e+01	5.3475	2.484179	0.000287	2.866169	0.485542	0.000029
 540	5.3630e+01	5.3632	2.513100	0.000291	2.907114	0.492478	0.000029
 541	5.3730e+01	5.3696	2.547317	0.000344	3.439402	0.582651	0.000034
 542	5.3830e+01	5.3794	2.576238	0.000291	2.907114	0.492478	0.000029
 543	5.3929e+01	5.3887	2.606789	0.000307	3.070895	0.520224	0.000031
 544	5.4029e+01	5.4003	2.638154	0.000315	3.152786	0.534096	0.000032
 545	5.4128e+01	5.4079	2.669519	0.000315	3.152786	0.534096	0.000032
 546	5.4227e+01	5.4189	2.700885	0.000315	3.152786	0.534096	0.000032
 547	5.4327e+01	5.4304	2.731843	0.000311	3.111840	0.527160	0.000031
 548	5.4426e+01	5.4366	2.767282	0.000356	3.562238	0.603459	0.000036
 549	5.4526e+01	5.4467	2.796203	0.000291	2.907114	0.492478	0.000029
 550	5.4626e+01	5.4566	2.825124	0.000291	2.907114	0.492478	0.000029
 551	5.4725e+01	5.4707	2.856490	0.000315	3.152786	0.534096	0.000032
 552	5.4825e+01	5.4783	2.887855	0.000315	3.152786	0.534096	0.000032
 553	5.4924e+01	5.4920	2.916776	0.000291	2.907114	0.492478	0.000029
 554	5.5023e+01	5.4993	2.946105	0.000295	2.948059	0.499415	0.000029
 555	5.5123e+01	5.5112	2.972990	0.000270	2.702388	0.457797	0.000027
 556	5.5222e+01	5.5169	3.004762	0.000319	3.193731	0.541033	0.000032
 557	5.5322e+01	5.5276	3.035720	0.000311	3.111840	0.527160	0.000031
 558	5.5422e+01	5.5376	3.067086	0.000315	3.152786	0.534096	0.000032
 559	5.5521e+01	5.5473	3.094378	0.000274	2.743333	0.464733	0.000027
 560	5.5620e+01	5.5567	3.121670	0.000274	2.743333	0.464733	0.000027
 561	5.5720e+01	5.5693	3.153442	0.000319	3.193731	0.541033	0.000032
 562	5.5819e+01	5.5769	3.183178	0.000299	2.989005	0.506351	0.000030
 563	5.5919e+01	5.5898	3.212507	0.000295	2.948059	0.499415	0.000029
 564	5.6019e+01	5.6005	3.241836	0.000295	2.948059	0.499415	0.000029
 565	5.6118e+01	5.6098	3.272794	0.000311	3.111840	0.527160	0.000031
 566	5.6218e+01	5.6194	3.301308	0.000287	2.866169	0.485542	0.000029
 567	5.6317e+01	5.6285	3.328192	0.000270	2.702388	0.457797	0.000027
 568	5.6416e+01	5.6384	3.356299	0.000283	2.825223	0.478606	0.000028
 569	5.6516e+01	5.6506	3.391738	0.000356	3.562238	0.603459	0.000036
 570	5.6615e+01	5.6579	3.419844	0.000283	2.825223	0.478606	0.000028
 571	5.6715e+01	5.6705	3.448766	0.000291	2.907114	0.492478	0.000029
 572	5.6815e+01	5.6774	3.479316	0.000307	3.070895	0.520224	0.000031
 573	5.6914e+01	5.6882	3.505386	0.000262	2.620497	0.443924	0.000026
 574	5.7014e+01	5.7005	3.533493	0.000283	2.825223	0.478606	0.000028
 575	5.7113e+01	5.7073	3.563229	0.000299	2.989005	0.506351	0.000030
 576	5.7212e+01	5.7189	3.598260	0.000352	3.521293	0.596523	0.000035
 577	5.7312e+01	5.7269	3.624330	0.000262	2.620497	0.443924	0.000026
 578	5.7411e+01	5.7363	3.656103	0.000319	3.193731	0.541033	0.000032
 579	5.7511e+01	5.7468	3.682988	0.000270	2.702388	0.457797	0.000027
 580	5.7611e+01	5.7571	3.709058	0.000262	2.620497	0.443924	0.000026
 581	5.7710e+01	5.7687	3.740423	0.000315	3.152786	0.534096	0.000032
 582	5.7809e+01	5.7791	3.773010	0.000328	3.275621	0.554905	0.000033
 583	5.7909e+01	5.7885	3.801117	0.000283	2.825223	0.478606	0.000028
 584	5.8008e+01	5.7963	3.831260	0.000303	3.029950	0.513287	0.000030
 585	5.8108e+01	5.8065	3.860182	0.000291	2.907114	0.492478	0.000029
 586	5.8208e+01	5.8163	3.886252	0.000262	2.620497	0.443924	0.000026
 587	5.8307e+01	5.8289	3.916802	0.000307	3.070895	0.520224	0.000031
 588	5.8407e+01	5.8357	3.944502	0.000278	2.784278	0.471669	0.000028
 589	5.8506e+01	5.8466	3.972201	0.000278	2.784278	0.471669	0.000028
 590	5.8605e+01	5.8587	4.001530	0.000295	2.948059	0.499415	0.000029
 591	5.8705e+01	5.8665	4.031673	0.000303	3.029950	0.513287	0.000030
 592	5.8804e+01	5.8780	4.057743	0.000262	2.620497	0.443924	0.000026
 593	5.8904e+01	5.8869	4.090330	0.000328	3.275621	0.554905	0.000033
 594	5.9004e+01	5.8956	4.118030	0.000278	2.784278	0.471669	0.000028
 595	5.9103e+01	5.9057	4.148173	0.000303	3.029950	0.513287	0.000030
 596	5.9203e+01	5.9176	4.177909	0.000299	2.989005	0.506351	0.000030
 597	5.9302e+01	5.9283	4.206830	0.000291	2.907114	0.492478	0.000029
 598	5.9401e+01	5.9364	4.236974	0.000303	3.029950	0.513287	0.000030
 599	5.9501e+01	5.9454	4.262636	0.000258	2.579552	0.436988	0.000026
 600	5.9600e+01	5.9566	4.291965	0.000295	2.948059	0.499415	0.000029
 601	5.9700e+01	5.9643	4.320886	0.000291	2.907114	0.492478	0.000029
 602	5.9800e+01	5.9756	4.347771	0.000270	2.702388	0.457797	0.000027
 603	5.9899e+01	5.9901	4.373841	0.000262	2.620497	0.443924	0.000026
 604	5.9998e+01	5.9982	4.406428	0.000328	3.275621	0.554905	0.000033
 605	6.0098e+01	6.0065	4.431683	0.000254	2.538607	0.430052	0.000025
 606	6.0197e+01	6.0152	4.461012	0.000295	2.948059	0.499415	0.000029
 607	6.0297e+01	6.0275	4.491563	0.000307	3.070895	0.520224	0.000031
 608	6.0397e+01	6.0351	4.522521	0.000311	3.111840	0.527160	0.000031
 609	6.0496e+01	6.0477	4.554701	0.000323	3.234676	0.547969	0.000032
 610	6.0596e+01	6.0555	4.584029	0.000295	2.948059	0.499415	0.000029
 611	6.0695e+01	6.0696	4.614987	0.000311	3.111840	0.527160	0.000031
 612	6.0794e+01	6.0751	4.645538	0.000307	3.070895	0.520224	0.000031
 613	6.0894e+01	6.0843	4.675681	0.000303	3.029950	0.513287	0.000030
 614	6.0993e+01	6.0952	4.706640	0.000311	3.111840	0.527160	0.000031
 615	6.1093e+01	6.1047	4.732302	0.000258	2.579552	0.436988	0.000026
 616	6.1193e+01	6.1176	4.758372	0.000262	2.620497	0.443924	0.000026
 617	6.1292e+01	6.1272	4.786479	0.000283	2.825223	0.478606	0.000028
 618	6.1392e+01	6.1352	4.813363	0.000270	2.702388	0.457797	0.000027
 619	6.1491e+01	6.1449	4.842285	0.000291	2.907114	0.492478	0.000029
 620	6.1590e+01	6.1559	4.874057	0.000319	3.193731	0.541033	0.000032
 621	6.1690e+01	6.1648	4.900942	0.000270	2.702388	0.457797	0.000027
 622	6.1789e+01	6.1738	4.931493	0.000307	3.070895	0.520224	0.000031
 623	6.1889e+01	6.1855	4.959599	0.000283	2.825223	0.478606	0.000028
 624	6.1989e+01	6.1945	4.989335	0.000299	2.989005	0.506351	0.000030
 625	6.2088e+01	6.2081	5.011332	0.000221	2.211044	0.374561	0.000022
 626	6.2188e+01	6.2184	5.047178	0.000360	3.603184	0.610396	0.000036
 627	6.2287e+01	6.2261	5.072433	0.000254	2.538607	0.430052	0.000025
 628	6.2386e+01	6.2334	5.094837	0.000225	2.251990	0.381497	0.000023
 629	6.2486e+01	6.2446	5.118870	0.000242	2.415771	0.409243	0.000024
 630	6.2586e+01	6.2553	5.143311	0.000246	2.456716	0.416179	0.000025
 631	6.2685e+01	6.2664	5.173047	0.000299	2.989005	0.506351	0.000030
 632	6.2785e+01	6.2785	5.199117	0.000262	2.620497	0.443924	0.000026
 633	6.2884e+01	6.2864	5.227223	0.000283	2.825223	0.478606	0.000028
 634	6.2983e+01	6.2959	5.250849	0.000237	2.374826	0.402306	0.000024
 635	6.3083e+01	6.3018	5.276919	0.000262	2.620497	0.443924	0.000026
 636	6.3182e+01	6.3154	5.307877	0.000311	3.111840	0.527160	0.000031
 637	6.3282e+01	6.3268	5.335576	0.000278	2.784278	0.471669	0.000028
 638	6.3382e+01	6.3358	5.362868	0.000274	2.743333	0.464733	0.000027
 639	6.3481e+01	6.3461	5.392604	0.000299	2.989005	0.506351	0.000030
 640	6.3581e+01	6.3531	5.418267	0.000258	2.579552	0.436988	0.000026
 641	6.3680e+01	6.3652	5.447188	0.000291	2.907114	0.492478	0.000029
 642	6.3779e+01	6.3702	5.470407	0.000233	2.333880	0.395370	0.000023
 643	6.3879e+01	6.3860	5.502180	0.000319	3.193731	0.541033	0.000032
 644	6.3978e+01	6.3944	5.529879	0.000278	2.784278	0.471669	0.000028
 645	6.4078e+01	6.4019	5.555134	0.000254	2.538607	0.430052	0.000025
 646	6.4177e+01	6.4150	5.585277	0.000303	3.029950	0.513287	0.000030
 647	6.4277e+01	6.4227	5.613791	0.000287	2.866169	0.485542	0.000029
 648	6.4376e+01	6.4349	5.642713	0.000291	2.907114	0.492478	0.000029
 649	6.4476e+01	6.4425	5.666339	0.000237	2.374826	0.402306	0.000024
 650	6.4576e+01	6.4518	5.696075	0.000299	2.989005	0.506351	0.000030
 651	6.4675e+01	6.4635	5.724181	0.000283	2.825223	0.478606	0.000028
 652	6.4775e+01	6.4730	5.750658	0.000266	2.661442	0.450861	0.000027
 653	6.4874e+01	6.4825	5.778358	0.000278	2.784278	0.471669	0.000028
 654	6.4974e+01	6.4921	5.806464	0.000283	2.825223	0.478606	0.000028
 655	6.5073e+01	6.5022	5.835386	0.000291	2.907114	0.492478	0.000029
 656	6.5172e+01	6.5131	5.859826	0.000246	2.456716	0.416179	0.000025
 657	6.5272e+01	6.5273	5.892006	0.000323	3.234676	0.547969	0.000032
 658	6.5371e+01	6.5343	5.918891	0.000270	2.702388	0.457797	0.000027
 659	6.5471e+01	6.5455	5.944554	0.000258	2.579552	0.436988	0.000026
 660	6.5570e+01	6.5539	5.972660	0.000283	2.825223	0.478606	0.000028
 661	6.5670e+01	6.5633	6.001174	0.000287	2.866169	0.485542	0.000029
 662	6.5769e+01	6.5742	6.028873	0.000278	2.784278	0.471669	0.000028
 663	6.5869e+01	6.5826	6.050055	0.000213	2.129154	0.360688	0.000021
 664	6.5969e+01	6.5940	6.079791	0.000299	2.989005	0.506351	0.000030
 665	6.6068e+01	6.6031	6.107083	0.000274	2.743333	0.464733	0.000027
 666	6.6168e+01	6.6137	6.133153	0.000262	2.620497	0.443924	0.000026
 667	6.6267e+01	6.6241	6.161667	0.000287	2.866169	0.485542	0.000029
 668	6.6367e+01	6.6329	6.189774	0.000283	2.825223	0.478606	0.000028
 669	6.6466e+01	6.6428	6.216251	0.000266	2.661442	0.450861	0.000027
 670	6.6566e+01	6.6515	6.245987	0.000299	2.989005	0.506351	0.000030
 671	6.6665e+01	6.6616	6.274908	0.000291	2.907114	0.492478	0.000029
 672	6.6764e+01	6.6735	6.303015	0.000283	2.825223	0.478606	0.000028
 673	6.6864e+01	6.6848	6.328678	0.000258	2.579552	0.436988	0.000026
 674	6.6963e+01	6.6932	6.357599	0.000291	2.907114	0.492478	0.000029
 675	6.7063e+01	6.7010	6.384076	0.000266	2.661442	0.450861	0.000027
 676	6.7162e+01	6.7124	6.412590	0.000287	2.866169	0.485542	0.000029
 677	6.7262e+01	6.7229	6.441511	0.000291	2.907114	0.492478	0.000029
 678	6.7362e+01	6.7319	6.469211	0.000278	2.784278	0.471669	0.000028
 679	6.7461e+01	6.7434	6.492429	0.000233	2.333880	0.395370	0.000023
 680	6.7561e+01	6.7561	6.520943	0.000287	2.866169	0.485542	0.000029
 681	6.7660e+01	6.7619	6.547013	0.000262	2.620497	0.443924	0.000026
 682	6.7760e+01	6.7718	6.574712	0.000278	2.784278	0.471669	0.000028
 683	6.7859e+01	6.7817	6.603226	0.000287	2.866169	0.485542	0.000029
 684	6.7959e+01	6.7933	6.633370	0.000303	3.029950	0.513287	0.000030
 685	6.8058e+01	6.8031	6.656588	0.000233	2.333880	0.395370	0.000023
 686	6.8157e+01	6.8139	6.687954	0.000315	3.152786	0.534096	0.000032
 687	6.8257e+01	6.8224	6.716060	0.000283	2.825223	0.478606	0.000028
 688	6.8356e+01	6.8328	6.738872	0.000229	2.292935	0.388434	0.000023
 689	6.8456e+01	6.8436	6.770644	0.000319	3.193731	0.541033	0.000032
 690	6.8555e+01	6.8511	6.794270	0.000237	2.374826	0.402306	0.000024
 691	6.8655e+01	6.8629	6.819933	0.000258	2.579552	0.436988	0.000026
 692	6.8754e+01	6.8715	6.847632	0.000278	2.784278	0.471669	0.000028
 693	6.8854e+01	6.8864	6.871665	0.000242	2.415771	0.409243	0.000024
 694	6.8954e+01	6.8911	6.894476	0.000229	2.292935	0.388434	0.000023
 695	6.9053e+01	6.8998	6.919732	0.000254	2.538607	0.430052	0.000025
 696	6.9153e+01	6.9096	6.947838	0.000283	2.825223	0.478606	0.000028
 697	6.9252e+01	6.9204	6.973093	0.000254	2.538607	0.430052	0.000025
 698	6.9352e+01	6.9345	6.999978	0.000270	2.702388	0.457797	0.000027
 699	6.9451e+01	6.9456	7.027270	0.000274	2.743333	0.464733	0.000027
 700	6.9550e+01	6.9531	7.056599	0.000295	2.948059	0.499415	0.000029
 701	6.9650e+01	6.9598	7.087557	0.000311	3.111840	0.527160	0.000031
 702	6.9749e+01	6.9689	7.111183	0.000237	2.374826	0.402306	0.000024
 703	6.9849e+01	6.9793	7.140104	0.000291	2.907114	0.492478	0.000029
 704	6.9948e+01	6.9903	7.167396	0.000274	2.743333	0.464733	0.000027
 705	7.0048e+01	7.0000	7.193873	0.000266	2.661442	0.450861	0.000027
 706	7.0147e+01	7.0095	7.221165	0.000274	2.743333	0.464733	0.000027
 707	7.0247e+01	7.0220	7.244384	0.000233	2.333880	0.395370	0.000023
 708	7.0347e+01	7.0307	7.272490	0.000283	2.825223	0.478606	0.000028
 709	7.0446e+01	7.0432	7.303041	0.000307	3.070895	0.520224	0.000031
 710	7.0546e+01	7.0511	7.329926	0.000270	2.702388	0.457797	0.000027
 711	7.0645e+01	7.0617	7.359662	0.000299	2.989005	0.506351	0.000030
 712	7.0745e+01	7.0698	7.389398	0.000299	2.989005	0.506351	0.000030
 713	7.0844e+01	7.0847	7.417504	0.000283	2.825223	0.478606	0.000028
 714	7.0944e+01	7.0933	7.448055	0.000307	3.070895	0.520224	0.000031
 715	7.1043e+01	7.0989	7.475347	0.000274	2.743333	0.464733	0.000027
 716	7.1142e+01	7.1125	7.503861	0.000287	2.866169	0.485542	0.000029
 717	7.1242e+01	7.1197	7.529116	0.000254	2.538607	0.430052	0.000025
 718	7.1341e+01	7.1278	7.560889	0.000319	3.193731	0.541033	0.000032
 719	7.1441e+01	7.1394	7.590625	0.000299	2.989005	0.506351	0.000030
 720	7.1540e+01	7.1522	7.614658	0.000242	2.415771	0.409243	0.000024
 721	7.1640e+01	7.1598	7.645209	0.000307	3.070895	0.520224	0.000031
 722	7.1740e+01	7.1707	7.671279	0.000262	2.620497	0.443924	0.000026
 723	7.1839e+01	7.1806	7.698163	0.000270	2.702388	0.457797	0.000027
 724	7.1939e+01	7.1906	7.727492	0.000295	2.948059	0.499415	0.000029
 725	7.2038e+01	7.1988	7.753154	0.000258	2.579552	0.436988	0.000026
 726	7.2138e+01	7.2100	7.782483	0.000295	2.948059	0.499415	0.000029
 727	7.2237e+01	7.2209	7.810182	0.000278	2.784278	0.471669	0.000028
 728	7.2337e+01	7.2286	7.833401	0.000233	2.333880	0.395370	0.000023
 729	7.2436e+01	7.2404	7.863544	0.000303	3.029950	0.513287	0.000030
 730	7.2535e+01	7.2493	7.887577	0.000242	2.415771	0.409243	0.000024
 731	7.2635e+01	7.2567	7.916091	0.000287	2.866169	0.485542	0.000029
 732	7.2734e+01	7.2688	7.943383	0.000274	2.743333	0.464733	0.000027
 733	7.2834e+01	7.2784	7.971490	0.000283	2.825223	0.478606	0.000028
 734	7.2933e+01	7.2900	7.996338	0.000250	2.497661	0.423115	0.000025
 735	7.3033e+01	7.2968	8.022815	0.000266	2.661442	0.450861	0.000027
 736	7.3132e+01	7.3091	8.052959	0.000303	3.029950	0.513287	0.000030
 737	7.3232e+01	7.3203	8.079028	0.000262	2.620497	0.443924	0.000026
 738	7.3332e+01	7.3283	8.106320	0.000274	2.743333	0.464733	0.000027
 739	7.3431e+01	7.3415	8.132390	0.000262	2.620497	0.443924	0.000026
 740	7.3531e+01	7.3483	8.161719	0.000295	2.948059	0.499415	0.000029
 741	7.3630e+01	7.3586	8.188604	0.000270	2.702388	0.457797	0.000027
 742	7.3730e+01	7.3708	8.212230	0.000237	2.374826	0.402306	0.000024
 743	7.3829e+01	7.3801	8.245224	0.000332	3.316567	0.561842	0.000033
 744	7.3928e+01	7.3901	8.270887	0.000258	2.579552	0.436988	0.000026
 745	7.4028e+01	7.3992	8.297364	0.000266	2.661442	0.450861	0.000027
 746	7.4127e+01	7.4081	8.327507	0.000303	3.029950	0.513287	0.000030
 747	7.4227e+01	7.4184	8.350726	0.000233	2.333880	0.395370	0.000023
 748	7.4326e+01	7.4288	8.380055	0.000295	2.948059	0.499415	0.000029
 749	7.4426e+01	7.4414	8.406939	0.000270	2.702388	0.457797	0.000027
 750	7.4525e+01	7.4491	8.434231	0.000274	2.743333	0.464733	0.000027
 751	7.4625e+01	7.4583	8.463153	0.000291	2.907114	0.492478	0.000029
 752	7.4725e+01	7.4682	8.485964	0.000229	2.292935	0.388434	0.000023
 753	7.4824e+01	7.4781	8.515292	0.000295	2.948059	0.499415	0.000029
 754	7.4924e+01	7.4882	8.542992	0.000278	2.784278	0.471669	0.000028
 755	7.5023e+01	7.4982	8.566618	0.000237	2.374826	0.402306	0.000024
 756	7.5123e+01	7.5100	8.591058	0.000246	2.456716	0.416179	0.000025
 757	7.5222e+01	7.5202	8.617943	0.000270	2.702388	0.457797	0.000027
 758	7.5322e+01	7.5301	8.645642	0.000278	2.784278	0.471669	0.000028
 759	7.5421e+01	7.5375	8.671305	0.000258	2.579552	0.436988	0.000026
 760	7.5520e+01	7.5493	8.700633	0.000295	2.948059	0.499415	0.000029
 761	7.5620e+01	7.5618	8.728333	0.000278	2.784278	0.471669	0.000028
 762	7.5719e+01	7.5666	8.756032	0.000278	2.784278	0.471669	0.000028
 763	7.5819e+01	7.5787	8.782102	0.000262	2.620497	0.443924	0.000026
 764	7.5918e+01	7.5879	8.808986	0.000270	2.702388	0.457797	0.000027
 765	7.6018e+01	7.5978	8.837908	0.000291	2.907114	0.492478	0.000029
 766	7.6118e+01	7.6058	8.860312	0.000225	2.251990	0.381497	0.000023
 767	7.6217e+01	7.6174	8.890048	0.000299	2.989005	0.506351	0.000030
 768	7.6317e+01	7.6267	8.914895	0.000250	2.497661	0.423115	0.000025
 769	7.6416e+01	7.6374	8.941780	0.000270	2.702388	0.457797	0.000027
 770	7.6516e+01	7.6488	8.968257	0.000266	2.661442	0.450861	0.000027
 771	7.6615e+01	7.6564	8.995549	0.000274	2.743333	0.464733	0.000027
 772	7.6715e+01	7.6669	9.023249	0.000278	2.784278	0.471669	0.000028
 773	7.6814e+01	7.6750	9.048096	0.000250	2.497661	0.423115	0.000025
 774	7.6913e+01	7.6841	9.077425	0.000295	2.948059	0.499415	0.000029
 775	7.7013e+01	7.6975	9.109605	0.000323	3.234676	0.547969	0.000032
 776	7.7112e+01	7.7081	9.136082	0.000266	2.661442	0.450861	0.000027
 777	7.7212e+01	7.7168	9.164596	0.000287	2.866169	0.485542	0.000029
 778	7.7311e+01	7.7264	9.193925	0.000295	2.948059	0.499415	0.000029
 779	7.7411e+01	7.7374	9.221624	0.000278	2.784278	0.471669	0.000028
 780	7.7510e+01	7.7496	9.248916	0.000274	2.743333	0.464733	0.000027
 781	7.7610e+01	7.7566	9.276616	0.000278	2.784278	0.471669	0.000028
 782	7.7710e+01	7.7663	9.304315	0.000278	2.784278	0.471669	0.000028
 783	7.7809e+01	7.7757	9.329163	0.000250	2.497661	0.423115	0.000025
 784	7.7909e+01	7.7878	9.354418	0.000254	2.538607	0.430052	0.000025
 785	7.8008e+01	7.7946	9.382117	0.000278	2.784278	0.471669	0.000028
 786	7.8108e+01	7.8060	9.409409	0.000274	2.743333	0.464733	0.000027
 787	7.8207e+01	7.8170	9.435887	0.000266	2.661442	0.450861	0.000027
 788	7.8306e+01	7.8273	9.462364	0.000266	2.661442	0.450861	0.000027
 789	7.8406e+01	7.8350	9.486397	0.000242	2.415771	0.409243	0.000024
 790	7.8505e+01	7.8471	9.518577	0.000323	3.234676	0.547969	0.000032
 791	7.8605e+01	7.8596	9.541796	0.000233	2.333880	0.395370	0.000023
 792	7.8704e+01	7.8684	9.572754	0.000311	3.111840	0.527160	0.000031
 793	7.8804e+01	7.8740	9.593528	0.000209	2.088209	0.353752	0.000021
 794	7.8903e+01	7.8884	9.623671	0.000303	3.029950	0.513287	0.000030
 795	7.9003e+01	7.8982	9.647705	0.000242	2.415771	0.409243	0.000024
 796	7.9103e+01	7.9066	9.672553	0.000250	2.497661	0.423115	0.000025
 797	7.9202e+01	7.9175	9.697808	0.000254	2.538607	0.430052	0.000025
 798	7.9302e+01	7.9276	9.721841	0.000242	2.415771	0.409243	0.000024
 799	7.9401e+01	7.9359	9.745467	0.000237	2.374826	0.402306	0.000024
 800	7.9501e+01	7.9463	9.772759	0.000274	2.743333	0.464733	0.000027
 801	7.9600e+01	7.9541	9.798421	0.000258	2.579552	0.436988	0.000026
 802	7.9700e+01	7.9658	9.821640	0.000233	2.333880	0.395370	0.000023
 803	7.9799e+01	7.9794	9.852598	0.000311	3.111840	0.527160	0.000031
 804	7.9898e+01	7.9867	9.875409	0.000229	2.292935	0.388434	0.000023
 805	7.9998e+01	7.9970	9.902294	0.000270	2.702388	0.457797	0.000027
 806	8.0097e+01	8.0064	9.927549	0.000254	2.538607	0.430052	0.000025
 807	8.0197e+01	8.0152	9.956063	0.000287	2.866169	0.485542	0.000029
 808	8.0296e+01	8.0260	9.982948	0.000270	2.702388	0.457797	0.000027
 809	8.0396e+01	8.0354	10.009832	0.000270	2.702388	0.457797	0.000027
 810	8.0496e+01	8.0447	10.033458	0.000237	2.374826	0.402306	0.000024
 811	8.0595e+01	8.0568	10.060750	0.000274	2.743333	0.464733	0.000027
 812	8.0695e+01	8.0659	10.091301	0.000307	3.070895	0.520224	0.000031
 813	8.0794e+01	8.0771	10.114927	0.000237	2.374826	0.402306	0.000024
 814	8.0894e+01	8.0865	10.139367	0.000246	2.456716	0.416179	0.000025
 815	8.0993e+01	8.0962	10.165030	0.000258	2.579552	0.436988	0.000026
 816	8.1093e+01	8.1062	10.194766	0.000299	2.989005	0.506351	0.000030
 817	8.1192e+01	8.1159	10.220836	0.000262	2.620497	0.443924	0.000026
 818	8.1291e+01	8.1231	10.248128	0.000274	2.743333	0.464733	0.000027
 819	8.1391e+01	8.1370	10.275827	0.000278	2.784278	0.471669	0.000028
 820	8.1490e+01	8.1435	10.303526	0.000278	2.784278	0.471669	0.000028
 821	8.1590e+01	8.1564	10.325930	0.000225	2.251990	0.381497	0.000023
 822	8.1689e+01	8.1660	10.355666	0.000299	2.989005	0.506351	0.000030
 823	8.1789e+01	8.1738	10.382551	0.000270	2.702388	0.457797	0.000027
 824	8.1888e+01	8.1857	10.406991	0.000246	2.456716	0.416179	0.000025
 825	8.1988e+01	8.1940	10.433061	0.000262	2.620497	0.443924	0.000026
 826	8.2088e+01	8.2035	10.461575	0.000287	2.866169	0.485542	0.000029
 827	8.2187e+01	8.2143	10.485201	0.000237	2.374826	0.402306	0.000024
 828	8.2287e+01	8.2230	10.510864	0.000258	2.579552	0.436988	0.000026
 829	8.2386e+01	8.2349	10.540192	0.000295	2.948059	0.499415	0.000029
 830	8.2486e+01	8.2449	10.563411	0.000233	2.333880	0.395370	0.000023
 831	8.2585e+01	8.2554	10.590295	0.000270	2.702388	0.457797	0.000027
 832	8.2684e+01	8.2662	10.616365	0.000262	2.620497	0.443924	0.000026
 833	8.2784e+01	8.2749	10.643657	0.000274	2.743333	0.464733	0.000027
 834	8.2883e+01	8.2839	10.670134	0.000266	2.661442	0.450861	0.000027
 835	8.2983e+01	8.2964	10.696612	0.000266	2.661442	0.450861	0.000027
 836	8.3082e+01	8.3038	10.727162	0.000307	3.070895	0.520224	0.000031
 837	8.3182e+01	8.3135	10.754862	0.000278	2.784278	0.471669	0.000028
 838	8.3281e+01	8.3268	10.779710	0.000250	2.497661	0.423115	0.000025
 839	8.3381e+01	8.3360	10.809446	0.000299	2.989005	0.506351	0.000030
 840	8.3481e+01	8.3440	10.838774	0.000295	2.948059	0.499415	0.000029
 841	8.3580e+01	8.3580	10.863215	0.000246	2.456716	0.416179	0.000025
 842	8.3680e+01	8.3630	10.892543	0.000295	2.948059	0.499415	0.000029
 843	8.3779e+01	8.3740	10.918613	0.000262	2.620497	0.443924	0.000026
 844	8.3879e+01	8.3828	10.946720	0.000283	2.825223	0.478606	0.000028
 845	8.3978e+01	8.3926	10.974419	0.000278	2.784278	0.471669	0.000028
 846	8.4078e+01	8.4058	11.002526	0.000283	2.825223	0.478606	0.000028
 847	8.4177e+01	8.4172	11.022486	0.000201	2.006318	0.339879	0.000020
 848	8.4276e+01	8.4266	11.053444	0.000311	3.111840	0.527160	0.000031
 849	8.4376e+01	8.4351	11.083587	0.000303	3.029950	0.513287	0.000030
 850	8.4475e+01	8.4443	11.107620	0.000242	2.415771	0.409243	0.000024
 851	8.4575e+01	8.4542	11.138986	0.000315	3.152786	0.534096	0.000032
 852	8.4674e+01	8.4631	11.163426	0.000246	2.456716	0.416179	0.000025
 853	8.4774e+01	8.4766	11.193977	0.000307	3.070895	0.520224	0.000031
 854	8.4874e+01	8.4847	11.223713	0.000299	2.989005	0.506351	0.000030
 855	8.4973e+01	8.4915	11.248561	0.000250	2.497661	0.423115	0.000025
 856	8.5073e+01	8.5040	11.275445	0.000270	2.702388	0.457797	0.000027
 857	8.5172e+01	8.5109	11.303552	0.000283	2.825223	0.478606	0.000028
 858	8.5272e+01	8.5212	11.326771	0.000233	2.333880	0.395370	0.000023
 859	8.5371e+01	8.5311	11.356914	0.000303	3.029950	0.513287	0.000030
 860	8.5471e+01	8.5415	11.379318	0.000225	2.251990	0.381497	0.000023
 861	8.5570e+01	8.5532	11.403351	0.000242	2.415771	0.409243	0.000024
 862	8.5669e+01	8.5639	11.428606	0.000254	2.538607	0.430052	0.000025
 863	8.5769e+01	8.5751	11.459157	0.000307	3.070895	0.520224	0.000031
 864	8.5868e+01	8.5831	11.484412	0.000254	2.538607	0.430052	0.000025
 865	8.5968e+01	8.5931	11.512112	0.000278	2.784278	0.471669	0.000028
 866	8.6067e+01	8.6022	11.537367	0.000254	2.538607	0.430052	0.000025
 867	8.6167e+01	8.6144	11.569547	0.000323	3.234676	0.547969	0.000032
 868	8.6266e+01	8.6218	11.594802	0.000254	2.538607	0.430052	0.000025
 869	8.6366e+01	8.6337	11.624538	0.000299	2.989005	0.506351	0.000030
 870	8.6466e+01	8.6427	11.651423	0.000270	2.702388	0.457797	0.000027
 871	8.6565e+01	8.6518	11.677900	0.000266	2.661442	0.450861	0.000027
 872	8.6665e+01	8.6621	11.710487	0.000328	3.275621	0.554905	0.000033
 873	8.6764e+01	8.6735	11.736965	0.000266	2.661442	0.450861	0.000027
 874	8.6864e+01	8.6829	11.758961	0.000221	2.211044	0.374561	0.000022
 875	8.6963e+01	8.6938	11.789104	0.000303	3.029950	0.513287	0.000030
 876	8.7063e+01	8.7033	11.815582	0.000266	2.661442	0.450861	0.000027
 877	8.7162e+01	8.7119	11.848576	0.000332	3.316567	0.561842	0.000033
 878	8.7261e+01	8.7228	11.881979	0.000336	3.357512	0.568778	0.000034
 879	8.7361e+01	8.7314	11.908456	0.000266	2.661442	0.450861	0.000027
 880	8.7460e+01	8.7408	11.937784	0.000295	2.948059	0.499415	0.000029
 881	8.7560e+01	8.7514	11.969150	0.000315	3.152786	0.534096	0.000032
 882	8.7659e+01	8.7646	11.999293	0.000303	3.029950	0.513287	0.000030
 883	8.7759e+01	8.7722	12.029029	0.000299	2.989005	0.506351	0.000030
 884	8.7859e+01	8.7836	12.059580	0.000307	3.070895	0.520224	0.000031
 885	8.7958e+01	8.7921	12.088909	0.000295	2.948059	0.499415	0.000029
 886	8.8058e+01	8.8006	12.121089	0.000323	3.234676	0.547969	0.000032
 887	8.8157e+01	8.8104	12.145937	0.000250	2.497661	0.423115	0.000025
 888	8.8257e+01	8.8227	12.178931	0.000332	3.316567	0.561842	0.000033
 889	8.8356e+01	8.8308	12.204594	0.000258	2.579552	0.436988	0.000026
 890	8.8456e+01	8.8406	12.235552	0.000311	3.111840	0.527160	0.000031
 891	8.8555e+01	8.8508	12.262844	0.000274	2.743333	0.464733	0.000027
 892	8.8654e+01	8.8642	12.291358	0.000287	2.866169	0.485542	0.000029
 893	8.8754e+01	8.8714	12.323538	0.000323	3.234676	0.547969	0.000032
 894	8.8853e+01	8.8810	12.350830	0.000274	2.743333	0.464733	0.000027
 895	8.8953e+01	8.8906	12.382603	0.000319	3.193731	0.541033	0.000032
 896	8.9052e+01	8.9008	12.406228	0.000237	2.374826	0.402306	0.000024
 897	8.9152e+01	8.9138	12.433928	0.000278	2.784278	0.471669	0.000028
 898	8.9251e+01	8.9191	12.462849	0.000291	2.907114	0.492478	0.000029
 899	8.9351e+01	8.9350	12.492992	0.000303	3.029950	0.513287	0.000030
 900	8.9451e+01	8.9382	12.524358	0.000315	3.152786	0.534096	0.000032
 901	8.9550e+01	8.9492	12.551242	0.000270	2.702388	0.457797	0.000027
 902	8.9650e+01	8.9618	12.582608	0.000315	3.152786	0.534096	0.000032
 903	8.9749e+01	8.9684	12.611529	0.000291	2.907114	0.492478	0.000029
 904	8.9849e+01	8.9822	12.641265	0.000299	2.989005	0.506351	0.000030
 905	8.9948e+01	8.9920	12.672223	0.000311	3.111840	0.527160	0.000031
 906	9.0047e+01	8.9981	12.698700	0.000266	2.661442	0.450861	0.000027
 907	9.0147e+01	9.0115	12.728029	0.000295	2.948059	0.499415	0.000029
 908	9.0246e+01	9.0192	12.756136	0.000283	2.825223	0.478606	0.000028
 909	9.0346e+01	9.0295	12.786686	0.000307	3.070895	0.520224	0.000031
 910	9.0445e+01	9.0411	12.814793	0.000283	2.825223	0.478606	0.000028
 911	9.0545e+01	9.0505	12.845344	0.000307	3.070895	0.520224	0.000031
 912	9.0644e+01	9.0613	12.873450	0.000283	2.825223	0.478606	0.000028
 913	9.0744e+01	9.0687	12.907260	0.000340	3.398457	0.575714	0.000034
 914	9.0844e+01	9.0788	12.935366	0.000283	2.825223	0.478606	0.000028
 915	9.0943e+01	9.0894	12.967546	0.000323	3.234676	0.547969	0.000032
 916	9.1043e+01	9.0993	12.998097	0.000307	3.070895	0.520224	0.000031
 917	9.1142e+01	9.1084	13.028240	0.000303	3.029950	0.513287	0.000030
 918	9.1242e+01	9.1219	13.052274	0.000242	2.415771	0.409243	0.000024
 919	9.1341e+01	9.1291	13.082824	0.000307	3.070895	0.520224	0.000031
 920	9.1441e+01	9.1407	13.112968	0.000303	3.029950	0.513287	0.000030
 921	9.1540e+01	9.1462	13.143111	0.000303	3.029950	0.513287	0.000030
 922	9.1639e+01	9.1602	13.176106	0.000332	3.316567	0.561842	0.000033
 923	9.1739e+01	9.1699	13.206249	0.000303	3.029950	0.513287	0.000030
 924	9.1838e+01	9.1779	13.238837	0.000328	3.275621	0.554905	0.000033
 925	9.1938e+01	9.1902	13.268165	0.000295	2.948059	0.499415	0.000029
 926	9.2037e+01	9.1959	13.301567	0.000336	3.357512	0.568778	0.000034
 927	9.2137e+01	9.2090	13.332933	0.000315	3.152786	0.534096	0.000032
 928	9.2237e+01	9.2200	13.363076	0.000303	3.029950	0.513287	0.000030
 929	9.2336e+01	9.2318	13.398108	0.000352	3.521293	0.596523	0.000035
 930	9.2436e+01	9.2395	13.430288	0.000323	3.234676	0.547969	0.000032
 931	9.2535e+01	9.2515	13.459616	0.000295	2.948059	0.499415	0.000029
 932	9.2635e+01	9.2596	13.494240	0.000348	3.480348	0.589587	0.000035
 933	9.2734e+01	9.2666	13.527642	0.000336	3.357512	0.568778	0.000034
 934	9.2834e+01	9.2798	13.560230	0.000328	3.275621	0.554905	0.000033
 935	9.2933e+01	9.2863	13.590781	0.000307	3.070895	0.520224	0.000031
 936	9.3032e+01	9.2993	13.622146	0.000315	3.152786	0.534096	0.000032
 937	9.3132e+01	9.3079	13.655955	0.000340	3.398457	0.575714	0.000034
 938	9.3231e+01	9.3179	13.686913	0.000311	3.111840	0.527160	0.000031
 939	9.3331e+01	9.3283	13.721538	0.000348	3.480348	0.589587	0.000035
 940	9.3430e+01	9.3397	13.752903	0.000315	3.152786	0.534096	0.000032
 941	9.3530e+01	9.3493	13.785898	0.000332	3.316567	0.561842	0.000033
 942	9.3629e+01	9.3606	13.818078	0.000323	3.234676	0.547969	0.000032
 943	9.3729e+01	9.3670	13.851887	0.000340	3.398457	0.575714	0.000034
 944	9.3829e+01	9.3790	13.887733	0.000360	3.603184	0.610396	0.000036
 945	9.3928e+01	9.3896	13.921135	0.000336	3.357512	0.568778	0.000034
 946	9.4028e+01	9.4001	13.954537	0.000336	3.357512	0.568778	0.000034
 947	9.4127e+01	9.4099	13.985088	0.000307	3.070895	0.520224	0.000031
 948	9.4227e+01	9.4192	14.019305	0.000344	3.439402	0.582651	0.000034
 949	9.4326e+01	9.4287	14.052707	0.000336	3.357512	0.568778	0.000034
 950	9.4425e+01	9.4360	14.082036	0.000295	2.948059	0.499415	0.000029
 951	9.4525e+01	9.4507	14.111364	0.000295	2.948059	0.499415	0.000029
 952	9.4624e+01	9.4580	14.147618	0.000364	3.644129	0.617332	0.000036
 953	9.4724e+01	9.4678	14.179391	0.000319	3.193731	0.541033	0.000032
 954	9.4823e+01	9.4784	14.213200	0.000340	3.398457	0.575714	0.000034
 955	9.4923e+01	9.4885	14.247009	0.000340	3.398457	0.575714	0.000034
 956	9.5022e+01	9.4971	14.278782	0.000319	3.193731	0.541033	0.000032
 957	9.5122e+01	9.5075	14.314628	0.000360	3.603184	0.610396	0.000036
 958	9.5222e+01	9.5178	14.347623	0.000332	3.316567	0.561842	0.000033
 959	9.5321e+01	9.5288	14.380618	0.000332	3.316567	0.561842	0.000033
 960	9.5421e+01	9.5398	14.415242	0.000348	3.480348	0.589587	0.000035
 961	9.5520e+01	9.5475	14.447422	0.000323	3.234676	0.547969	0.000032
 962	9.5620e+01	9.5568	14.477973	0.000307	3.070895	0.520224	0.000031
 963	9.5719e+01	9.5661	14.510560	0.000328	3.275621	0.554905	0.000033
 964	9.5819e+01	9.5770	14.541925	0.000315	3.152786	0.534096	0.000032
 965	9.5918e+01	9.5855	14.576550	0.000348	3.480348	0.589587	0.000035
 966	9.6017e+01	9.5942	14.605064	0.000287	2.866169	0.485542	0.000029
 967	9.6117e+01	9.6084	14.637244	0.000323	3.234676	0.547969	0.000032
 968	9.6216e+01	9.6145	14.671053	0.000340	3.398457	0.575714	0.000034
 969	9.6316e+01	9.6279	14.703640	0.000328	3.275621	0.554905	0.000033
 970	9.6415e+01	9.6365	14.738265	0.000348	3.480348	0.589587	0.000035
 971	9.6515e+01	9.6473	14.770852	0.000328	3.275621	0.554905	0.000033
 972	9.6615e+01	9.6545	14.807513	0.000369	3.685074	0.624268	0.000037
 973	9.6714e+01	9.6693	14.840915	0.000336	3.357512	0.568778	0.000034
 974	9.6814e+01	9.6759	14.879612	0.000389	3.889800	0.658950	0.000039
 975	9.6913e+01	9.6870	14.915459	0.000360	3.603184	0.610396	0.000036
 976	9.7013e+01	9.6942	14.953341	0.000381	3.807910	0.645077	0.000038
 977	9.7112e+01	9.7073	14.992446	0.000393	3.930746	0.665886	0.000039
 978	9.7212e+01	9.7153	15.029514	0.000373	3.726019	0.631205	0.000037
 979	9.7311e+01	9.7274	15.066175	0.000369	3.685074	0.624268	0.000037
 980	9.7410e+01	9.7352	15.105688	0.000397	3.971691	0.672823	0.000040
 981	9.7510e+01	9.7470	15.142348	0.000369	3.685074	0.624268	0.000037
 982	9.7609e+01	9.7549	15.182675	0.000405	4.053581	0.686695	0.000041
 983	9.7709e+01	9.7651	15.216892	0.000344	3.439402	0.582651	0.000034
 984	9.7808e+01	9.7762	15.258848	0.000422	4.217363	0.714441	0.000042
 985	9.7908e+01	9.7843	15.295509	0.000369	3.685074	0.624268	0.000037
 986	9.8007e+01	9.7956	15.331763	0.000364	3.644129	0.617332	0.000036
 987	9.8107e+01	9.8048	15.372090	0.000405	4.053581	0.686695	0.000041
 988	9.8207e+01	9.8157	15.412824	0.000409	4.094527	0.693632	0.000041
 989	9.8306e+01	9.8260	15.455187	0.000426	4.258308	0.721377	0.000043
 990	9.8406e+01	9.8370	15.497958	0.000430	4.299253	0.728313	0.000043
 991	9.8505e+01	9.8476	15.537471	0.000397	3.971691	0.672823	0.000040
 992	9.8605e+01	9.8551	15.580242	0.000430	4.299253	0.728313	0.000043
 993	9.8704e+01	9.8650	15.619754	0.000397	3.971691	0.672823	0.000040
 994	9.8803e+01	9.8753	15.658451	0.000389	3.889800	0.658950	0.000039
 995	9.8903e+01	9.8855	15.698778	0.000405	4.053581	0.686695	0.000041
 996	9.9002e+01	9.8981	15.736254	0.000377	3.766965	0.638141	0.000038
 997	9.9102e+01	9.9050	15.776173	0.000401	4.012636	0.679759	0.000040
 998	9.9201e+01	9.9158	15.819759	0.000438	4.381144	0.742186	0.000044
 999	9.9301e+01	9.9268	15.856012	0.000364	3.644129	0.617332	0.000036
1000	9.9400e+01	9.9345	15.902450	0.000467	4.667760	0.790740	0.000047
1001	9.9500e+01	9.9455	15.941962	0.000397	3.971691	0.672823	0.000040
1002	9.9600e+01	9.9561	15.985955	0.000442	4.422089	0.749122	0.000044
1003	9.9699e+01	9.9677	16.026282	0.000405	4.053581	0.686695	0.000041
1004	9.9799e+01	9.9756	16.071497	0.000454	4.544925	0.769931	0.000045
1005	9.9898e+01	9.9837	16.115897	0.000446	4.463034	0.756058	0.000045
1006	9.9998e+01	9.9951	16.158261	0.000426	4.258308	0.721377	0.000043
1007	1.0010e+02	9.9854	16.167222	-0.000090	-0.900796	-0.152599	0.000009
1008	1.0020e+02	9.9766	16.171703	-0.000045	-0.450398	-0.076299	0.000005
1009	1.0030e+02	9.9673	16.176998	-0.000053	-0.532288	-0.090172	0.000005
1010	1.0040e+02	9.9561	16.176591	0.000004	0.040945	0.006936	-0.000000
1011	1.0050e+02	9.9463	16.178628	-0.000020	-0.204726	-0.034682	0.000002
1012	1.0059e+02	9.9365	16.176184	0.000025	0.245672	0.041618	-0.000002
1013	1.0069e+02	9.9268	16.170074	0.000061	0.614179	0.104045	-0.000006
1014	1.0079e+02	9.9160	16.172110	-0.000020	-0.204726	-0.034682	0.000002
1015	1.0089e+02	9.9047	16.171703	0.000004	0.040945	0.006936	-0.000000
1016	1.0099e+02	9.8962	16.172518	-0.000008	-0.081891	-0.013873	0.000001
1017	1.0109e+02	9.8853	16.164371	0.000082	0.818905	0.138726	-0.000008
1018	1.0119e+02	9.8750	16.163149	0.000012	0.122836	0.020809	-0.000001
1019	1.0129e+02	9.8658	16.163963	-0.000008	-0.081891	-0.013873	0.000001
1020	1.0139e+02	9.8566	16.165185	-0.000012	-0.122836	-0.020809	0.000001
1021	1.0149e+02	9.8454	16.158261	0.000070	0.696070	0.117917	-0.000007
1022	1.0159e+02	9.8348	16.153780	0.000045	0.450398	0.076299	-0.000005
1023	1.0169e+02	9.8261	16.152151	0.000016	0.163781	0.027745	-0.000002
1024	1.0179e+02	9.8154	16.146040	0.000061	0.614179	0.104045	-0.000006
1025	1.0189e+02	9.8077	16.136672	0.000094	0.941741	0.159535	-0.000009
1026	1.0199e+02	9.7964	16.134227	0.000025	0.245672	0.041618	-0.000002
1027	1.0209e+02	9.7856	16.126895	0.000074	0.737015	0.124854	-0.000007
1028	1.0219e+02	9.7748	16.119156	0.000078	0.777960	0.131790	-0.000008
1029	1.0229e+02	9.7669	16.114268	0.000049	0.491343	0.083236	-0.000005
1030	1.0239e+02	9.7565	16.107343	0.000070	0.696070	0.117917	-0.000007
1031	1.0248e+02	9.7483	16.096345	0.000111	1.105522	0.187281	-0.000011
1032	1.0258e+02	9.7384	16.091049	0.000053	0.532288	0.090172	-0.000005
1033	1.0268e+02	9.7248	16.084939	0.000061	0.614179	0.104045	-0.000006
1034	1.0278e+02	9.7163	16.079644	0.000053	0.532288	0.090172	-0.000005
1035	1.0288e+02	9.7109	16.074755	0.000049	0.491343	0.083236	-0.000005
1036	1.0298e+02	9.6993	16.068645	0.000061	0.614179	0.104045	-0.000006
1037	1.0308e+02	9.6864	16.057647	0.000111	1.105522	0.187281	-0.000011
1038	1.0318e+02	9.6764	16.048278	0.000094	0.941741	0.159535	-0.000009
1039	1.0328e+02	9.6670	16.042168	0.000061	0.614179	0.104045	-0.000006
1040	1.0338e+02	9.6584	16.033206	0.000090	0.900796	0.152599	-0.000009
1041	1.0348e+02	9.6468	16.023430	0.000098	0.982686	0.166472	-0.000010
1042	1.0358e+02	9.6370	16.018542	0.000049	0.491343	0.083236	-0.000005
1043	1.0368e+02	9.6252	16.010395	0.000082	0.818905	0.138726	-0.000008
1044	1.0378e+02	9.6201	16.003063	0.000074	0.737015	0.124854	-0.000007
1045	1.0388e+02	9.6084	15.998990	0.000041	0.409453	0.069363	-0.000004
1046	1.0398e+02	9.5956	15.998582	0.000004	0.040945	0.006936	-0.000000
1047	1.0408e+02	9.5858	15.994509	0.000041	0.409453	0.069363	-0.000004
1048	1.0418e+02	9.5770	15.987177	0.000074	0.737015	0.124854	-0.000007
1049	1.0428e+02	9.5649	15.981067	0.000061	0.614179	0.104045	-0.000006
1050	1.0438e+02	9.5573	15.973327	0.000078	0.777960	0.131790	-0.000008
1051	1.0447e+02	9.5443	15.965995	0.000074	0.737015	0.124854	-0.000007
1052	1.0457e+02	9.5414	15.958255	0.000078	0.777960	0.131790	-0.000008
1053	1.0467e+02	9.5278	15.947665	0.000106	1.064577	0.180344	-0.000011
1054	1.0477e+02	9.5187	15.938296	0.000094	0.941741	0.159535	-0.000009
1055	1.0487e+02	9.5093	15.927297	0.000111	1.105522	0.187281	-0.000011
1056	1.0497e+02	9.4971	15.917114	0.000102	1.023632	0.173408	-0.000010
1057	1.0507e+02	9.4897	15.912633	0.000045	0.450398	0.076299	-0.000005
1058	1.0517e+02	9.4770	15.897154	0.000156	1.555920	0.263580	-0.000016
1059	1.0527e+02	9.4704	15.886563	0.000106	1.064577	0.180344	-0.000011
1060	1.0537e+02	9.4564	15.875972	0.000106	1.064577	0.180344	-0.000011
1061	1.0547e+02	9.4485	15.867011	0.000090	0.900796	0.152599	-0.000009
1062	1.0557e+02	9.4370	15.854790	0.000123	1.228358	0.208089	-0.000012
1063	1.0567e+02	9.4315	15.843385	0.000115	1.146467	0.194217	-0.000011
1064	1.0577e+02	9.4172	15.834016	0.000094	0.941741	0.159535	-0.000009
1065	1.0587e+02	9.4102	15.821796	0.000123	1.228358	0.208089	-0.000012
1066	1.0597e+02	9.3984	15.806724	0.000151	1.514975	0.256644	-0.000015
1067	1.0607e+02	9.3896	15.796948	0.000098	0.982686	0.166472	-0.000010
1068	1.0617e+02	9.3789	15.787986	0.000090	0.900796	0.152599	-0.000009
1069	1.0627e+02	9.3674	15.774137	0.000139	1.392139	0.235835	-0.000014
1070	1.0637e+02	9.3581	15.757843	0.000164	1.637811	0.277453	-0.000016
1071	1.0647e+02	9.3469	15.752547	0.000053	0.532288	0.090172	-0.000005
1072	1.0656e+02	9.3408	15.735439	0.000172	1.719701	0.291325	-0.000017
1073	1.0666e+02	9.3273	15.722404	0.000131	1.310249	0.221962	-0.000013
1074	1.0676e+02	9.3174	15.710184	0.000123	1.228358	0.208089	-0.000012
1075	1.0686e+02	9.3105	15.693483	0.000168	1.678756	0.284389	-0.000017
1076	1.0696e+02	9.3000	15.680855	0.000127	1.269303	0.215026	-0.000013
1077	1.0706e+02	9.2892	15.663339	0.000176	1.760647	0.298262	-0.000018
1078	1.0716e+02	9.2788	15.647860	0.000156	1.555920	0.263580	-0.000016
1079	1.0726e+02	9.2694	15.634011	0.000139	1.392139	0.235835	-0.000014
1080	1.0736e+02	9.2568	15.623420	0.000106	1.064577	0.180344	-0.000011
1081	1.0746e+02	9.2471	15.607941	0.000156	1.555920	0.263580	-0.000016
1082	1.0756e+02	9.2384	15.593684	0.000143	1.433084	0.242771	-0.000014
1083	1.0766e+02	9.2287	15.576983	0.000168	1.678756	0.284389	-0.000017
1084	1.0776e+02	9.2190	15.562319	0.000147	1.474030	0.249707	-0.000015
1085	1.0786e+02	9.2083	15.549284	0.000131	1.310249	0.221962	-0.000013
1086	1.0796e+02	9.1992	15.531360	0.000180	1.801592	0.305198	-0.000018
1087	1.0806e+02	9.1904	15.514252	0.000172	1.719701	0.291325	-0.000017
1088	1.0816e+02	9.1805	15.498366	0.000160	1.596865	0.270516	-0.000016
1089	1.0826e+02	9.1678	15.479628	0.000188	1.883482	0.319071	-0.000019
1090	1.0836e+02	9.1579	15.462520	0.000172	1.719701	0.291325	-0.000017
1091	1.0845e+02	9.1479	15.447855	0.000147	1.474030	0.249707	-0.000015
1092	1.0855e+02	9.1388	15.432784	0.000151	1.514975	0.256644	-0.000015
1093	1.0865e+02	9.1309	15.416083	0.000168	1.678756	0.284389	-0.000017
1094	1.0875e+02	9.1190	15.397345	0.000188	1.883482	0.319071	-0.000019
1095	1.0885e+02	9.1119	15.384717	0.000127	1.269303	0.215026	-0.000013
1096	1.0895e+02	9.0978	15.366387	0.000184	1.842537	0.312134	-0.000018
1097	1.0905e+02	9.0906	15.352537	0.000139	1.392139	0.235835	-0.000014
1098	1.0915e+02	9.0797	15.332577	0.000201	2.006318	0.339879	-0.000020
1099	1.0925e+02	9.0723	15.317506	0.000151	1.514975	0.256644	-0.000015
1100	1.0935e+02	9.0585	15.297953	0.000197	1.965373	0.332943	-0.000020
1101	1.0945e+02	9.0527	15.280030	0.000180	1.801592	0.305198	-0.000018
1102	1.0955e+02	9.0430	15.266995	0.000131	1.310249	0.221962	-0.000013
1103	1.0965e+02	9.0310	15.246221	0.000209	2.088209	0.353752	-0.000021
1104	1.0975e+02	9.0199	15.228705	0.000176	1.760647	0.298262	-0.000018
1105	1.0985e+02	9.0090	15.212004	0.000168	1.678756	0.284389	-0.000017
1106	1.0995e+02	9.0005	15.194896	0.000172	1.719701	0.291325	-0.000017
1107	1.1005e+02	8.9906	15.177787	0.000172	1.719701	0.291325	-0.000017
1108	1.1015e+02	8.9777	15.159049	0.000188	1.883482	0.319071	-0.000019
1109	1.1025e+02	8.9680	15.142756	0.000164	1.637811	0.277453	-0.000016
1110	1.1035e+02	8.9603	15.129721	0.000131	1.310249	0.221962	-0.000013
1111	1.1044e+02	8.9504	15.108132	0.000217	2.170099	0.367625	-0.000022
1112	1.1054e+02	8.9412	15.095504	0.000127	1.269303	0.215026	-0.000013
1113	1.1064e+02	8.9309	15.082469	0.000131	1.310249	0.221962	-0.000013
1114	1.1074e+02	8.9211	15.063731	0.000188	1.883482	0.319071	-0.000019
1115	1.1084e+02	8.9112	15.048252	0.000156	1.555920	0.263580	-0.000016
1116	1.1094e+02	8.9014	15.029514	0.000188	1.883482	0.319071	-0.000019
1117	1.1104e+02	8.8911	15.011184	0.000184	1.842537	0.312134	-0.000018
1118	1.1114e+02	8.8801	14.990410	0.000209	2.088209	0.353752	-0.000021
1119	1.1124e+02	8.8712	14.971672	0.000188	1.883482	0.319071	-0.000019
1120	1.1134e+02	8.8589	14.951305	0.000205	2.047263	0.346816	-0.000020
1121	1.1144e+02	8.8482	14.933789	0.000176	1.760647	0.298262	-0.000018
1122	1.1154e+02	8.8416	14.914644	0.000192	1.924428	0.326007	-0.000019
1123	1.1164e+02	8.8326	14.897128	0.000176	1.760647	0.298262	-0.000018
1124	1.1174e+02	8.8224	14.875132	0.000221	2.211044	0.374561	-0.000022
1125	1.1184e+02	8.8141	14.858023	0.000172	1.719701	0.291325	-0.000017
1126	1.1194e+02	8.8017	14.840508	0.000176	1.760647	0.298262	-0.000018
1127	1.1204e+02	8.7927	14.822992	0.000176	1.760647	0.298262	-0.000018
1128	1.1214e+02	8.7820	14.802625	0.000205	2.047263	0.346816	-0.000020
1129	1.1224e+02	8.7728	14.782665	0.000201	2.006318	0.339879	-0.000020
1130	1.1234e+02	8.7623	14.763927	0.000188	1.883482	0.319071	-0.000019
1131	1.1244e+02	8.7502	14.737450	0.000266	2.661442	0.450861	-0.000027
1132	1.1253e+02	8.7446	14.716675	0.000209	2.088209	0.353752	-0.000021
1133	1.1263e+02	8.7341	14.693864	0.000229	2.292935	0.388434	-0.000023
1134	1.1273e+02	8.7220	14.672275	0.000217	2.170099	0.367625	-0.000022
1135	1.1283e+02	8.7142	14.651501	0.000209	2.088209	0.353752	-0.000021
1136	1.1293e+02	8.7017	14.631541	0.000201	2.006318	0.339879	-0.000020
1137	1.1303e+02	8.6926	14.607100	0.000246	2.456716	0.416179	-0.000025
1138	1.1313e+02	8.6826	14.589992	0.000172	1.719701	0.291325	-0.000017
1139	1.1323e+02	8.6713	14.567588	0.000225	2.251990	0.381497	-0.000023
1140	1.1333e+02	8.6639	14.545999	0.000217	2.170099	0.367625	-0.000022
1141	1.1343e+02	8.6512	14.526039	0.000201	2.006318	0.339879	-0.000020
1142	1.1353e+02	8.6448	14.505672	0.000205	2.047263	0.346816	-0.000020
1143	1.1363e+02	8.6324	14.485305	0.000205	2.047263	0.346816	-0.000020
1144	1.1373e+02	8.6211	14.464530	0.000209	2.088209	0.353752	-0.000021
1145	1.1383e+02	8.6108	14.446200	0.000184	1.842537	0.312134	-0.000018
1146	1.1393e+02	8.6045	14.421759	0.000246	2.456716	0.416179	-0.000025
1147	1.1403e+02	8.5921	14.400578	0.000213	2.129154	0.360688	-0.000021
1148	1.1413e+02	8.5849	14.383877	0.000168	1.678756	0.284389	-0.000017
1149	1.1423e+02	8.5732	14.360251	0.000237	2.374826	0.402306	-0.000024
1150	1.1433e+02	8.5620	14.339069	0.000213	2.129154	0.360688	-0.000021
1151	1.1442e+02	8.5535	14.319109	0.000201	2.006318	0.339879	-0.000020
1152	1.1452e+02	8.5422	14.298335	0.000209	2.088209	0.353752	-0.000021
1153	1.1462e+02	8.5336	14.277560	0.000209	2.088209	0.353752	-0.000021
1154	1.1472e+02	8.5227	14.255156	0.000225	2.251990	0.381497	-0.000023
1155	1.1482e+02	8.5155	14.236826	0.000184	1.842537	0.312134	-0.000018
1156	1.1492e+02	8.5043	14.214829	0.000221	2.211044	0.374561	-0.000022
1157	1.1502e+02	8.4944	14.197314	0.000176	1.760647	0.298262	-0.000018
1158	1.1512e+02	8.4826	14.171244	0.000262	2.620497	0.443924	-0.000026
1159	1.1522e+02	8.4762	14.152506	0.000188	1.883482	0.319071	-0.000019
1160	1.1532e+02	8.4639	14.130102	0.000225	2.251990	0.381497	-0.000023
1161	1.1542e+02	8.4525	14.114623	0.000156	1.555920	0.263580	-0.000016
1162	1.1552e+02	8.4457	14.088553	0.000262	2.620497	0.443924	-0.000026
1163	1.1562e+02	8.4316	14.065742	0.000229	2.292935	0.388434	-0.000023
1164	1.1572e+02	8.4208	14.043338	0.000225	2.251990	0.381497	-0.000023
1165	1.1582e+02	8.4152	14.025822	0.000176	1.760647	0.298262	-0.000018
1166	1.1592e+02	8.4052	13.999345	0.000266	2.661442	0.450861	-0.000027
1167	1.1602e+02	8.3944	13.976127	0.000233	2.333880	0.395370	-0.000023
1168	1.1612e+02	8.3846	13.958611	0.000176	1.760647	0.298262	-0.000018
1169	1.1622e+02	8.3733	13.937429	0.000213	2.129154	0.360688	-0.000021
1170	1.1632e+02	8.3659	13.913803	0.000237	2.374826	0.402306	-0.000024
1171	1.1642e+02	8.3547	13.895065	0.000188	1.883482	0.319071	-0.000019
1172	1.1651e+02	8.3442	13.868996	0.000262	2.620497	0.443924	-0.000026
1173	1.1661e+02	8.3350	13.853924	0.000151	1.514975	0.256644	-0.000015
1174	1.1671e+02	8.3244	13.833557	0.000205	2.047263	0.346816	-0.000020
1175	1.1681e+02	8.3154	13.808709	0.000250	2.497661	0.423115	-0.000025
1176	1.1691e+02	8.3036	13.785898	0.000229	2.292935	0.388434	-0.000023
1177	1.1701e+02	8.2942	13.767160	0.000188	1.883482	0.319071	-0.000019
1178	1.1711e+02	8.2867	13.744349	0.000229	2.292935	0.388434	-0.000023
1179	1.1721e+02	8.2764	13.721538	0.000229	2.292935	0.388434	-0.000023
1180	1.1731e+02	8.2645	13.698319	0.000233	2.333880	0.395370	-0.000023
1181	1.1741e+02	8.2541	13.676730	0.000217	2.170099	0.367625	-0.000022
1182	1.1751e+02	8.2490	13.655548	0.000213	2.129154	0.360688	-0.000021
1183	1.1761e+02	8.2343	13.635588	0.000201	2.006318	0.339879	-0.000020
1184	1.1771e+02	8.2224	13.615221	0.000205	2.047263	0.346816	-0.000020
1185	1.1781e+02	8.2120	13.588744	0.000266	2.661442	0.450861	-0.000027
1186	1.1791e+02	8.2032	13.564711	0.000242	2.415771	0.409243	-0.000024
1187	1.1801e+02	8.1944	13.543121	0.000217	2.170099	0.367625	-0.000022
1188	1.1811e+02	8.1878	13.521940	0.000213	2.129154	0.360688	-0.000021
1189	1.1821e+02	8.1738	13.501573	0.000205	2.047263	0.346816	-0.000020
1190	1.1831e+02	8.1701	13.483649	0.000180	1.801592	0.305198	-0.000018
1191	1.1841e+02	8.1563	13.458802	0.000250	2.497661	0.423115	-0.000025
1192	1.1850e+02	8.1424	13.435176	0.000237	2.374826	0.402306	-0.000024
1193	1.1860e+02	8.1369	13.413587	0.000217	2.170099	0.367625	-0.000022
1194	1.1870e+02	8.1277	13.392405	0.000213	2.129154	0.360688	-0.000021
1195	1.1880e+02	8.1165	13.367149	0.000254	2.538607	0.430052	-0.000025
1196	1.1890e+02	8.1065	13.342302	0.000250	2.497661	0.423115	-0.000025
1197	1.1900e+02	8.0950	13.317046	0.000254	2.538607	0.430052	-0.000025
1198	1.1910e+02	8.0856	13.290976	0.000262	2.620497	0.443924	-0.000026
1199	1.1920e+02	8.0755	13.266129	0.000250	2.497661	0.423115	-0.000025
1200	1.1930e+02	8.0657	13.246983	0.000192	1.924428	0.326007	-0.000019
1201	1.1940e+02	8.0552	13.221321	0.000258	2.579552	0.436988	-0.000026
1202	1.1950e+02	8.0471	13.200546	0.000209	2.088209	0.353752	-0.000021
1203	1.1960e+02	8.0357	13.180587	0.000201	2.006318	0.339879	-0.000020
1204	1.1970e+02	8.0241	13.155331	0.000254	2.538607	0.430052	-0.000025
1205	1.1980e+02	8.0154	13.134557	0.000209	2.088209	0.353752	-0.000021
1206	1.1990e+02	8.0054	13.116226	0.000184	1.842537	0.312134	-0.000018
1207	1.2000e+02	7.9951	13.090157	0.000262	2.620497	0.443924	-0.000026
1208	1.2010e+02	7.9845	13.068567	0.000217	2.170099	0.367625	-0.000022
1209	1.2020e+02	7.9763	13.044942	0.000237	2.374826	0.402306	-0.000024
1210	1.2030e+02	7.9664	13.019279	0.000258	2.579552	0.436988	-0.000026
1211	1.2039e+02	7.9563	12.997690	0.000217	2.170099	0.367625	-0.000022
1212	1.2049e+02	7.9440	12.973249	0.000246	2.456716	0.416179	-0.000025
1213	1.2059e+02	7.9376	12.953289	0.000201	2.006318	0.339879	-0.000020
1214	1.2069e+02	7.9248	12.932515	0.000209	2.088209	0.353752	-0.000021
1215	1.2079e+02	7.9168	12.913370	0.000192	1.924428	0.326007	-0.000019
1216	1.2089e+02	7.9044	12.892188	0.000213	2.129154	0.360688	-0.000021
1217	1.2099e+02	7.8967	12.869784	0.000225	2.251990	0.381497	-0.000023
1218	1.2109e+02	7.8895	12.851861	0.000180	1.801592	0.305198	-0.000018
1219	1.2119e+02	7.8770	12.827421	0.000246	2.456716	0.416179	-0.000025
1220	1.2129e+02	7.8667	12.802980	0.000246	2.456716	0.416179	-0.000025
1221	1.2139e+02	7.8590	12.783020	0.000201	2.006318	0.339879	-0.000020
1222	1.2149e+02	7.8478	12.764283	0.000188	1.883482	0.319071	-0.000019
1223	1.2159e+02	7.8395	12.739027	0.000254	2.538607	0.430052	-0.000025
1224	1.2169e+02	7.8271	12.718660	0.000205	2.047263	0.346816	-0.000020
1225	1.2179e+02	7.8149	12.695849	0.000229	2.292935	0.388434	-0.000023
1226	1.2189e+02	7.8109	12.669372	0.000266	2.661442	0.450861	-0.000027
1227	1.2199e+02	7.7962	12.650634	0.000188	1.883482	0.319071	-0.000019
1228	1.2209e+02	7.7897	12.629045	0.000217	2.170099	0.367625	-0.000022
1229	1.2219e+02	7.7766	12.600123	0.000291	2.907114	0.492478	-0.000029
1230	1.2229e+02	7.7689	12.576905	0.000233	2.333880	0.395370	-0.000023
1231	1.2239e+02	7.7564	12.558982	0.000180	1.801592	0.305198	-0.000018
1232	1.2248e+02	7.7475	12.533727	0.000254	2.538607	0.430052	-0.000025
1233	1.2258e+02	7.7355	12.513360	0.000205	2.047263	0.346816	-0.000020
1234	1.2268e+02	7.7277	12.488104	0.000254	2.538607	0.430052	-0.000025
1235	1.2278e+02	7.7168	12.467330	0.000209	2.088209	0.353752	-0.000021
1236	1.2288e+02	7.7096	12.443704	0.000237	2.374826	0.402306	-0.000024
1237	1.2298e+02	7.6993	12.416819	0.000270	2.702388	0.457797	-0.000027
1238	1.2308e+02	7.6865	12.394008	0.000229	2.292935	0.388434	-0.000023
1239	1.2318e+02	7.6781	12.368346	0.000258	2.579552	0.436988	-0.000026
1240	1.2328e+02	7.6653	12.350015	0.000184	1.842537	0.312134	-0.000018
1241	1.2338e+02	7.6569	12.328019	0.000221	2.211044	0.374561	-0.000022
1242	1.2348e+02	7.6469	12.298690	0.000295	2.948059	0.499415	-0.000029
1243	1.2358e+02	7.6351	12.276693	0.000221	2.211044	0.374561	-0.000022
1244	1.2368e+02	7.6273	12.254697	0.000221	2.211044	0.374561	-0.000022
1245	1.2378e+02	7.6172	12.233108	0.000217	2.170099	0.367625	-0.000022
1246	1.2388e+02	7.6076	12.205816	0.000274	2.743333	0.464733	-0.000027
1247	1.2398e+02	7.5983	12.185449	0.000205	2.047263	0.346816	-0.000020
1248	1.2408e+02	7.5879	12.163045	0.000225	2.251990	0.381497	-0.000023
1249	1.2418e+02	7.5791	12.139012	0.000242	2.415771	0.409243	-0.000024
1250	1.2428e+02	7.5684	12.119867	0.000192	1.924428	0.326007	-0.000019
1251	1.2438e+02	7.5567	12.095426	0.000246	2.456716	0.416179	-0.000025
1252	1.2447e+02	7.5461	12.072208	0.000233	2.333880	0.395370	-0.000023
1253	1.2457e+02	7.5385	12.047360	0.000250	2.497661	0.423115	-0.000025
1254	1.2467e+02	7.5259	12.027807	0.000197	1.965373	0.332943	-0.000020
1255	1.2477e+02	7.5183	12.002145	0.000258	2.579552	0.436988	-0.000026
1256	1.2487e+02	7.5063	11.977297	0.000250	2.497661	0.423115	-0.000025
1257	1.2497e+02	7.4954	11.952041	0.000254	2.538607	0.430052	-0.000025
1258	1.2507e+02	7.4889	11.930452	0.000217	2.170099	0.367625	-0.000022
1259	1.2517e+02	7.4798	11.899087	0.000315	3.152786	0.534096	-0.000032
1260	1.2527e+02	7.4702	11.879942	0.000192	1.924428	0.326007	-0.000019
1261	1.2537e+02	7.4590	11.857538	0.000225	2.251990	0.381497	-0.000023
1262	1.2547e+02	7.4487	11.835542	0.000221	2.211044	0.374561	-0.000022
1263	1.2557e+02	7.4393	11.807435	0.000283	2.825223	0.478606	-0.000028
1264	1.2567e+02	7.4306	11.784624	0.000229	2.292935	0.388434	-0.000023
1265	1.2577e+02	7.4211	11.764257	0.000205	2.047263	0.346816	-0.000020
1266	1.2587e+02	7.4107	11.738594	0.000258	2.579552	0.436988	-0.000026
1267	1.2597e+02	7.3990	11.714153	0.000246	2.456716	0.416179	-0.000025
1268	1.2607e+02	7.3923	11.689713	0.000246	2.456716	0.416179	-0.000025
1269	1.2617e+02	7.3759	11.663236	0.000266	2.661442	0.450861	-0.000027
1270	1.2627e+02	7.3661	11.640832	0.000225	2.251990	0.381497	-0.000023
1271	1.2636e+02	7.3588	11.618835	0.000221	2.211044	0.374561	-0.000022
1272	1.2646e+02	7.3498	11.591951	0.000270	2.702388	0.457797	-0.000027
1273	1.2656e+02	7.3391	11.565473	0.000266	2.661442	0.450861	-0.000027
1274	1.2666e+02	7.3314	11.544292	0.000213	2.129154	0.360688	-0.000021
1275	1.2676e+02	7.3220	11.517814	0.000266	2.661442	0.450861	-0.000027
1276	1.2686e+02	7.3106	11.498262	0.000197	1.965373	0.332943	-0.000020
1277	1.2696e+02	7.3014	11.470970	0.000274	2.743333	0.464733	-0.000027
1278	1.2706e+02	7.2897	11.451825	0.000192	1.924428	0.326007	-0.000019
1279	1.2716e+02	7.2816	11.430236	0.000217	2.170099	0.367625	-0.000022
1280	1.2726e+02	7.2691	11.405388	0.000250	2.497661	0.423115	-0.000025
1281	1.2736e+02	7.2598	11.385835	0.000197	1.965373	0.332943	-0.000020
1282	1.2746e+02	7.2475	11.360580	0.000254	2.538607	0.430052	-0.000025
1283	1.2756e+02	7.2428	11.336140	0.000246	2.456716	0.416179	-0.000025
1284	1.2766e+02	7.2316	11.312106	0.000242	2.415771	0.409243	-0.000024
1285	1.2776e+02	7.2192	11.290925	0.000213	2.129154	0.360688	-0.000021
1286	1.2786e+02	7.2099	11.264040	0.000270	2.702388	0.457797	-0.000027
1287	1.2796e+02	7.1984	11.236748	0.000274	2.743333	0.464733	-0.000027
1288	1.2806e+02	7.1920	11.210678	0.000262	2.620497	0.443924	-0.000026
1289	1.2816e+02	7.1812	11.186645	0.000242	2.415771	0.409243	-0.000024
1290	1.2826e+02	7.1724	11.165870	0.000209	2.088209	0.353752	-0.000021
1291	1.2835e+02	7.1603	11.142244	0.000237	2.374826	0.402306	-0.000024
1292	1.2845e+02	7.1520	11.119433	0.000229	2.292935	0.388434	-0.000023
1293	1.2855e+02	7.1410	11.092141	0.000274	2.743333	0.464733	-0.000027
1294	1.2865e+02	7.1307	11.069738	0.000225	2.251990	0.381497	-0.000023
1295	1.2875e+02	7.1225	11.044890	0.000250	2.497661	0.423115	-0.000025
1296	1.2885e+02	7.1114	11.018412	0.000266	2.661442	0.450861	-0.000027
1297	1.2895e+02	7.0991	10.992750	0.000258	2.579552	0.436988	-0.000026
1298	1.2905e+02	7.0908	10.963828	0.000291	2.907114	0.492478	-0.000029
1299	1.2915e+02	7.0794	10.936944	0.000270	2.702388	0.457797	-0.000027
1300	1.2925e+02	7.0708	10.913725	0.000233	2.333880	0.395370	-0.000023
1301	1.2935e+02	7.0618	10.882360	0.000315	3.152786	0.534096	-0.000032
1302	1.2945e+02	7.0501	10.855475	0.000270	2.702388	0.457797	-0.000027
1303	1.2955e+02	7.0390	10.833479	0.000221	2.211044	0.374561	-0.000022
1304	1.2965e+02	7.0304	10.803743	0.000299	2.989005	0.506351	-0.000030
1305	1.2975e+02	7.0177	10.782154	0.000217	2.170099	0.367625	-0.000022
1306	1.2985e+02	7.0117	10.752418	0.000299	2.989005	0.506351	-0.000030
1307	1.2995e+02	7.0046	10.727162	0.000254	2.538607	0.430052	-0.000025
1308	1.3005e+02	6.9909	10.702315	0.000250	2.497661	0.423115	-0.000025
1309	1.3015e+02	6.9814	10.677874	0.000246	2.456716	0.416179	-0.000025
1310	1.3025e+02	6.9714	10.651397	0.000266	2.661442	0.450861	-0.000027
1311	1.3034e+02	6.9575	10.628993	0.000225	2.251990	0.381497	-0.000023
1312	1.3044e+02	6.9534	10.605774	0.000233	2.333880	0.395370	-0.000023
1313	1.3054e+02	6.9392	10.580926	0.000250	2.497661	0.423115	-0.000025
1314	1.3064e+02	6.9323	10.552412	0.000287	2.866169	0.485542	-0.000029
1315	1.3074e+02	6.9244	10.528787	0.000237	2.374826	0.402306	-0.000024
1316	1.3084e+02	6.9126	10.505161	0.000237	2.374826	0.402306	-0.000024
1317	1.3094e+02	6.8990	10.479498	0.000258	2.579552	0.436988	-0.000026
1318	1.3104e+02	6.8929	10.449355	0.000303	3.029950	0.513287	-0.000030
1319	1.3114e+02	6.8820	10.427766	0.000217	2.170099	0.367625	-0.000022
1320	1.3124e+02	6.8707	10.404140	0.000237	2.374826	0.402306	-0.000024
1321	1.3134e+02	6.8606	10.376848	0.000274	2.743333	0.464733	-0.000027
1322	1.3144e+02	6.8530	10.347112	0.000299	2.989005	0.506351	-0.000030
1323	1.3154e+02	6.8417	10.326745	0.000205	2.047263	0.346816	-0.000020
1324	1.3164e+02	6.8324	10.296194	0.000307	3.070895	0.520224	-0.000031
1325	1.3174e+02	6.8238	10.270124	0.000262	2.620497	0.443924	-0.000026
1326	1.3184e+02	6.8160	10.250572	0.000197	1.965373	0.332943	-0.000020
1327	1.3194e+02	6.8020	10.222058	0.000287	2.866169	0.485542	-0.000029
1328	1.3204e+02	6.7915	10.197210	0.000250	2.497661	0.423115	-0.000025
1329	1.3214e+02	6.7818	10.170325	0.000270	2.702388	0.457797	-0.000027
1330	1.3224e+02	6.7726	10.149958	0.000205	2.047263	0.346816	-0.000020
1331	1.3234e+02	6.7632	10.117778	0.000323	3.234676	0.547969	-0.000032
1332	1.3243e+02	6.7545	10.093745	0.000242	2.415771	0.409243	-0.000024
1333	1.3253e+02	6.7409	10.069712	0.000242	2.415771	0.409243	-0.000024
1334	1.3263e+02	6.7357	10.041198	0.000287	2.866169	0.485542	-0.000029
1335	1.3273e+02	6.7211	10.013091	0.000283	2.825223	0.478606	-0.000028
1336	1.3283e+02	6.7119	9.988650	0.000246	2.456716	0.416179	-0.000025
1337	1.3293e+02	6.7022	9.963395	0.000254	2.538607	0.430052	-0.000025
1338	1.3303e+02	6.6912	9.938955	0.000246	2.456716	0.416179	-0.000025
1339	1.3313e+02	6.6833	9.911255	0.000278	2.784278	0.471669	-0.000028
1340	1.3323e+02	6.6711	9.888444	0.000229	2.292935	0.388434	-0.000023
1341	1.3333e+02	6.6605	9.862782	0.000258	2.579552	0.436988	-0.000026
1342	1.3343e+02	6.6538	9.836712	0.000262	2.620497	0.443924	-0.000026
1343	1.3353e+02	6.6443	9.815122	0.000217	2.170099	0.367625	-0.000022
1344	1.3363e+02	6.6323	9.788645	0.000266	2.661442	0.450861	-0.000027
1345	1.3373e+02	6.6244	9.762168	0.000266	2.661442	0.450861	-0.000027
1346	1.3383e+02	6.6159	9.734876	0.000274	2.743333	0.464733	-0.000027
1347	1.3393e+02	6.6032	9.708399	0.000266	2.661442	0.450861	-0.000027
1348	1.3403e+02	6.5920	9.685995	0.000225	2.251990	0.381497	-0.000023
1349	1.3413e+02	6.5835	9.658296	0.000278	2.784278	0.471669	-0.000028
1350	1.3423e+02	6.5730	9.633855	0.000246	2.456716	0.416179	-0.000025
1351	1.3432e+02	6.5618	9.605341	0.000287	2.866169	0.485542	-0.000029
1352	1.3442e+02	6.5532	9.582123	0.000233	2.333880	0.395370	-0.000023
1353	1.3452e+02	6.5411	9.555238	0.000270	2.702388	0.457797	-0.000027
1354	1.3462e+02	6.5321	9.530797	0.000246	2.456716	0.416179	-0.000025
1355	1.3472e+02	6.5226	9.505542	0.000254	2.538607	0.430052	-0.000025
1356	1.3482e+02	6.5127	9.477435	0.000283	2.825223	0.478606	-0.000028
1357	1.3492e+02	6.5035	9.452588	0.000250	2.497661	0.423115	-0.000025
1358	1.3502e+02	6.4933	9.426925	0.000258	2.579552	0.436988	-0.000026
1359	1.3512e+02	6.4834	9.402077	0.000250	2.497661	0.423115	-0.000025
1360	1.3522e+02	6.4747	9.373563	0.000287	2.866169	0.485542	-0.000029
1361	1.3532e+02	6.4645	9.348308	0.000254	2.538607	0.430052	-0.000025
1362	1.3542e+02	6.4535	9.316535	0.000319	3.193731	0.541033	-0.000032
1363	1.3552e+02	6.4436	9.289651	0.000270	2.702388	0.457797	-0.000027
1364	1.3562e+02	6.4356	9.260729	0.000291	2.907114	0.492478	-0.000029
1365	1.3572e+02	6.4240	9.230993	0.000299	2.989005	0.506351	-0.000030
1366	1.3582e+02	6.4142	9.206553	0.000246	2.456716	0.416179	-0.000025
1367	1.3592e+02	6.4024	9.178039	0.000287	2.866169	0.485542	-0.000029
1368	1.3602e+02	6.3923	9.152783	0.000254	2.538607	0.430052	-0.000025
1369	1.3612e+02	6.3845	9.124677	0.000283	2.825223	0.478606	-0.000028
1370	1.3622e+02	6.3728	9.100644	0.000242	2.415771	0.409243	-0.000024
1371	1.3631e+02	6.3650	9.075388	0.000254	2.538607	0.430052	-0.000025
1372	1.3641e+02	6.3552	9.052577	0.000229	2.292935	0.388434	-0.000023
1373	1.3651e+02	6.3429	9.023249	0.000295	2.948059	0.499415	-0.000029
1374	1.3661e+02	6.3354	8.995957	0.000274	2.743333	0.464733	-0.000027
1375	1.3671e+02	6.3250	8.972331	0.000237	2.374826	0.402306	-0.000024
1376	1.3681e+02	6.3165	8.946261	0.000262	2.620497	0.443924	-0.000026
1377	1.3691e+02	6.3038	8.918154	0.000283	2.825223	0.478606	-0.000028
1378	1.3701e+02	6.2947	8.894528	0.000237	2.374826	0.402306	-0.000024
1379	1.3711e+02	6.2828	8.866829	0.000278	2.784278	0.471669	-0.000028
1380	1.3721e+02	6.2769	8.839944	0.000270	2.702388	0.457797	-0.000027
1381	1.3731e+02	6.2647	8.815096	0.000250	2.497661	0.423115	-0.000025
1382	1.3741e+02	6.2550	8.791471	0.000237	2.374826	0.402306	-0.000024
1383	1.3751e+02	6.2453	8.767437	0.000242	2.415771	0.409243	-0.000024
1384	1.3761e+02	6.2359	8.740960	0.000266	2.661442	0.450861	-0.000027
1385	1.3771e+02	6.2260	8.717742	0.000233	2.333880	0.395370	-0.000023
1386	1.3781e+02	6.2160	8.694930	0.000229	2.292935	0.388434	-0.000023
1387	1.3791e+02	6.2054	8.668861	0.000262	2.620497	0.443924	-0.000026
1388	1.3801e+02	6.1965	8.646457	0.000225	2.251990	0.381497	-0.000023
1389	1.3811e+02	6.1883	8.617535	0.000291	2.907114	0.492478	-0.000029
1390	1.3821e+02	6.1752	8.594724	0.000229	2.292935	0.388434	-0.000023
1391	1.3831e+02	6.1651	8.568654	0.000262	2.620497	0.443924	-0.000026
1392	1.3840e+02	6.1565	8.542584	0.000262	2.620497	0.443924	-0.000026
1393	1.3850e+02	6.1440	8.514885	0.000278	2.784278	0.471669	-0.000028
1394	1.3860e+02	6.1357	8.490444	0.000246	2.456716	0.416179	-0.000025
1395	1.3870e+02	6.1275	8.463967	0.000266	2.661442	0.450861	-0.000027
1396	1.3880e+02	6.1179	8.434231	0.000299	2.989005	0.506351	-0.000030
1397	1.3890e+02	6.1060	8.408569	0.000258	2.579552	0.436988	-0.000026
1398	1.3900e+02	6.0976	8.381684	0.000270	2.702388	0.457797	-0.000027
1399	1.3910e+02	6.0870	8.356429	0.000254	2.538607	0.430052	-0.000025
1400	1.3920e+02	6.0755	8.324249	0.000323	3.234676	0.547969	-0.000032
1401	1.3930e+02	6.0651	8.301845	0.000225	2.251990	0.381497	-0.000023
1402	1.3940e+02	6.0572	8.275368	0.000266	2.661442	0.450861	-0.000027
1403	1.3950e+02	6.0452	8.251334	0.000242	2.415771	0.409243	-0.000024
1404	1.3960e+02	6.0354	8.224042	0.000274	2.743333	0.464733	-0.000027
1405	1.3970e+02	6.0244	8.199602	0.000246	2.456716	0.416179	-0.000025
1406	1.3980e+02	6.0146	8.171088	0.000287	2.866169	0.485542	-0.000029
1407	1.3990e+02	6.0070	8.145018	0.000262	2.620497	0.443924	-0.000026
1408	1.4000e+02	5.9988	8.117319	0.000278	2.784278	0.471669	-0.000028
1409	1.4010e+02	5.9873	8.090434	0.000270	2.702388	0.457797	-0.000027
1410	1.4020e+02	5.9742	8.064364	0.000262	2.620497	0.443924	-0.000026
1411	1.4029e+02	5.9686	8.036258	0.000283	2.825223	0.478606	-0.000028
1412	1.4039e+02	5.9579	8.010188	0.000262	2.620497	0.443924	-0.000026
1413	1.4049e+02	5.9492	7.983303	0.000270	2.702388	0.457797	-0.000027
1414	1.4059e+02	5.9360	7.954382	0.000291	2.907114	0.492478	-0.000029
1415	1.4069e+02	5.9258	7.932793	0.000217	2.170099	0.367625	-0.000022
1416	1.4079e+02	5.9185	7.901427	0.000315	3.152786	0.534096	-0.000032
1417	1.4089e+02	5.9071	7.876987	0.000246	2.456716	0.416179	-0.000025
1418	1.4099e+02	5.8974	7.850102	0.000270	2.702388	0.457797	-0.000027
1419	1.4109e+02	5.8877	7.825254	0.000250	2.497661	0.423115	-0.000025
1420	1.4119e+02	5.8764	7.798369	0.000270	2.702388	0.457797	-0.000027
1421	1.4129e+02	5.8669	7.771892	0.000266	2.661442	0.450861	-0.000027
1422	1.4139e+02	5.8550	7.744193	0.000278	2.784278	0.471669	-0.000028
1423	1.4149e+02	5.8454	7.716494	0.000278	2.784278	0.471669	-0.000028
1424	1.4159e+02	5.8379	7.689202	0.000274	2.743333	0.464733	-0.000027
1425	1.4169e+02	5.8285	7.661095	0.000283	2.825223	0.478606	-0.000028
1426	1.4179e+02	5.8199	7.635025	0.000262	2.620497	0.443924	-0.000026
1427	1.4189e+02	5.8073	7.606511	0.000287	2.866169	0.485542	-0.000029
1428	1.4199e+02	5.7959	7.579627	0.000270	2.702388	0.457797	-0.000027
1429	1.4209e+02	5.7870	7.553557	0.000262	2.620497	0.443924	-0.000026
1430	1.4219e+02	5.7760	7.527894	0.000258	2.579552	0.436988	-0.000026
1431	1.4228e+02	5.7666	7.496529	0.000315	3.152786	0.534096	-0.000032
1432	1.4238e+02	5.7596	7.472088	0.000246	2.456716	0.416179	-0.000025
1433	1.4248e+02	5.7473	7.443981	0.000283	2.825223	0.478606	-0.000028
1434	1.4258e+02	5.7365	7.413431	0.000307	3.070895	0.520224	-0.000031
1435	1.4268e+02	5.7281	7.390212	0.000233	2.333880	0.395370	-0.000023
1436	1.4278e+02	5.7168	7.361291	0.000291	2.907114	0.492478	-0.000029
1437	1.4288e+02	5.7071	7.329518	0.000319	3.193731	0.541033	-0.000032
1438	1.4298e+02	5.6975	7.305485	0.000242	2.415771	0.409243	-0.000024
1439	1.4308e+02	5.6878	7.278600	0.000270	2.702388	0.457797	-0.000027
1440	1.4318e+02	5.6777	7.250494	0.000283	2.825223	0.478606	-0.000028
1441	1.4328e+02	5.6695	7.225646	0.000250	2.497661	0.423115	-0.000025
1442	1.4338e+02	5.6574	7.195503	0.000303	3.029950	0.513287	-0.000030
1443	1.4348e+02	5.6499	7.173506	0.000221	2.211044	0.374561	-0.000022
1444	1.4358e+02	5.6371	7.145399	0.000283	2.825223	0.478606	-0.000028
1445	1.4368e+02	5.6292	7.117293	0.000283	2.825223	0.478606	-0.000028
1446	1.4378e+02	5.6178	7.090815	0.000266	2.661442	0.450861	-0.000027
1447	1.4388e+02	5.6054	7.063116	0.000278	2.784278	0.471669	-0.000028
1448	1.4398e+02	5.6011	7.037861	0.000254	2.538607	0.430052	-0.000025
1449	1.4408e+02	5.5896	7.010976	0.000270	2.702388	0.457797	-0.000027
1450	1.4418e+02	5.5772	6.985721	0.000254	2.538607	0.430052	-0.000025
1451	1.4428e+02	5.5669	6.962095	0.000237	2.374826	0.402306	-0.000024
1452	1.4437e+02	5.5582	6.931137	0.000311	3.111840	0.527160	-0.000031
1453	1.4447e+02	5.5480	6.903845	0.000274	2.743333	0.464733	-0.000027
1454	1.4457e+02	5.5364	6.874109	0.000299	2.989005	0.506351	-0.000030
1455	1.4467e+02	5.5311	6.850076	0.000242	2.415771	0.409243	-0.000024
1456	1.4477e+02	5.5196	6.816674	0.000336	3.357512	0.568778	-0.000034
1457	1.4487e+02	5.5102	6.791419	0.000254	2.538607	0.430052	-0.000025
1458	1.4497e+02	5.4981	6.764534	0.000270	2.702388	0.457797	-0.000027
1459	1.4507e+02	5.4888	6.736427	0.000283	2.825223	0.478606	-0.000028
1460	1.4517e+02	5.4762	6.709135	0.000274	2.743333	0.464733	-0.000027
1461	1.4527e+02	5.4702	6.680622	0.000287	2.866169	0.485542	-0.000029
1462	1.4537e+02	5.4578	6.651293	0.000295	2.948059	0.499415	-0.000029
1463	1.4547e+02	5.4494	6.623594	0.000278	2.784278	0.471669	-0.000028
1464	1.4557e+02	5.4389	6.595080	0.000287	2.866169	0.485542	-0.000029
1465	1.4567e+02	5.4283	6.564529	0.000307	3.070895	0.520224	-0.000031
1466	1.4577e+02	5.4200	6.536422	0.000283	2.825223	0.478606	-0.000028
1467	1.4587e+02	5.4086	6.503428	0.000332	3.316567	0.561842	-0.000033
1468	1.4597e+02	5.3973	6.478172	0.000254	2.538607	0.430052	-0.000025
1469	1.4607e+02	5.3924	6.446807	0.000315	3.152786	0.534096	-0.000032
1470	1.4617e+02	5.3805	6.414219	0.000328	3.275621	0.554905	-0.000033
1471	1.4626e+02	5.3698	6.388557	0.000258	2.579552	0.436988	-0.000026
1472	1.4636e+02	5.3614	6.355155	0.000336	3.357512	0.568778	-0.000034
1473	1.4646e+02	5.3503	6.329492	0.000258	2.579552	0.436988	-0.000026
1474	1.4656e+02	5.3394	6.300164	0.000295	2.948059	0.499415	-0.000029
1475	1.4666e+02	5.3288	6.270020	0.000303	3.029950	0.513287	-0.000030
1476	1.4676e+02	5.3213	6.242321	0.000278	2.784278	0.471669	-0.000028
1477	1.4686e+02	5.3080	6.215029	0.000274	2.743333	0.464733	-0.000027
1478	1.4696e+02	5.3004	6.185293	0.000299	2.989005	0.506351	-0.000030
1479	1.4706e+02	5.2871	6.155964	0.000295	2.948059	0.499415	-0.000029
1480	1.4716e+02	5.2810	6.126636	0.000295	2.948059	0.499415	-0.000029
1481	1.4726e+02	5.2697	6.101380	0.000254	2.538607	0.430052	-0.000025
1482	1.4736e+02	5.2595	6.070422	0.000311	3.111840	0.527160	-0.000031
1483	1.4746e+02	5.2502	6.041501	0.000291	2.907114	0.492478	-0.000029
1484	1.4756e+02	5.2431	6.013802	0.000278	2.784278	0.471669	-0.000028
1485	1.4766e+02	5.2289	5.982844	0.000311	3.111840	0.527160	-0.000031
1486	1.4776e+02	5.2174	5.955144	0.000278	2.784278	0.471669	-0.000028
1487	1.4786e+02	5.2086	5.931519	0.000237	2.374826	0.402306	-0.000024
1488	1.4796e+02	5.1987	5.896894	0.000348	3.480348	0.589587	-0.000035
1489	1.4806e+02	5.1917	5.871639	0.000254	2.538607	0.430052	-0.000025
1490	1.4816e+02	5.1781	5.839866	0.000319	3.193731	0.541033	-0.000032
1491	1.4825e+02	5.1714	5.814611	0.000254	2.538607	0.430052	-0.000025
1492	1.4835e+02	5.1613	5.784468	0.000303	3.029950	0.513287	-0.000030
1493	1.4845e+02	5.1500	5.755139	0.000295	2.948059	0.499415	-0.000029
1494	1.4855e+02	5.1394	5.725403	0.000299	2.989005	0.506351	-0.000030
1495	1.4865e+02	5.1293	5.697704	0.000278	2.784278	0.471669	-0.000028
1496	1.4875e+02	5.1218	5.668783	0.000291	2.907114	0.492478	-0.000029
1497	1.4885e+02	5.1093	5.641898	0.000270	2.702388	0.457797	-0.000027
1498	1.4895e+02	5.0982	5.612162	0.000299	2.989005	0.506351	-0.000030
1499	1.4905e+02	5.0922	5.584055	0.000283	2.825223	0.478606	-0.000028
1500	1.4915e+02	5.0799	5.549431	0.000348	3.480348	0.589587	-0.000035
1501	1.4925e+02	5.0726	5.520917	0.000287	2.866169	0.485542	-0.000029
1502	1.4935e+02	5.0597	5.491996	0.000291	2.907114	0.492478	-0.000029
1503	1.4945e+02	5.0565	5.460631	0.000315	3.152786	0.534096	-0.000032
1504	1.4955e+02	5.0399	5.432524	0.000283	2.825223	0.478606	-0.000028
1505	1.4965e+02	5.0317	5.408083	0.000246	2.456716	0.416179	-0.000025
1506	1.4975e+02	5.0218	5.378755	0.000295	2.948059	0.499415	-0.000029
1507	1.4985e+02	5.0111	5.348204	0.000307	3.070895	0.520224	-0.000031
1508	1.4995e+02	4.9998	5.323356	0.000250	2.497661	0.423115	-0.000025
1509	1.5005e+02	4.9911	5.291583	0.000319	3.193731	0.541033	-0.000032
1510	1.5015e+02	4.9820	5.264699	0.000270	2.702388	0.457797	-0.000027
1511	1.5025e+02	4.9728	5.237814	0.000270	2.702388	0.457797	-0.000027
1512	1.5034e+02	4.9615	5.207671	0.000303	3.029950	0.513287	-0.000030
1513	1.5044e+02	4.9508	5.179157	0.000287	2.866169	0.485542	-0.000029
1514	1.5054e+02	4.9407	5.148606	0.000307	3.070895	0.520224	-0.000031
1515	1.5064e+02	4.9296	5.118463	0.000303	3.029950	0.513287	-0.000030
1516	1.5074e+02	4.9203	5.090764	0.000278	2.784278	0.471669	-0.000028
1517	1.5084e+02	4.9160	5.060213	0.000307	3.070895	0.520224	-0.000031
1518	1.5094e+02	4.9016	5.029662	0.000307	3.070895	0.520224	-0.000031
1519	1.5104e+02	4.8943	5.001963	0.000278	2.784278	0.471669	-0.000028
1520	1.5114e+02	4.8837	4.970597	0.000315	3.152786	0.534096	-0.000032
1521	1.5124e+02	4.8730	4.945750	0.000250	2.497661	0.423115	-0.000025
1522	1.5134e+02	4.8620	4.915606	0.000303	3.029950	0.513287	-0.000030
1523	1.5144e+02	4.8510	4.889129	0.000266	2.661442	0.450861	-0.000027
1524	1.5154e+02	4.8444	4.856949	0.000323	3.234676	0.547969	-0.000032
1525	1.5164e+02	4.8316	4.825584	0.000315	3.152786	0.534096	-0.000032
1526	1.5174e+02	4.8214	4.800736	0.000250	2.497661	0.423115	-0.000025
1527	1.5184e+02	4.8113	4.768148	0.000328	3.275621	0.554905	-0.000033
1528	1.5194e+02	4.8029	4.736783	0.000315	3.152786	0.534096	-0.000032
1529	1.5204e+02	4.7930	4.708676	0.000283	2.825223	0.478606	-0.000028
1530	1.5214e+02	4.7848	4.674867	0.000340	3.398457	0.575714	-0.000034
1531	1.5224e+02	4.7732	4.644316	0.000307	3.070895	0.520224	-0.000031
1532	1.5233e+02	4.7613	4.611321	0.000332	3.316567	0.561842	-0.000033
1533	1.5243e+02	4.7543	4.581993	0.000295	2.948059	0.499415	-0.000029
1534	1.5253e+02	4.7419	4.549813	0.000323	3.234676	0.547969	-0.000032
1535	1.5263e+02	4.7350	4.521706	0.000283	2.825223	0.478606	-0.000028
1536	1.5273e+02	4.7215	4.489933	0.000319	3.193731	0.541033	-0.000032
1537	1.5283e+02	4.7106	4.457753	0.000323	3.234676	0.547969	-0.000032
1538	1.5293e+02	4.7054	4.431276	0.000266	2.661442	0.450861	-0.000027
1539	1.5303e+02	4.6935	4.402355	0.000291	2.907114	0.492478	-0.000029
1540	1.5313e+02	4.6832	4.374248	0.000283	2.825223	0.478606	-0.000028
1541	1.5323e+02	4.6754	4.342068	0.000323	3.234676	0.547969	-0.000032
1542	1.5333e+02	4.6642	4.311110	0.000311	3.111840	0.527160	-0.000031
1543	1.5343e+02	4.6535	4.285040	0.000262	2.620497	0.443924	-0.000026
1544	1.5353e+02	4.6450	4.254082	0.000311	3.111840	0.527160	-0.000031
1545	1.5363e+02	4.6336	4.222717	0.000315	3.152786	0.534096	-0.000032
1546	1.5373e+02	4.6239	4.195832	0.000270	2.702388	0.457797	-0.000027
1547	1.5383e+02	4.6142	4.164059	0.000319	3.193731	0.541033	-0.000032
1548	1.5393e+02	4.6001	4.139211	0.000250	2.497661	0.423115	-0.000025
1549	1.5403e+02	4.5945	4.108253	0.000311	3.111840	0.527160	-0.000031
1550	1.5413e+02	4.5802	4.078110	0.000303	3.029950	0.513287	-0.000030
1551	1.5422e+02	4.5714	4.055299	0.000229	2.292935	0.388434	-0.000023
1552	1.5432e+02	4.5638	4.025563	0.000299	2.989005	0.506351	-0.000030
1553	1.5442e+02	4.5538	3.996234	0.000295	2.948059	0.499415	-0.000029
1554	1.5452e+02	4.5434	3.968535	0.000278	2.784278	0.471669	-0.000028
1555	1.5462e+02	4.5336	3.941243	0.000274	2.743333	0.464733	-0.000027
1556	1.5472e+02	4.5232	3.910285	0.000311	3.111840	0.527160	-0.000031
1557	1.5482e+02	4.5108	3.880956	0.000295	2.948059	0.499415	-0.000029
1558	1.5492e+02	4.5068	3.854479	0.000266	2.661442	0.450861	-0.000027
1559	1.5502e+02	4.4935	3.826372	0.000283	2.825223	0.478606	-0.000028
1560	1.5512e+02	4.4827	3.795414	0.000311	3.111840	0.527160	-0.000031
1561	1.5522e+02	4.4741	3.766900	0.000287	2.866169	0.485542	-0.000029
1562	1.5532e+02	4.4628	3.735128	0.000319	3.193731	0.541033	-0.000032
1563	1.5542e+02	4.4549	3.703762	0.000315	3.152786	0.534096	-0.000032
1564	1.5552e+02	4.4428	3.675248	0.000287	2.866169	0.485542	-0.000029
1565	1.5562e+02	4.4341	3.644290	0.000311	3.111840	0.527160	-0.000031
1566	1.5572e+02	4.4234	3.615369	0.000291	2.907114	0.492478	-0.000029
1567	1.5582e+02	4.4161	3.586040	0.000295	2.948059	0.499415	-0.000029
1568	1.5592e+02	4.4044	3.557934	0.000283	2.825223	0.478606	-0.000028
1569	1.5602e+02	4.3911	3.524124	0.000340	3.398457	0.575714	-0.000034
1570	1.5612e+02	4.3835	3.495610	0.000287	2.866169	0.485542	-0.000029
1571	1.5622e+02	4.3745	3.463837	0.000319	3.193731	0.541033	-0.000032
1572	1.5631e+02	4.3642	3.436545	0.000274	2.743333	0.464733	-0.000027
1573	1.5641e+02	4.3542	3.405587	0.000311	3.111840	0.527160	-0.000031
1574	1.5651e+02	4.3465	3.374629	0.000311	3.111840	0.527160	-0.000031
1575	1.5661e+02	4.3356	3.342857	0.000319	3.193731	0.541033	-0.000032
1576	1.5671e+02	4.3237	3.313121	0.000299	2.989005	0.506351	-0.000030
1577	1.5681e+02	4.3156	3.280126	0.000332	3.316567	0.561842	-0.000033
1578	1.5691e+02	4.3056	3.254056	0.000262	2.620497	0.443924	-0.000026
1579	1.5701e+02	4.2963	3.225135	0.000291	2.907114	0.492478	-0.000029
1580	1.5711e+02	4.2837	3.191325	0.000340	3.398457	0.575714	-0.000034
1581	1.5721e+02	4.2731	3.162404	0.000291	2.907114	0.492478	-0.000029
1582	1.5731e+02	4.2652	3.135112	0.000274	2.743333	0.464733	-0.000027
1583	1.5741e+02	4.2565	3.100895	0.000344	3.439402	0.582651	-0.000034
1584	1.5751e+02	4.2445	3.075233	0.000258	2.579552	0.436988	-0.000026
1585	1.5761e+02	4.2332	3.045089	0.000303	3.029950	0.513287	-0.000030
1586	1.5771e+02	4.2232	3.011280	0.000340	3.398457	0.575714	-0.000034
1587	1.5781e+02	4.2146	2.984395	0.000270	2.702388	0.457797	-0.000027
1588	1.5791e+02	4.2049	2.955881	0.000287	2.866169	0.485542	-0.000029
1589	1.5801e+02	4.1977	2.923294	0.000328	3.275621	0.554905	-0.000033
1590	1.5811e+02	4.1862	2.893558	0.000299	2.989005	0.506351	-0.000030
1591	1.5821e+02	4.1759	2.858934	0.000348	3.480348	0.589587	-0.000035
1592	1.5830e+02	4.1663	2.827568	0.000315	3.152786	0.534096	-0.000032
1593	1.5840e+02	4.1547	2.795388	0.000323	3.234676	0.547969	-0.000032
1594	1.5850e+02	4.1448	2.765652	0.000299	2.989005	0.506351	-0.000030
1595	1.5860e+02	4.1337	2.734694	0.000311	3.111840	0.527160	-0.000031
1596	1.5870e+02	4.1239	2.703329	0.000315	3.152786	0.534096	-0.000032
1597	1.5880e+02	4.1154	2.672778	0.000307	3.070895	0.520224	-0.000031
1598	1.5890e+02	4.1070	2.645486	0.000274	2.743333	0.464733	-0.000027
1599	1.5900e+02	4.0963	2.611677	0.000340	3.398457	0.575714	-0.000034
1600	1.5910e+02	4.0858	2.581941	0.000299	2.989005	0.506351	-0.000030
1601	1.5920e+02	4.0762	2.551390	0.000307	3.070895	0.520224	-0.000031
1602	1.5930e+02	4.0662	2.522061	0.000295	2.948059	0.499415	-0.000029
1603	1.5940e+02	4.0560	2.487845	0.000344	3.439402	0.582651	-0.000034
1604	1.5950e+02	4.0454	2.456072	0.000319	3.193731	0.541033	-0.000032
1605	1.5960e+02	4.0372	2.426743	0.000295	2.948059	0.499415	-0.000029
1606	1.5970e+02	4.0264	2.393341	0.000336	3.357512	0.568778	-0.000034
1607	1.5980e+02	4.0157	2.363198	0.000303	3.029950	0.513287	-0.000030
1608	1.5990e+02	4.0054	2.332240	0.000311	3.111840	0.527160	-0.000031
1609	1.6000e+02	3.9962	2.300874	0.000315	3.152786	0.534096	-0.000032
1610	1.6010e+02	3.9857	2.270731	0.000303	3.029950	0.513287	-0.000030
1611	1.6019e+02	3.9755	2.239366	0.000315	3.152786	0.534096	-0.000032
1612	1.6029e+02	3.9674	2.209630	0.000299	2.989005	0.506351	-0.000030
1613	1.6039e+02	3.9552	2.180301	0.000295	2.948059	0.499415	-0.000029
1614	1.6049e+02	3.9453	2.150565	0.000299	2.989005	0.506351	-0.000030
1615	1.6059e+02	3.9371	2.121644	0.000291	2.907114	0.492478	-0.000029
1616	1.6069e+02	3.9286	2.092722	0.000291	2.907114	0.492478	-0.000029
1617	1.6079e+02	3.9173	2.062986	0.000299	2.989005	0.506351	-0.000030
1618	1.6089e+02	3.9068	2.034065	0.000291	2.907114	0.492478	-0.000029
1619	1.6099e+02	3.8956	2.003514	0.000307	3.070895	0.520224	-0.000031
1620	1.6109e+02	3.8869	1.972556	0.000311	3.111840	0.527160	-0.000031
1621	1.6119e+02	3.8756	1.939562	0.000332	3.316567	0.561842	-0.000033
1622	1.6129e+02	3.8671	1.909826	0.000299	2.989005	0.506351	-0.000030
1623	1.6139e+02	3.8564	1.876831	0.000332	3.316567	0.561842	-0.000033
1624	1.6149e+02	3.8494	1.840985	0.000360	3.603184	0.610396	-0.000036
1625	1.6159e+02	3.8358	1.812878	0.000283	2.825223	0.478606	-0.000028
1626	1.6169e+02	3.8274	1.782735	0.000303	3.029950	0.513287	-0.000030
1627	1.6179e+02	3.8184	1.754221	0.000287	2.866169	0.485542	-0.000029
1628	1.6189e+02	3.8047	1.720411	0.000340	3.398457	0.575714	-0.000034
1629	1.6199e+02	3.7991	1.687824	0.000328	3.275621	0.554905	-0.000033
1630	1.6209e+02	3.7862	1.658088	0.000299	2.989005	0.506351	-0.000030
1631	1.6219e+02	3.7785	1.629574	0.000287	2.866169	0.485542	-0.000029
1632	1.6228e+02	3.7667	1.592506	0.000373	3.726019	0.631205	-0.000037
1633	1.6238e+02	3.7582	1.558289	0.000344	3.439402	0.582651	-0.000034
1634	1.6248e+02	3.7487	1.525702	0.000328	3.275621	0.554905	-0.000033
1635	1.6258e+02	3.7362	1.488226	0.000377	3.766965	0.638141	-0.000038
1636	1.6268e+02	3.7272	1.456453	0.000319	3.193731	0.541033	-0.000032
1637	1.6278e+02	3.7157	1.421014	0.000356	3.562238	0.603459	-0.000036
1638	1.6288e+02	3.7106	1.388427	0.000328	3.275621	0.554905	-0.000033
1639	1.6298e+02	3.6983	1.355840	0.000328	3.275621	0.554905	-0.000033
1640	1.6308e+02	3.6891	1.326511	0.000295	2.948059	0.499415	-0.000029
1641	1.6318e+02	3.6805	1.292702	0.000340	3.398457	0.575714	-0.000034
1642	1.6328e+02	3.6700	1.259707	0.000332	3.316567	0.561842	-0.000033
1643	1.6338e+02	3.6588	1.228341	0.000315	3.152786	0.534096	-0.000032
1644	1.6348e+02	3.6474	1.194939	0.000336	3.357512	0.568778	-0.000034
1645	1.6358e+02	3.6382	1.164389	0.000307	3.070895	0.520224	-0.000031
1646	1.6368e+02	3.6270	1.127321	0.000373	3.726019	0.631205	-0.000037
1647	1.6378e+02	3.6195	1.100843	0.000266	2.661442	0.450861	-0.000027
1648	1.6388e+02	3.6108	1.063775	0.000373	3.726019	0.631205	-0.000037
1649	1.6398e+02	3.5996	1.033224	0.000307	3.070895	0.520224	-0.000031
1650	1.6408e+02	3.5889	1.000637	0.000328	3.275621	0.554905	-0.000033
1651	1.6418e+02	3.5767	0.970086	0.000307	3.070895	0.520224	-0.000031
1652	1.6427e+02	3.5693	0.936277	0.000340	3.398457	0.575714	-0.000034
1653	1.6437e+02	3.5577	0.905319	0.000311	3.111840	0.527160	-0.000031
1654	1.6447e+02	3.5459	0.870695	0.000348	3.480348	0.589587	-0.000035
1655	1.6457e+02	3.5387	0.837293	0.000336	3.357512	0.568778	-0.000034
1656	1.6467e+02	3.5285	0.805927	0.000315	3.152786	0.534096	-0.000032
1657	1.6477e+02	3.5194	0.771710	0.000344	3.439402	0.582651	-0.000034
1658	1.6487e+02	3.5101	0.742789	0.000291	2.907114	0.492478	-0.000029
1659	1.6497e+02	3.4988	0.707758	0.000352	3.521293	0.596523	-0.000035
1660	1.6507e+02	3.4875	0.673948	0.000340	3.398457	0.575714	-0.000034
1661	1.6517e+02	3.4789	0.643398	0.000307	3.070895	0.520224	-0.000031
1662	1.6527e+02	3.4692	0.614884	0.000287	2.866169	0.485542	-0.000029
1663	1.6537e+02	3.4592	0.580259	0.000348	3.480348	0.589587	-0.000035
1664	1.6547e+02	3.4504	0.546857	0.000336	3.357512	0.568778	-0.000034
1665	1.6557e+02	3.4392	0.515492	0.000315	3.152786	0.534096	-0.000032
1666	1.6567e+02	3.4292	0.482497	0.000332	3.316567	0.561842	-0.000033
1667	1.6577e+02	3.4194	0.449910	0.000328	3.275621	0.554905	-0.000033
1668	1.6587e+02	3.4090	0.413249	0.000369	3.685074	0.624268	-0.000037
1669	1.6597e+02	3.4000	0.378625	0.000348	3.480348	0.589587	-0.000035
1670	1.6607e+02	3.3892	0.349704	0.000291	2.907114	0.492478	-0.000029
1671	1.6616e+02	3.3790	0.315079	0.000348	3.480348	0.589587	-0.000035
1672	1.6626e+02	3.3682	0.278419	0.000369	3.685074	0.624268	-0.000037
1673	1.6636e+02	3.3576	0.245424	0.000332	3.316567	0.561842	-0.000033
1674	1.6646e+02	3.3480	0.216503	0.000291	2.907114	0.492478	-0.000029
1675	1.6656e+02	3.3381	0.184730	0.000319	3.193731	0.541033	-0.000032
1676	1.6666e+02	3.3304	0.151328	0.000336	3.357512	0.568778	-0.000034
1677	1.6676e+02	3.3211	0.123628	0.000278	2.784278	0.471669	-0.000028
1678	1.6686e+02	3.3125	0.089004	0.000348	3.480348	0.589587	-0.000035
1679	1.6696e+02	3.2996	0.054380	0.000348	3.480348	0.589587	-0.000035
1680	1.6706e+02	3.2916	0.021793	0.000328	3.275621	0.554905	-0.000033
1681	1.6716e+02	3.2792	-0.011609	0.000336	3.357512	0.568778	-0.000034
1682	1.6726e+02	3.2697	-0.044604	0.000332	3.316567	0.561842	-0.000033
1683	1.6736e+02	3.2589	-0.074340	0.000299	2.989005	0.506351	-0.000030
1684	1.6746e+02	3.2497	-0.113852	0.000397	3.971691	0.672823	-0.000040
1685	1.6756e+02	3.2384	-0.144403	0.000307	3.070895	0.520224	-0.000031
1686	1.6766e+02	3.2307	-0.179842	0.000356	3.562238	0.603459	-0.000036
1687	1.6776e+02	3.2204	-0.212429	0.000328	3.275621	0.554905	-0.000033
1688	1.6786e+02	3.2098	-0.243387	0.000311	3.111840	0.527160	-0.000031
1689	1.6796e+02	3.1988	-0.276789	0.000336	3.357512	0.568778	-0.000034
1690	1.6806e+02	3.1883	-0.309784	0.000332	3.316567	0.561842	-0.000033
1691	1.6816e+02	3.1843	-0.335447	0.000258	2.579552	0.436988	-0.000026
1692	1.6825e+02	3.1672	-0.373737	0.000385	3.848855	0.652014	-0.000038
1693	1.6835e+02	3.1597	-0.402251	0.000287	2.866169	0.485542	-0.000029
1694	1.6845e+02	3.1522	-0.441763	0.000397	3.971691	0.672823	-0.000040
1695	1.6855e+02	3.1402	-0.475165	0.000336	3.357512	0.568778	-0.000034
1696	1.6865e+02	3.1316	-0.512233	0.000373	3.726019	0.631205	-0.000037
1697	1.6875e+02	3.1230	-0.543191	0.000311	3.111840	0.527160	-0.000031
1698	1.6885e+02	3.1123	-0.577001	0.000340	3.398457	0.575714	-0.000034
1699	1.6895e+02	3.0996	-0.617735	0.000409	4.094527	0.693632	-0.000041
1700	1.6905e+02	3.0918	-0.650730	0.000332	3.316567	0.561842	-0.000033
1701	1.6915e+02	3.0803	-0.685761	0.000352	3.521293	0.596523	-0.000035
1702	1.6925e+02	3.0733	-0.719978	0.000344	3.439402	0.582651	-0.000034
1703	1.6935e+02	3.0592	-0.753380	0.000336	3.357512	0.568778	-0.000034
1704	1.6945e+02	3.0490	-0.786375	0.000332	3.316567	0.561842	-0.000033
1705	1.6955e+02	3.0418	-0.820184	0.000340	3.398457	0.575714	-0.000034
1706	1.6965e+02	3.0319	-0.849920	0.000299	2.989005	0.506351	-0.000030
1707	1.6975e+02	3.0220	-0.886988	0.000373	3.726019	0.631205	-0.000037
1708	1.6985e+02	3.0132	-0.915910	0.000291	2.907114	0.492478	-0.000029
1709	1.6995e+02	3.0002	-0.951756	0.000360	3.603184	0.610396	-0.000036
1710	1.7005e+02	2.9913	-0.988009	0.000364	3.644129	0.617332	-0.000036
1711	1.7015e+02	2.9807	-1.021819	0.000340	3.398457	0.575714	-0.000034
1712	1.7024e+02	2.9733	-1.057258	0.000356	3.562238	0.603459	-0.000036
1713	1.7034e+02	2.9628	-1.088623	0.000315	3.152786	0.534096	-0.000032
1714	1.7044e+02	2.9536	-1.124469	0.000360	3.603184	0.610396	-0.000036
1715	1.7054e+02	2.9417	-1.157464	0.000332	3.316567	0.561842	-0.000033
1716	1.7064e+02	2.9305	-1.187607	0.000303	3.029950	0.513287	-0.000030
1717	1.7074e+02	2.9205	-1.222231	0.000348	3.480348	0.589587	-0.000035
1718	1.7084e+02	2.9114	-1.251967	0.000299	2.989005	0.506351	-0.000030
1719	1.7094e+02	2.8997	-1.282111	0.000303	3.029950	0.513287	-0.000030
1720	1.7104e+02	2.8880	-1.315105	0.000332	3.316567	0.561842	-0.000033
1721	1.7114e+02	2.8798	-1.348915	0.000340	3.398457	0.575714	-0.000034
1722	1.7124e+02	2.8738	-1.376614	0.000278	2.784278	0.471669	-0.000028
1723	1.7134e+02	2.8638	-1.411646	0.000352	3.521293	0.596523	-0.000035
1724	1.7144e+02	2.8540	-1.444233	0.000328	3.275621	0.554905	-0.000033
1725	1.7154e+02	2.8427	-1.476006	0.000319	3.193731	0.541033	-0.000032
1726	1.7164e+02	2.8312	-1.509815	0.000340	3.398457	0.575714	-0.000034
1727	1.7174e+02	2.8222	-1.544032	0.000344	3.439402	0.582651	-0.000034
1728	1.7184e+02	2.8098	-1.573768	0.000299	2.989005	0.506351	-0.000030
1729	1.7194e+02	2.8001	-1.612465	0.000389	3.889800	0.658950	-0.000039
1730	1.7204e+02	2.7917	-1.647904	0.000356	3.562238	0.603459	-0.000036
1731	1.7213e+02	2.7835	-1.678862	0.000311	3.111840	0.527160	-0.000031
1732	1.7223e+02	2.7688	-1.717560	0.000389	3.889800	0.658950	-0.000039
1733	1.7233e+02	2.7624	-1.746074	0.000287	2.866169	0.485542	-0.000029
1734	1.7243e+02	2.7533	-1.780291	0.000344	3.439402	0.582651	-0.000034
1735	1.7253e+02	2.7420	-1.818173	0.000381	3.807910	0.645077	-0.000038
1736	1.7263e+02	2.7319	-1.850354	0.000323	3.234676	0.547969	-0.000032
1737	1.7273e+02	2.7206	-1.880497	0.000303	3.029950	0.513287	-0.000030
1738	1.7283e+02	2.7106	-1.918787	0.000385	3.848855	0.652014	-0.000038
1739	1.7293e+02	2.7029	-1.952189	0.000336	3.357512	0.568778	-0.000034
1740	1.7303e+02	2.6916	-1.990072	0.000381	3.807910	0.645077	-0.000038
1741	1.7313e+02	2.6836	-2.020623	0.000307	3.070895	0.520224	-0.000031
1742	1.7323e+02	2.6754	-2.054025	0.000336	3.357512	0.568778	-0.000034
1743	1.7333e+02	2.6632	-2.086205	0.000323	3.234676	0.547969	-0.000032
1744	1.7343e+02	2.6530	-2.124088	0.000381	3.807910	0.645077	-0.000038
1745	1.7353e+02	2.6438	-2.157897	0.000340	3.398457	0.575714	-0.000034
1746	1.7363e+02	2.6287	-2.188041	0.000303	3.029950	0.513287	-0.000030
1747	1.7373e+02	2.6249	-2.229182	0.000414	4.135472	0.700568	-0.000041
1748	1.7383e+02	2.6119	-2.260955	0.000319	3.193731	0.541033	-0.000032
1749	1.7393e+02	2.6028	-2.291913	0.000311	3.111840	0.527160	-0.000031
1750	1.7403e+02	2.5937	-2.328981	0.000373	3.726019	0.631205	-0.000037
1751	1.7413e+02	2.5823	-2.360754	0.000319	3.193731	0.541033	-0.000032
1752	1.7422e+02	2.5745	-2.396600	0.000360	3.603184	0.610396	-0.000036
1753	1.7432e+02	2.5634	-2.428373	0.000319	3.193731	0.541033	-0.000032
1754	1.7442e+02	2.5528	-2.464626	0.000364	3.644129	0.617332	-0.000036
1755	1.7452e+02	2.5426	-2.498436	0.000340	3.398457	0.575714	-0.000034
1756	1.7462e+02	2.5329	-2.533467	0.000352	3.521293	0.596523	-0.000035
1757	1.7472e+02	2.5237	-2.567684	0.000344	3.439402	0.582651	-0.000034
1758	1.7482e+02	2.5158	-2.602715	0.000352	3.521293	0.596523	-0.000035
1759	1.7492e+02	2.5047	-2.634488	0.000319	3.193731	0.541033	-0.000032
1760	1.7502e+02	2.4933	-2.673185	0.000389	3.889800	0.658950	-0.000039
1761	1.7512e+02	2.4808	-2.707810	0.000348	3.480348	0.589587	-0.000035
1762	1.7522e+02	2.4761	-2.744878	0.000373	3.726019	0.631205	-0.000037
1763	1.7532e+02	2.4625	-2.780724	0.000360	3.603184	0.610396	-0.000036
1764	1.7542e+02	2.4538	-2.809238	0.000287	2.866169	0.485542	-0.000029
1765	1.7552e+02	2.4429	-2.846713	0.000377	3.766965	0.638141	-0.000038
1766	1.7562e+02	2.4343	-2.880116	0.000336	3.357512	0.568778	-0.000034
1767	1.7572e+02	2.4245	-2.920035	0.000401	4.012636	0.679759	-0.000040
1768	1.7582e+02	2.4135	-2.951808	0.000319	3.193731	0.541033	-0.000032
1769	1.7592e+02	2.4030	-2.986839	0.000352	3.521293	0.596523	-0.000035
1770	1.7602e+02	2.3953	-3.021463	0.000348	3.480348	0.589587	-0.000035
1771	1.7612e+02	2.3869	-3.058939	0.000377	3.766965	0.638141	-0.000038
1772	1.7621e+02	2.3758	-3.093156	0.000344	3.439402	0.582651	-0.000034
1773	1.7631e+02	2.3651	-3.127372	0.000344	3.439402	0.582651	-0.000034
1774	1.7641e+02	2.3554	-3.164033	0.000369	3.685074	0.624268	-0.000037
1775	1.7651e+02	2.3412	-3.198657	0.000348	3.480348	0.589587	-0.000035
1776	1.7661e+02	2.3368	-3.232874	0.000344	3.439402	0.582651	-0.000034
1777	1.7671e+02	2.3276	-3.269128	0.000364	3.644129	0.617332	-0.000036
1778	1.7681e+02	2.3157	-3.300493	0.000315	3.152786	0.534096	-0.000032
1779	1.7691e+02	2.3035	-3.338376	0.000381	3.807910	0.645077	-0.000038
1780	1.7701e+02	2.2945	-3.373815	0.000356	3.562238	0.603459	-0.000036
1781	1.7711e+02	2.2841	-3.408846	0.000352	3.521293	0.596523	-0.000035
1782	1.7721e+02	2.2771	-3.439397	0.000307	3.070895	0.520224	-0.000031
1783	1.7731e+02	2.2660	-3.473206	0.000340	3.398457	0.575714	-0.000034
1784	1.7741e+02	2.2559	-3.506608	0.000336	3.357512	0.568778	-0.000034
1785	1.7751e+02	2.2461	-3.540010	0.000336	3.357512	0.568778	-0.000034
1786	1.7761e+02	2.2328	-3.576671	0.000369	3.685074	0.624268	-0.000037
1787	1.7771e+02	2.2248	-3.612925	0.000364	3.644129	0.617332	-0.000036
1788	1.7781e+02	2.2149	-3.649178	0.000364	3.644129	0.617332	-0.000036
1789	1.7791e+02	2.2055	-3.682580	0.000336	3.357512	0.568778	-0.000034
1790	1.7801e+02	2.1952	-3.718834	0.000364	3.644129	0.617332	-0.000036
1791	1.7810e+02	2.1851	-3.754273	0.000356	3.562238	0.603459	-0.000036
1792	1.7820e+02	2.1740	-3.791341	0.000373	3.726019	0.631205	-0.000037
1793	1.7830e+02	2.1667	-3.825965	0.000348	3.480348	0.589587	-0.000035
1794	1.7840e+02	2.1536	-3.864662	0.000389	3.889800	0.658950	-0.000039
1795	1.7850e+02	2.1451	-3.898879	0.000344	3.439402	0.582651	-0.000034
1796	1.7860e+02	2.1353	-3.930245	0.000315	3.152786	0.534096	-0.000032
1797	1.7870e+02	2.1261	-3.967313	0.000373	3.726019	0.631205	-0.000037
1798	1.7880e+02	2.1175	-3.999493	0.000323	3.234676	0.547969	-0.000032
1799	1.7890e+02	2.1059	-4.038190	0.000389	3.889800	0.658950	-0.000039
1800	1.7900e+02	2.0965	-4.079332	0.000414	4.135472	0.700568	-0.000041
1801	1.7910e+02	2.0855	-4.115585	0.000364	3.644129	0.617332	-0.000036
1802	1.7920e+02	2.0744	-4.153876	0.000385	3.848855	0.652014	-0.000038
1803	1.7930e+02	2.0663	-4.190536	0.000369	3.685074	0.624268	-0.000037
1804	1.7940e+02	2.0550	-4.229641	0.000393	3.930746	0.665886	-0.000039
1805	1.7950e+02	2.0467	-4.268746	0.000393	3.930746	0.665886	-0.000039
1806	1.7960e+02	2.0379	-4.305000	0.000364	3.644129	0.617332	-0.000036
1807	1.7970e+02	2.0247	-4.346549	0.000418	4.176417	0.707504	-0.000042
1808	1.7980e+02	2.0162	-4.379543	0.000332	3.316567	0.561842	-0.000033
1809	1.7990e+02	2.0071	-4.417834	0.000385	3.848855	0.652014	-0.000038
1810	1.8000e+02	1.9954	-4.452865	0.000352	3.521293	0.596523	-0.000035
1811	1.8009e+02	1.9870	-4.490748	0.000381	3.807910	0.645077	-0.000038
1812	1.8019e+02	1.9749	-4.527001	0.000364	3.644129	0.617332	-0.000036
1813	1.8029e+02	1.9656	-4.561626	0.000348	3.480348	0.589587	-0.000035
1814	1.8039e+02	1.9570	-4.597064	0.000356	3.562238	0.603459	-0.000036
1815	1.8049e+02	1.9447	-4.636577	0.000397	3.971691	0.672823	-0.000040
1816	1.8059e+02	1.9363	-4.672423	0.000360	3.603184	0.610396	-0.000036
1817	1.8069e+02	1.9263	-4.708676	0.000364	3.644129	0.617332	-0.000036
1818	1.8079e+02	1.9181	-4.743708	0.000352	3.521293	0.596523	-0.000035
1819	1.8089e+02	1.9073	-4.784035	0.000405	4.053581	0.686695	-0.000041
1820	1.8099e+02	1.8943	-4.816622	0.000328	3.275621	0.554905	-0.000033
1821	1.8109e+02	1.8843	-4.855727	0.000393	3.930746	0.665886	-0.000039
1822	1.8119e+02	1.8790	-4.889129	0.000336	3.357512	0.568778	-0.000034
1823	1.8129e+02	1.8674	-4.929456	0.000405	4.053581	0.686695	-0.000041
1824	1.8139e+02	1.8552	-4.961636	0.000323	3.234676	0.547969	-0.000032
1825	1.8149e+02	1.8480	-5.002778	0.000414	4.135472	0.700568	-0.000041
1826	1.8159e+02	1.8375	-5.039031	0.000364	3.644129	0.617332	-0.000036
1827	1.8169e+02	1.8256	-5.075692	0.000369	3.685074	0.624268	-0.000037
1828	1.8179e+02	1.8179	-5.113575	0.000381	3.807910	0.645077	-0.000038
1829	1.8189e+02	1.8053	-5.148606	0.000352	3.521293	0.596523	-0.000035
1830	1.8199e+02	1.7986	-5.183230	0.000348	3.480348	0.589587	-0.000035
1831	1.8209e+02	1.7876	-5.222743	0.000397	3.971691	0.672823	-0.000040
1832	1.8218e+02	1.7793	-5.258996	0.000364	3.644129	0.617332	-0.000036
1833	1.8228e+02	1.7661	-5.294842	0.000360	3.603184	0.610396	-0.000036
1834	1.8238e+02	1.7594	-5.335576	0.000409	4.094527	0.693632	-0.000041
1835	1.8248e+02	1.7467	-5.371830	0.000364	3.644129	0.617332	-0.000036
1836	1.8258e+02	1.7383	-5.409305	0.000377	3.766965	0.638141	-0.000038
1837	1.8268e+02	1.7287	-5.449225	0.000401	4.012636	0.679759	-0.000040
1838	1.8278e+02	1.7187	-5.484256	0.000352	3.521293	0.596523	-0.000035
1839	1.8288e+02	1.7078	-5.522547	0.000385	3.848855	0.652014	-0.000038
1840	1.8298e+02	1.6949	-5.556356	0.000340	3.398457	0.575714	-0.000034
1841	1.8308e+02	1.6863	-5.593832	0.000377	3.766965	0.638141	-0.000038
1842	1.8318e+02	1.6775	-5.630900	0.000373	3.726019	0.631205	-0.000037
1843	1.8328e+02	1.6625	-5.669190	0.000385	3.848855	0.652014	-0.000038
1844	1.8338e+02	1.6564	-5.703814	0.000348	3.480348	0.589587	-0.000035
1845	1.8348e+02	1.6459	-5.742104	0.000385	3.848855	0.652014	-0.000038
1846	1.8358e+02	1.6399	-5.776321	0.000344	3.439402	0.582651	-0.000034
1847	1.8368e+02	1.6279	-5.816648	0.000405	4.053581	0.686695	-0.000041
1848	1.8378e+02	1.6155	-5.851679	0.000352	3.521293	0.596523	-0.000035
1849	1.8388e+02	1.6066	-5.889562	0.000381	3.807910	0.645077	-0.000038
1850	1.8398e+02	1.5959	-5.925001	0.000356	3.562238	0.603459	-0.000036
1851	1.8407e+02	1.5904	-5.968994	0.000442	4.422089	0.749122	-0.000044
1852	1.8417e+02	1.5783	-6.002804	0.000340	3.398457	0.575714	-0.000034
1853	1.8427e+02	1.5672	-6.041094	0.000385	3.848855	0.652014	-0.000038
1854	1.8437e+02	1.5592	-6.077755	0.000369	3.685074	0.624268	-0.000037
1855	1.8447e+02	1.5492	-6.116859	0.000393	3.930746	0.665886	-0.000039
1856	1.8457e+02	1.5391	-6.153928	0.000373	3.726019	0.631205	-0.000037
1857	1.8467e+02	1.5278	-6.188959	0.000352	3.521293	0.596523	-0.000035
1858	1.8477e+02	1.5189	-6.226435	0.000377	3.766965	0.638141	-0.000038
1859	1.8487e+02	1.5084	-6.263910	0.000377	3.766965	0.638141	-0.000038
1860	1.8497e+02	1.4963	-6.296905	0.000332	3.316567	0.561842	-0.000033
1861	1.8507e+02	1.4877	-6.337232	0.000405	4.053581	0.686695	-0.000041
1862	1.8517e+02	1.4781	-6.377151	0.000401	4.012636	0.679759	-0.000040
1863	1.8527e+02	1.4685	-6.415849	0.000389	3.889800	0.658950	-0.000039
1864	1.8537e+02	1.4596	-6.452917	0.000373	3.726019	0.631205	-0.000037
1865	1.8547e+02	1.4506	-6.491615	0.000389	3.889800	0.658950	-0.000039
1866	1.8557e+02	1.4394	-6.534386	0.000430	4.299253	0.728313	-0.000043
1867	1.8567e+02	1.4292	-6.572268	0.000381	3.807910	0.645077	-0.000038
1868	1.8577e+02	1.4208	-6.615039	0.000430	4.299253	0.728313	-0.000043
1869	1.8587e+02	1.4079	-6.653737	0.000389	3.889800	0.658950	-0.000039
1870	1.8597e+02	1.3998	-6.688768	0.000352	3.521293	0.596523	-0.000035
1871	1.8606e+02	1.3898	-6.727873	0.000393	3.930746	0.665886	-0.000039
1872	1.8616e+02	1.3789	-6.769422	0.000418	4.176417	0.707504	-0.000042
1873	1.8626e+02	1.3708	-6.803639	0.000344	3.439402	0.582651	-0.000034
1874	1.8636e+02	1.3603	-6.839078	0.000356	3.562238	0.603459	-0.000036
1875	1.8646e+02	1.3519	-6.881849	0.000430	4.299253	0.728313	-0.000043
1876	1.8656e+02	1.3403	-6.914843	0.000332	3.316567	0.561842	-0.000033
1877	1.8666e+02	1.3294	-6.954356	0.000397	3.971691	0.672823	-0.000040
1878	1.8676e+02	1.3216	-6.994683	0.000405	4.053581	0.686695	-0.000041
1879	1.8686e+02	1.3092	-7.031751	0.000373	3.726019	0.631205	-0.000037
1880	1.8696e+02	1.3008	-7.072078	0.000405	4.053581	0.686695	-0.000041
1881	1.8706e+02	1.2904	-7.108331	0.000364	3.644129	0.617332	-0.000036
1882	1.8716e+02	1.2778	-7.149065	0.000409	4.094527	0.693632	-0.000041
1883	1.8726e+02	1.2696	-7.183282	0.000344	3.439402	0.582651	-0.000034
1884	1.8736e+02	1.2615	-7.218721	0.000356	3.562238	0.603459	-0.000036
1885	1.8746e+02	1.2501	-7.255789	0.000373	3.726019	0.631205	-0.000037
1886	1.8756e+02	1.2391	-7.289599	0.000340	3.398457	0.575714	-0.000034
1887	1.8766e+02	1.2324	-7.325445	0.000360	3.603184	0.610396	-0.000036
1888	1.8776e+02	1.2207	-7.359662	0.000344	3.439402	0.582651	-0.000034
1889	1.8786e+02	1.2108	-7.399581	0.000401	4.012636	0.679759	-0.000040
1890	1.8796e+02	1.1987	-7.432576	0.000332	3.316567	0.561842	-0.000033
1891	1.8806e+02	1.1910	-7.468015	0.000356	3.562238	0.603459	-0.000036
1892	1.8815e+02	1.1810	-7.509971	0.000422	4.217363	0.714441	-0.000042
1893	1.8825e+02	1.1685	-7.549483	0.000397	3.971691	0.672823	-0.000040
1894	1.8835e+02	1.1588	-7.585737	0.000364	3.644129	0.617332	-0.000036
1895	1.8845e+02	1.1519	-7.624842	0.000393	3.930746	0.665886	-0.000039
1896	1.8855e+02	1.1400	-7.662317	0.000377	3.766965	0.638141	-0.000038
1897	1.8865e+02	1.1320	-7.697349	0.000352	3.521293	0.596523	-0.000035
1898	1.8875e+02	1.1220	-7.736453	0.000393	3.930746	0.665886	-0.000039
1899	1.8885e+02	1.1117	-7.776373	0.000401	4.012636	0.679759	-0.000040
1900	1.8895e+02	1.1023	-7.813848	0.000377	3.766965	0.638141	-0.000038
1901	1.8905e+02	1.0934	-7.854990	0.000414	4.135472	0.700568	-0.000041
1902	1.8915e+02	1.0806	-7.894502	0.000397	3.971691	0.672823	-0.000040
1903	1.8925e+02	1.0711	-7.934829	0.000405	4.053581	0.686695	-0.000041
1904	1.8935e+02	1.0627	-7.969046	0.000344	3.439402	0.582651	-0.000034
1905	1.8945e+02	1.0487	-8.007744	0.000389	3.889800	0.658950	-0.000039
1906	1.8955e+02	1.0387	-8.043590	0.000360	3.603184	0.610396	-0.000036
1907	1.8965e+02	1.0300	-8.085546	0.000422	4.217363	0.714441	-0.000042
1908	1.8975e+02	1.0233	-8.122207	0.000369	3.685074	0.624268	-0.000037
1909	1.8985e+02	1.0110	-8.160904	0.000389	3.889800	0.658950	-0.000039
1910	1.8995e+02	1.0020	-8.198787	0.000381	3.807910	0.645077	-0.000038
1911	1.9004e+02	0.9904	-8.237485	0.000389	3.889800	0.658950	-0.000039
1912	1.9014e+02	0.9795	-8.272516	0.000352	3.521293	0.596523	-0.000035
1913	1.9024e+02	0.9710	-8.316102	0.000438	4.381144	0.742186	-0.000044
1914	1.9034e+02	0.9589	-8.351133	0.000352	3.521293	0.596523	-0.000035
1915	1.9044e+02	0.9527	-8.397978	0.000471	4.708706	0.797676	-0.000047
1916	1.9054e+02	0.9415	-8.429343	0.000315	3.152786	0.534096	-0.000032
1917	1.9064e+02	0.9315	-8.470485	0.000414	4.135472	0.700568	-0.000041
1918	1.9074e+02	0.9197	-8.508775	0.000385	3.848855	0.652014	-0.000038
1919	1.9084e+02	0.9123	-8.545028	0.000364	3.644129	0.617332	-0.000036
1920	1.9094e+02	0.9020	-8.581689	0.000369	3.685074	0.624268	-0.000037
1921	1.9104e+02	0.8916	-8.622016	0.000405	4.053581	0.686695	-0.000041
1922	1.9114e+02	0.8824	-8.662750	0.000409	4.094527	0.693632	-0.000041
1923	1.9124e+02	0.8717	-8.702670	0.000401	4.012636	0.679759	-0.000040
1924	1.9134e+02	0.8631	-8.740553	0.000381	3.807910	0.645077	-0.000038
1925	1.9144e+02	0.8528	-8.778436	0.000381	3.807910	0.645077	-0.000038
1926	1.9154e+02	0.8424	-8.817541	0.000393	3.930746	0.665886	-0.000039
1927	1.9164e+02	0.8310	-8.861941	0.000446	4.463034	0.756058	-0.000045
1928	1.9174e+02	0.8212	-8.900638	0.000389	3.889800	0.658950	-0.000039
1929	1.9184e+02	0.8131	-8.935263	0.000348	3.480348	0.589587	-0.000035
1930	1.9194e+02	0.8043	-8.980478	0.000454	4.544925	0.769931	-0.000045
1931	1.9203e+02	0.7921	-9.017953	0.000377	3.766965	0.638141	-0.000038
1932	1.9213e+02	0.7826	-9.057465	0.000397	3.971691	0.672823	-0.000040
1933	1.9223e+02	0.7723	-9.096570	0.000393	3.930746	0.665886	-0.000039
1934	1.9233e+02	0.7630	-9.134860	0.000385	3.848855	0.652014	-0.000038
1935	1.9243e+02	0.7523	-9.173558	0.000389	3.889800	0.658950	-0.000039
1936	1.9253e+02	0.7423	-9.213070	0.000397	3.971691	0.672823	-0.000040
1937	1.9263e+02	0.7322	-9.256656	0.000438	4.381144	0.742186	-0.000044
1938	1.9273e+02	0.7212	-9.290465	0.000340	3.398457	0.575714	-0.000034
1939	1.9283e+02	0.7107	-9.331607	0.000414	4.135472	0.700568	-0.000041
1940	1.9293e+02	0.7018	-9.376007	0.000446	4.463034	0.756058	-0.000045
1941	1.9303e+02	0.6930	-9.413890	0.000381	3.807910	0.645077	-0.000038
1942	1.9313e+02	0.6839	-9.450958	0.000373	3.726019	0.631205	-0.000037
1943	1.9323e+02	0.6713	-9.492507	0.000418	4.176417	0.707504	-0.000042
1944	1.9333e+02	0.6638	-9.531612	0.000393	3.930746	0.665886	-0.000039
1945	1.9343e+02	0.6515	-9.573568	0.000422	4.217363	0.714441	-0.000042
1946	1.9353e+02	0.6424	-9.608192	0.000348	3.480348	0.589587	-0.000035
1947	1.9363e+02	0.6313	-9.651371	0.000434	4.340198	0.735250	-0.000043
1948	1.9373e+02	0.6239	-9.686810	0.000356	3.562238	0.603459	-0.000036
1949	1.9383e+02	0.6149	-9.725100	0.000385	3.848855	0.652014	-0.000038
1950	1.9393e+02	0.6022	-9.762168	0.000373	3.726019	0.631205	-0.000037
1951	1.9403e+02	0.5912	-9.802087	0.000401	4.012636	0.679759	-0.000040
1952	1.9412e+02	0.5881	-9.837119	0.000352	3.521293	0.596523	-0.000035
1953	1.9422e+02	0.5714	-9.878668	0.000418	4.176417	0.707504	-0.000042
1954	1.9432e+02	0.5616	-9.916143	0.000377	3.766965	0.638141	-0.000038
1955	1.9442e+02	0.5537	-9.959322	0.000434	4.340198	0.735250	-0.000043
1956	1.9452e+02	0.5478	-9.997612	0.000385	3.848855	0.652014	-0.000038
1957	1.9462e+02	0.5369	-10.039568	0.000422	4.217363	0.714441	-0.000042
1958	1.9472e+02	0.5255	-10.083561	0.000442	4.422089	0.749122	-0.000044
1959	1.9482e+02	0.5119	-10.121444	0.000381	3.807910	0.645077	-0.000038
1960	1.9492e+02	0.5045	-10.162586	0.000414	4.135472	0.700568	-0.000041
1961	1.9502e+02	0.4923	-10.201283	0.000389	3.889800	0.658950	-0.000039
1962	1.9512e+02	0.4854	-10.239166	0.000381	3.807910	0.645077	-0.000038
1963	1.9522e+02	0.4741	-10.278678	0.000397	3.971691	0.672823	-0.000040
1964	1.9532e+02	0.4652	-10.319005	0.000405	4.053581	0.686695	-0.000041
1965	1.9542e+02	0.4542	-10.357295	0.000385	3.848855	0.652014	-0.000038
1966	1.9552e+02	0.4436	-10.398844	0.000418	4.176417	0.707504	-0.000042
1967	1.9562e+02	0.4342	-10.439579	0.000409	4.094527	0.693632	-0.000041
1968	1.9572e+02	0.4254	-10.482757	0.000434	4.340198	0.735250	-0.000043
1969	1.9582e+02	0.4156	-10.529194	0.000467	4.667760	0.790740	-0.000047
1970	1.9592e+02	0.4036	-10.567484	0.000385	3.848855	0.652014	-0.000038
1971	1.9601e+02	0.3941	-10.611070	0.000438	4.381144	0.742186	-0.000044
1972	1.9611e+02	0.3825	-10.653026	0.000422	4.217363	0.714441	-0.000042
1973	1.9621e+02	0.3736	-10.697426	0.000446	4.463034	0.756058	-0.000045
1974	1.9631e+02	0.3613	-10.736531	0.000393	3.930746	0.665886	-0.000039
1975	1.9641e+02	0.3539	-10.780117	0.000438	4.381144	0.742186	-0.000044
1976	1.9651e+02	0.3432	-10.817592	0.000377	3.766965	0.638141	-0.000038
1977	1.9661e+02	0.3309	-10.857512	0.000401	4.012636	0.679759	-0.000040
1978	1.9671e+02	0.3225	-10.903134	0.000459	4.585870	0.776867	-0.000046
1979	1.9681e+02	0.3151	-10.946720	0.000438	4.381144	0.742186	-0.000044
1980	1.9691e+02	0.3023	-10.982974	0.000364	3.644129	0.617332	-0.000036
1981	1.9701e+02	0.2937	-11.026152	0.000434	4.340198	0.735250	-0.000043
1982	1.9711e+02	0.2872	-11.066071	0.000401	4.012636	0.679759	-0.000040
1983	1.9721e+02	0.2795	-11.109250	0.000434	4.340198	0.735250	-0.000043
1984	1.9731e+02	0.2668	-11.150391	0.000414	4.135472	0.700568	-0.000041
1985	1.9741e+02	0.2549	-11.190718	0.000405	4.053581	0.686695	-0.000041
1986	1.9751e+02	0.2460	-11.231045	0.000405	4.053581	0.686695	-0.000041
1987	1.9761e+02	0.2354	-11.273001	0.000422	4.217363	0.714441	-0.000042
1988	1.9771e+02	0.2237	-11.311699	0.000389	3.889800	0.658950	-0.000039
1989	1.9781e+02	0.2145	-11.352841	0.000414	4.135472	0.700568	-0.000041
1990	1.9791e+02	0.2055	-11.399278	0.000467	4.667760	0.790740	-0.000047
1991	1.9800e+02	0.1936	-11.437160	0.000381	3.807910	0.645077	-0.000038
1992	1.9810e+02	0.1862	-11.478709	0.000418	4.176417	0.707504	-0.000042
1993	1.9820e+02	0.1756	-11.524739	0.000463	4.626815	0.783804	-0.000046
1994	1.9830e+02	0.1651	-11.560993	0.000364	3.644129	0.617332	-0.000036
1995	1.9840e+02	0.1569	-11.600098	0.000393	3.930746	0.665886	-0.000039
1996	1.9850e+02	0.1463	-11.639202	0.000393	3.930746	0.665886	-0.000039
1997	1.9860e+02	0.1342	-11.688491	0.000495	4.954377	0.839294	-0.000050
1998	1.9870e+02	0.1278	-11.729225	0.000409	4.094527	0.693632	-0.000041
1999	1.9880e+02	0.1147	-11.763035	0.000340	3.398457	0.575714	-0.000034
2000	1.9890e+02	0.1039	-11.809472	0.000467	4.667760	0.790740	-0.000047
2001	1.9900e+02	0.0966	-11.853057	0.000438	4.381144	0.742186	-0.000044
2002	1.9910e+02	0.0855	-11.894606	0.000418	4.176417	0.707504	-0.000042
2003	1.9920e+02	0.0775	-11.938599	0.000442	4.422089	0.749122	-0.000044
2004	1.9930e+02	0.0641	-11.979333	0.000409	4.094527	0.693632	-0.000041
2005	1.9940e+02	0.0543	-12.019253	0.000401	4.012636	0.679759	-0.000040
2006	1.9950e+02	0.0452	-12.064875	0.000459	4.585870	0.776867	-0.000046
2007	1.9960e+02	0.0359	-12.106017	0.000414	4.135472	0.700568	-0.000041
2008	1.9970e+02	0.0272	-12.145122	0.000393	3.930746	0.665886	-0.000039
2009	1.9980e+02	0.0201	-12.186671	0.000418	4.176417	0.707504	-0.000042
2010	1.9990e+02	0.0049	-12.228220	0.000418	4.176417	0.707504	-0.000042
2011	2.0000e+02	-0.0031	-12.266510	0.000418	4.176417	0.707504	-0.000038

PMax (uC/cm2):	3.23e+01
Pr (uC/cm2):	3.92e+00
-Pr (uC/cm2):	0.00e+00
PLoss (uC/cm2):	0.00e+00
C (Max-Eff) (nF):	3.24e-01
K (Eff):	5.48e+02
Vert. (+/-Pr) Shift (uC/cm2):	1.96e+00
Offset (uC/cm2):	1.62e+01

A (Loop Area - uC/cm2·Volts):	-3.84e-02



Hysteresis Version: 5.48.1 - Radiant Technologies, Inc., 1999 - 9/12/24

