»»»»»»»»»»»»»»»»»»»»»»»»»»»»»»»»»»»» Hysteresis ««««««««««««««««««««««««««««««««««««
»»»  Executed Version:	5.48.1
»»»  Vision Version:	5.48.4 (R)
»»»  Vision Compiled:	9/18/24
»»»  Driver Version:	5.47.0
»»»  Windows Version:	Windows 8 or 8.1
»»»  Processor Information:	x86 (AMD or Intel) - 32 Processors
»»»  Tester Name:	PMF21124-494 (100V)
»»»  Tester S/N:	PMF21124-494
»»»  Internal Amp Type:	100V RevK 270k
»»»  Internal Amp S/N:	iAB2-596/K     
»»»  Execution Count:	1
»»»»»»»»»»»»»»»»»»»»»»»»»»»»»»»»»»»»»»»»»»««««««««««««««««««««««««««««««««««««««««««

Stored:	6/30/2025 - 10:58:8
Configured:	06/30/25 10:19:58 AM
Executed:	06/30/25 10:57:38 AM

»»»»»»»»»»»»»»»»»»»»»»»»»»»»»»»»»»» Sample Info ««««««««««««««««««««««««««««««««««««
Sample Name:	
Lot Name:	
Wafer Name:	
Die Row/Column:	0/0
Capacitor Number:	0
Sample Area (cm2):	1.00e-04
Sample Thickness (microns):	1.50e-01

Amplifier:	Internal

»»»»»»»»»»»»»»»»»»»»»»»»»»»»»»»»»»» Tester Info «««««««««««««««««««««««««««««««««««
Tester Name:	PMF21124-494 (100V)
Tester Serial Number:	PMF21124-494
Return Signal Amp. Level:	1.9 [Index: 2]

»»»»»»»»»»»»»»»»»»»»»»»»»»»»»»»» Hysteresis Info ««««««««««««««««««««««««««««««««««
Task Name:	Hyst-1804
Volts:	10.00
Field:	666.67 (kV/cm)
DCBias:	0.00
DCField:	0.00 (kV/cm)
Hysteresis Period (ms):	2.00e+02
Preset:	Enabled
Preset Delay (ms):	1.00e+03
Profile:	Standard Monopolar

»»»»»»»»»»»»»»»»»»»»»»»»»»»»»»»»»»»»»» Data «««««««««««««««««««««««««««««««««««««««
Points:	2011

Valid Data

Point	Time (ms)	Drive Voltage	Measured Polarization (uC/cm2)	Capacitance (uF)	Normalized Capacitance (uF/cm2)	Dielectric Constant	Instantaneous Current (mA)
   1	0.0000e+00	-0.0050	-17.569295	0.000495	4.953565	0.839157	0.000050
   2	9.9500e-02	0.0052	-17.520007	0.000495	4.953565	0.839157	0.000050
   3	1.9900e-01	0.0163	-17.477643	0.000426	4.257609	0.721259	0.000043
   4	2.9850e-01	0.0240	-17.432021	0.000459	4.585118	0.776740	0.000046
   5	3.9800e-01	0.0332	-17.388843	0.000434	4.339486	0.735129	0.000043
   6	4.9750e-01	0.0464	-17.340776	0.000483	4.830749	0.818351	0.000048
   7	5.9700e-01	0.0546	-17.292302	0.000487	4.871688	0.825286	0.000049
   8	6.9650e-01	0.0660	-17.250346	0.000422	4.216671	0.714323	0.000042
   9	7.9600e-01	0.0780	-17.198614	0.000520	5.199196	0.880768	0.000052
  10	8.9550e-01	0.0861	-17.150140	0.000487	4.871688	0.825286	0.000049
  11	9.9500e-01	0.0942	-17.103295	0.000471	4.707933	0.797546	0.000047
  12	1.0945e+00	0.1064	-17.055229	0.000483	4.830749	0.818351	0.000048
  13	1.1940e+00	0.1190	-17.007977	0.000475	4.748872	0.804481	0.000047
  14	1.2935e+00	0.1243	-16.963577	0.000446	4.462302	0.755934	0.000045
  15	1.3930e+00	0.1350	-16.908586	0.000553	5.526704	0.936249	0.000055
  16	1.4925e+00	0.1468	-16.862963	0.000459	4.585118	0.776740	0.000046
  17	1.5920e+00	0.1540	-16.814490	0.000487	4.871688	0.825286	0.000049
  18	1.6915e+00	0.1649	-16.768460	0.000463	4.626056	0.783675	0.000046
  19	1.7910e+00	0.1775	-16.717135	0.000516	5.158257	0.873832	0.000052
  20	1.8905e+00	0.1840	-16.669883	0.000475	4.748872	0.804481	0.000047
  21	1.9900e+00	0.1973	-16.621409	0.000487	4.871688	0.825286	0.000049
  22	2.0895e+00	0.2052	-16.575787	0.000459	4.585118	0.776740	0.000046
  23	2.1890e+00	0.2179	-16.526498	0.000495	4.953565	0.839157	0.000050
  24	2.2885e+00	0.2247	-16.480469	0.000463	4.626056	0.783675	0.000046
  25	2.3880e+00	0.2338	-16.431995	0.000487	4.871688	0.825286	0.000049
  26	2.4875e+00	0.2448	-16.391668	0.000405	4.052917	0.686583	0.000041
  27	2.5870e+00	0.2538	-16.342787	0.000491	4.912626	0.832221	0.000049
  28	2.6865e+00	0.2630	-16.295942	0.000471	4.707933	0.797546	0.000047
  29	2.7860e+00	0.2757	-16.247469	0.000487	4.871688	0.825286	0.000049
  30	2.8855e+00	0.2821	-16.205920	0.000418	4.175732	0.707388	0.000042
  31	2.9850e+00	0.2944	-16.161927	0.000442	4.421364	0.748999	0.000044
  32	3.0845e+00	0.3041	-16.119563	0.000426	4.257609	0.721259	0.000043
  33	3.1840e+00	0.3133	-16.073533	0.000463	4.626056	0.783675	0.000046
  34	3.2835e+00	0.3261	-16.029540	0.000442	4.421364	0.748999	0.000044
  35	3.3830e+00	0.3370	-15.982289	0.000475	4.748872	0.804481	0.000047
  36	3.4825e+00	0.3435	-15.945221	0.000373	3.725408	0.631101	0.000037
  37	3.5820e+00	0.3537	-15.898376	0.000471	4.707933	0.797546	0.000047
  38	3.6815e+00	0.3645	-15.851532	0.000471	4.707933	0.797546	0.000047
  39	3.7810e+00	0.3729	-15.809168	0.000426	4.257609	0.721259	0.000043
  40	3.8805e+00	0.3842	-15.763953	0.000454	4.544179	0.769805	0.000045
  41	3.9800e+00	0.3948	-15.717923	0.000463	4.626056	0.783675	0.000046
  42	4.0795e+00	0.4056	-15.673523	0.000446	4.462302	0.755934	0.000045
  43	4.1790e+00	0.4138	-15.634825	0.000389	3.889162	0.658842	0.000039
  44	4.2785e+00	0.4230	-15.587166	0.000479	4.789810	0.811416	0.000048
  45	4.3780e+00	0.4353	-15.546432	0.000409	4.093855	0.693518	0.000041
  46	4.4775e+00	0.4443	-15.500402	0.000463	4.626056	0.783675	0.000046
  47	4.5770e+00	0.4531	-15.460076	0.000405	4.052917	0.686583	0.000041
  48	4.6765e+00	0.4615	-15.412416	0.000479	4.789810	0.811416	0.000048
  49	4.7760e+00	0.4762	-15.368423	0.000442	4.421364	0.748999	0.000044
  50	4.8755e+00	0.4829	-15.327689	0.000409	4.093855	0.693518	0.000041
  51	4.9750e+00	0.4944	-15.282882	0.000450	4.503241	0.762870	0.000045
  52	5.0745e+00	0.5030	-15.239296	0.000438	4.380425	0.742064	0.000044
  53	5.1740e+00	0.5126	-15.199784	0.000397	3.971039	0.672712	0.000040
  54	5.2735e+00	0.5233	-15.154569	0.000454	4.544179	0.769805	0.000045
  55	5.3730e+00	0.5364	-15.108946	0.000459	4.585118	0.776740	0.000046
  56	5.4725e+00	0.5474	-15.062509	0.000467	4.666995	0.790610	0.000047
  57	5.5720e+00	0.5566	-15.025441	0.000373	3.725408	0.631101	0.000037
  58	5.6715e+00	0.5641	-14.981855	0.000438	4.380425	0.742064	0.000044
  59	5.7710e+00	0.5749	-14.936233	0.000459	4.585118	0.776740	0.000046
  60	5.8705e+00	0.5848	-14.896721	0.000397	3.971039	0.672712	0.000040
  61	5.9700e+00	0.5926	-14.853950	0.000430	4.298548	0.728194	0.000043
  62	6.0695e+00	0.6031	-14.811586	0.000426	4.257609	0.721259	0.000043
  63	6.1690e+00	0.6140	-14.768001	0.000438	4.380425	0.742064	0.000044
  64	6.2685e+00	0.6222	-14.731340	0.000368	3.684470	0.624166	0.000037
  65	6.3680e+00	0.6316	-14.684088	0.000475	4.748872	0.804481	0.000047
  66	6.4675e+00	0.6441	-14.647020	0.000373	3.725408	0.631101	0.000037
  67	6.5670e+00	0.6538	-14.600990	0.000463	4.626056	0.783675	0.000046
  68	6.6665e+00	0.6608	-14.559848	0.000413	4.134794	0.700453	0.000041
  69	6.7660e+00	0.6730	-14.519114	0.000409	4.093855	0.693518	0.000041
  70	6.8655e+00	0.6841	-14.474714	0.000446	4.462302	0.755934	0.000045
  71	6.9650e+00	0.6920	-14.429092	0.000459	4.585118	0.776740	0.000046
  72	7.0645e+00	0.7058	-14.385099	0.000442	4.421364	0.748999	0.000044
  73	7.1640e+00	0.7118	-14.345586	0.000397	3.971039	0.672712	0.000040
  74	7.2635e+00	0.7228	-14.303223	0.000426	4.257609	0.721259	0.000043
  75	7.3630e+00	0.7313	-14.262081	0.000413	4.134794	0.700453	0.000041
  76	7.4625e+00	0.7410	-14.221347	0.000409	4.093855	0.693518	0.000041
  77	7.5620e+00	0.7525	-14.177761	0.000438	4.380425	0.742064	0.000044
  78	7.6615e+00	0.7623	-14.134990	0.000430	4.298548	0.728194	0.000043
  79	7.7610e+00	0.7749	-14.088960	0.000463	4.626056	0.783675	0.000046
  80	7.8605e+00	0.7840	-14.051078	0.000381	3.807285	0.644972	0.000038
  81	7.9600e+00	0.7910	-14.008307	0.000430	4.298548	0.728194	0.000043
  82	8.0595e+00	0.7993	-13.960648	0.000479	4.789810	0.811416	0.000048
  83	8.1590e+00	0.8132	-13.920728	0.000401	4.011978	0.679647	0.000040
  84	8.2585e+00	0.8217	-13.881216	0.000397	3.971039	0.672712	0.000040
  85	8.3580e+00	0.8331	-13.840074	0.000413	4.134794	0.700453	0.000041
  86	8.4575e+00	0.8438	-13.796896	0.000434	4.339486	0.735129	0.000043
  87	8.5570e+00	0.8492	-13.759013	0.000381	3.807285	0.644972	0.000038
  88	8.6565e+00	0.8615	-13.715427	0.000438	4.380425	0.742064	0.000044
  89	8.7560e+00	0.8711	-13.675508	0.000401	4.011978	0.679647	0.000040
  90	8.8555e+00	0.8798	-13.631515	0.000442	4.421364	0.748999	0.000044
  91	8.9550e+00	0.8936	-13.595261	0.000364	3.643531	0.617231	0.000036
  92	9.0545e+00	0.9009	-13.551676	0.000438	4.380425	0.742064	0.000044
  93	9.1540e+00	0.9121	-13.510941	0.000409	4.093855	0.693518	0.000041
  94	9.2535e+00	0.9241	-13.473466	0.000377	3.766347	0.638036	0.000038
  95	9.3530e+00	0.9312	-13.435583	0.000381	3.807285	0.644972	0.000038
  96	9.4525e+00	0.9416	-13.392812	0.000430	4.298548	0.728194	0.000043
  97	9.5520e+00	0.9557	-13.355744	0.000373	3.725408	0.631101	0.000037
  98	9.6515e+00	0.9630	-13.315010	0.000409	4.093855	0.693518	0.000041
  99	9.7510e+00	0.9724	-13.278349	0.000368	3.684470	0.624166	0.000037
 100	9.8505e+00	0.9853	-13.237615	0.000409	4.093855	0.693518	0.000041
 101	9.9500e+00	0.9911	-13.196880	0.000409	4.093855	0.693518	0.000041
 102	1.0050e+01	1.0024	-13.156553	0.000405	4.052917	0.686583	0.000041
 103	1.0149e+01	1.0101	-13.117856	0.000389	3.889162	0.658842	0.000039
 104	1.0248e+01	1.0200	-13.079566	0.000385	3.848224	0.651907	0.000038
 105	1.0348e+01	1.0301	-13.040868	0.000389	3.889162	0.658842	0.000039
 106	1.0447e+01	1.0410	-12.998097	0.000430	4.298548	0.728194	0.000043
 107	1.0547e+01	1.0495	-12.956956	0.000413	4.134794	0.700453	0.000041
 108	1.0646e+01	1.0600	-12.917851	0.000393	3.930101	0.665777	0.000039
 109	1.0746e+01	1.0715	-12.876709	0.000413	4.134794	0.700453	0.000041
 110	1.0845e+01	1.0800	-12.838826	0.000381	3.807285	0.644972	0.000038
 111	1.0945e+01	1.0938	-12.792797	0.000463	4.626056	0.783675	0.000046
 112	1.1044e+01	1.1014	-12.750840	0.000422	4.216671	0.714323	0.000042
 113	1.1144e+01	1.1111	-12.710106	0.000409	4.093855	0.693518	0.000041
 114	1.1243e+01	1.1176	-12.667335	0.000430	4.298548	0.728194	0.000043
 115	1.1343e+01	1.1321	-12.625786	0.000418	4.175732	0.707388	0.000042
 116	1.1443e+01	1.1415	-12.580571	0.000454	4.544179	0.769805	0.000045
 117	1.1542e+01	1.1520	-12.538615	0.000422	4.216671	0.714323	0.000042
 118	1.1642e+01	1.1617	-12.492992	0.000459	4.585118	0.776740	0.000046
 119	1.1741e+01	1.1684	-12.452665	0.000405	4.052917	0.686583	0.000041
 120	1.1841e+01	1.1806	-12.406636	0.000463	4.626056	0.783675	0.000046
 121	1.1940e+01	1.1913	-12.364679	0.000422	4.216671	0.714323	0.000042
 122	1.2040e+01	1.2032	-12.320279	0.000446	4.462302	0.755934	0.000045
 123	1.2139e+01	1.2086	-12.278730	0.000418	4.175732	0.707388	0.000042
 124	1.2239e+01	1.2194	-12.233108	0.000459	4.585118	0.776740	0.000046
 125	1.2338e+01	1.2330	-12.187078	0.000463	4.626056	0.783675	0.000046
 126	1.2438e+01	1.2431	-12.144307	0.000430	4.298548	0.728194	0.000043
 127	1.2537e+01	1.2510	-12.105610	0.000389	3.889162	0.658842	0.000039
 128	1.2636e+01	1.2592	-12.058765	0.000471	4.707933	0.797546	0.000047
 129	1.2736e+01	1.2683	-12.015180	0.000438	4.380425	0.742064	0.000044
 130	1.2835e+01	1.2782	-11.971187	0.000442	4.421364	0.748999	0.000044
 131	1.2935e+01	1.2896	-11.925972	0.000454	4.544179	0.769805	0.000045
 132	1.3034e+01	1.3012	-11.888089	0.000381	3.807285	0.644972	0.000038
 133	1.3134e+01	1.3079	-11.839615	0.000487	4.871688	0.825286	0.000049
 134	1.3233e+01	1.3170	-11.796437	0.000434	4.339486	0.735129	0.000043
 135	1.3333e+01	1.3277	-11.753258	0.000434	4.339486	0.735129	0.000043
 136	1.3432e+01	1.3376	-11.710080	0.000434	4.339486	0.735129	0.000043
 137	1.3532e+01	1.3509	-11.666494	0.000438	4.380425	0.742064	0.000044
 138	1.3632e+01	1.3572	-11.619650	0.000471	4.707933	0.797546	0.000047
 139	1.3731e+01	1.3668	-11.577286	0.000426	4.257609	0.721259	0.000043
 140	1.3831e+01	1.3767	-11.530849	0.000467	4.666995	0.790610	0.000047
 141	1.3930e+01	1.3904	-11.490115	0.000409	4.093855	0.693518	0.000041
 142	1.4030e+01	1.3985	-11.438383	0.000520	5.199196	0.880768	0.000052
 143	1.4129e+01	1.4095	-11.393982	0.000446	4.462302	0.755934	0.000045
 144	1.4229e+01	1.4195	-11.354470	0.000397	3.971039	0.672712	0.000040
 145	1.4328e+01	1.4285	-11.305996	0.000487	4.871688	0.825286	0.000049
 146	1.4428e+01	1.4372	-11.258337	0.000479	4.789810	0.811416	0.000048
 147	1.4527e+01	1.4494	-11.219232	0.000393	3.930101	0.665777	0.000039
 148	1.4627e+01	1.4591	-11.171166	0.000483	4.830749	0.818351	0.000048
 149	1.4726e+01	1.4685	-11.127173	0.000442	4.421364	0.748999	0.000044
 150	1.4825e+01	1.4762	-11.084402	0.000430	4.298548	0.728194	0.000043
 151	1.4925e+01	1.4881	-11.035521	0.000491	4.912626	0.832221	0.000049
 152	1.5024e+01	1.5002	-10.991528	0.000442	4.421364	0.748999	0.000044
 153	1.5124e+01	1.5091	-10.946720	0.000450	4.503241	0.762870	0.000045
 154	1.5223e+01	1.5170	-10.905171	0.000418	4.175732	0.707388	0.000042
 155	1.5323e+01	1.5279	-10.856697	0.000487	4.871688	0.825286	0.000049
 156	1.5422e+01	1.5392	-10.811075	0.000459	4.585118	0.776740	0.000046
 157	1.5522e+01	1.5466	-10.768304	0.000430	4.298548	0.728194	0.000043
 158	1.5621e+01	1.5591	-10.725940	0.000426	4.257609	0.721259	0.000043
 159	1.5721e+01	1.5685	-10.682762	0.000434	4.339486	0.735129	0.000043
 160	1.5820e+01	1.5775	-10.633474	0.000495	4.953565	0.839157	0.000050
 161	1.5920e+01	1.5870	-10.588666	0.000450	4.503241	0.762870	0.000045
 162	1.6020e+01	1.5981	-10.543858	0.000450	4.503241	0.762870	0.000045
 163	1.6119e+01	1.6096	-10.503531	0.000405	4.052917	0.686583	0.000041
 164	1.6218e+01	1.6189	-10.458724	0.000450	4.503241	0.762870	0.000045
 165	1.6318e+01	1.6287	-10.411879	0.000471	4.707933	0.797546	0.000047
 166	1.6418e+01	1.6387	-10.368701	0.000434	4.339486	0.735129	0.000043
 167	1.6517e+01	1.6503	-10.324301	0.000446	4.462302	0.755934	0.000045
 168	1.6616e+01	1.6587	-10.277456	0.000471	4.707933	0.797546	0.000047
 169	1.6716e+01	1.6663	-10.234685	0.000430	4.298548	0.728194	0.000043
 170	1.6816e+01	1.6813	-10.188656	0.000463	4.626056	0.783675	0.000046
 171	1.6915e+01	1.6875	-10.139774	0.000491	4.912626	0.832221	0.000049
 172	1.7015e+01	1.6973	-10.098226	0.000418	4.175732	0.707388	0.000042
 173	1.7114e+01	1.7057	-10.046900	0.000516	5.158257	0.873832	0.000052
 174	1.7213e+01	1.7187	-10.007388	0.000397	3.971039	0.672712	0.000040
 175	1.7313e+01	1.7290	-9.958507	0.000491	4.912626	0.832221	0.000049
 176	1.7413e+01	1.7400	-9.908811	0.000499	4.994503	0.846092	0.000050
 177	1.7512e+01	1.7473	-9.865633	0.000434	4.339486	0.735129	0.000043
 178	1.7611e+01	1.7542	-9.817159	0.000487	4.871688	0.825286	0.000049
 179	1.7711e+01	1.7669	-9.770315	0.000471	4.707933	0.797546	0.000047
 180	1.7811e+01	1.7799	-9.724692	0.000459	4.585118	0.776740	0.000046
 181	1.7910e+01	1.7874	-9.675404	0.000495	4.953565	0.839157	0.000050
 182	1.8009e+01	1.7957	-9.627745	0.000479	4.789810	0.811416	0.000048
 183	1.8109e+01	1.8072	-9.581308	0.000467	4.666995	0.790610	0.000047
 184	1.8209e+01	1.8148	-9.537315	0.000442	4.421364	0.748999	0.000044
 185	1.8308e+01	1.8283	-9.486804	0.000508	5.076380	0.859962	0.000051
 186	1.8407e+01	1.8368	-9.438331	0.000487	4.871688	0.825286	0.000049
 187	1.8507e+01	1.8450	-9.394338	0.000442	4.421364	0.748999	0.000044
 188	1.8607e+01	1.8591	-9.349123	0.000454	4.544179	0.769805	0.000045
 189	1.8706e+01	1.8685	-9.303500	0.000459	4.585118	0.776740	0.000046
 190	1.8805e+01	1.8780	-9.255026	0.000487	4.871688	0.825286	0.000049
 191	1.8905e+01	1.8848	-9.206960	0.000483	4.830749	0.818351	0.000048
 192	1.9005e+01	1.8944	-9.162967	0.000442	4.421364	0.748999	0.000044
 193	1.9104e+01	1.9055	-9.118974	0.000442	4.421364	0.748999	0.000044
 194	1.9203e+01	1.9180	-9.073759	0.000454	4.544179	0.769805	0.000045
 195	1.9303e+01	1.9277	-9.028951	0.000450	4.503241	0.762870	0.000045
 196	1.9402e+01	1.9350	-8.988217	0.000409	4.093855	0.693518	0.000041
 197	1.9502e+01	1.9471	-8.945853	0.000426	4.257609	0.721259	0.000043
 198	1.9602e+01	1.9565	-8.899824	0.000463	4.626056	0.783675	0.000046
 199	1.9701e+01	1.9685	-8.858682	0.000413	4.134794	0.700453	0.000041
 200	1.9800e+01	1.9776	-8.813060	0.000459	4.585118	0.776740	0.000046
 201	1.9900e+01	1.9854	-8.774362	0.000389	3.889162	0.658842	0.000039
 202	2.0000e+01	1.9967	-8.730369	0.000442	4.421364	0.748999	0.000044
 203	2.0099e+01	2.0049	-8.687191	0.000434	4.339486	0.735129	0.000043
 204	2.0198e+01	2.0150	-8.647271	0.000401	4.011978	0.679647	0.000040
 205	2.0298e+01	2.0257	-8.604500	0.000430	4.298548	0.728194	0.000043
 206	2.0398e+01	2.0350	-8.559693	0.000450	4.503241	0.762870	0.000045
 207	2.0497e+01	2.0446	-8.517736	0.000422	4.216671	0.714323	0.000042
 208	2.0596e+01	2.0584	-8.482705	0.000352	3.520715	0.596425	0.000035
 209	2.0696e+01	2.0657	-8.437083	0.000459	4.585118	0.776740	0.000046
 210	2.0796e+01	2.0756	-8.391460	0.000459	4.585118	0.776740	0.000046
 211	2.0895e+01	2.0871	-8.351541	0.000401	4.011978	0.679647	0.000040
 212	2.0994e+01	2.0958	-8.312843	0.000389	3.889162	0.658842	0.000039
 213	2.1094e+01	2.1075	-8.267628	0.000454	4.544179	0.769805	0.000045
 214	2.1194e+01	2.1172	-8.225672	0.000422	4.216671	0.714323	0.000042
 215	2.1293e+01	2.1249	-8.188604	0.000373	3.725408	0.631101	0.000037
 216	2.1392e+01	2.1371	-8.143389	0.000454	4.544179	0.769805	0.000045
 217	2.1492e+01	2.1459	-8.103876	0.000397	3.971039	0.672712	0.000040
 218	2.1591e+01	2.1537	-8.062327	0.000418	4.175732	0.707388	0.000042
 219	2.1691e+01	2.1645	-8.020779	0.000418	4.175732	0.707388	0.000042
 220	2.1791e+01	2.1757	-7.978415	0.000426	4.257609	0.721259	0.000043
 221	2.1890e+01	2.1836	-7.942569	0.000360	3.602592	0.610296	0.000036
 222	2.1989e+01	2.1943	-7.901020	0.000418	4.175732	0.707388	0.000042
 223	2.2089e+01	2.2045	-7.859878	0.000413	4.134794	0.700453	0.000041
 224	2.2189e+01	2.2154	-7.821995	0.000381	3.807285	0.644972	0.000038
 225	2.2288e+01	2.2225	-7.778002	0.000442	4.421364	0.748999	0.000044
 226	2.2387e+01	2.2337	-7.737268	0.000409	4.093855	0.693518	0.000041
 227	2.2487e+01	2.2445	-7.694904	0.000426	4.257609	0.721259	0.000043
 228	2.2587e+01	2.2556	-7.661502	0.000336	3.356961	0.568685	0.000034
 229	2.2686e+01	2.2652	-7.619953	0.000418	4.175732	0.707388	0.000042
 230	2.2785e+01	2.2749	-7.579627	0.000405	4.052917	0.686583	0.000041
 231	2.2885e+01	2.2875	-7.539707	0.000401	4.011978	0.679647	0.000040
 232	2.2985e+01	2.2948	-7.501009	0.000389	3.889162	0.658842	0.000039
 233	2.3084e+01	2.3048	-7.458646	0.000426	4.257609	0.721259	0.000043
 234	2.3183e+01	2.3158	-7.423207	0.000356	3.561654	0.603361	0.000036
 235	2.3283e+01	2.3221	-7.379621	0.000438	4.380425	0.742064	0.000044
 236	2.3383e+01	2.3365	-7.340109	0.000397	3.971039	0.672712	0.000040
 237	2.3482e+01	2.3437	-7.301004	0.000393	3.930101	0.665777	0.000039
 238	2.3581e+01	2.3537	-7.260270	0.000409	4.093855	0.693518	0.000041
 239	2.3681e+01	2.3652	-7.222794	0.000377	3.766347	0.638036	0.000038
 240	2.3780e+01	2.3761	-7.188170	0.000348	3.479777	0.589490	0.000035
 241	2.3880e+01	2.3877	-7.146621	0.000418	4.175732	0.707388	0.000042
 242	2.3980e+01	2.3940	-7.105480	0.000413	4.134794	0.700453	0.000041
 243	2.4079e+01	2.4057	-7.061487	0.000442	4.421364	0.748999	0.000044
 244	2.4178e+01	2.4123	-7.024826	0.000368	3.684470	0.624166	0.000037
 245	2.4278e+01	2.4266	-6.988980	0.000360	3.602592	0.610296	0.000036
 246	2.4378e+01	2.4355	-6.947431	0.000418	4.175732	0.707388	0.000042
 247	2.4477e+01	2.4399	-6.907919	0.000397	3.971039	0.672712	0.000040
 248	2.4576e+01	2.4530	-6.869221	0.000389	3.889162	0.658842	0.000039
 249	2.4676e+01	2.4632	-6.828487	0.000409	4.093855	0.693518	0.000041
 250	2.4776e+01	2.4733	-6.791826	0.000368	3.684470	0.624166	0.000037
 251	2.4875e+01	2.4845	-6.749055	0.000430	4.298548	0.728194	0.000043
 252	2.4974e+01	2.4947	-6.711580	0.000377	3.766347	0.638036	0.000038
 253	2.5074e+01	2.5024	-6.677363	0.000344	3.438838	0.582555	0.000034
 254	2.5174e+01	2.5134	-6.633777	0.000438	4.380425	0.742064	0.000044
 255	2.5273e+01	2.5237	-6.597931	0.000360	3.602592	0.610296	0.000036
 256	2.5372e+01	2.5341	-6.561270	0.000368	3.684470	0.624166	0.000037
 257	2.5472e+01	2.5439	-6.525424	0.000360	3.602592	0.610296	0.000036
 258	2.5572e+01	2.5506	-6.485912	0.000397	3.971039	0.672712	0.000040
 259	2.5671e+01	2.5647	-6.449251	0.000368	3.684470	0.624166	0.000037
 260	2.5770e+01	2.5695	-6.412183	0.000373	3.725408	0.631101	0.000037
 261	2.5870e+01	2.5829	-6.377151	0.000352	3.520715	0.596425	0.000035
 262	2.5970e+01	2.5953	-6.342120	0.000352	3.520715	0.596425	0.000035
 263	2.6069e+01	2.6031	-6.309940	0.000323	3.234146	0.547879	0.000032
 264	2.6169e+01	2.6122	-6.265947	0.000442	4.421364	0.748999	0.000044
 265	2.6268e+01	2.6214	-6.231323	0.000348	3.479777	0.589490	0.000035
 266	2.6367e+01	2.6340	-6.192625	0.000389	3.889162	0.658842	0.000039
 267	2.6467e+01	2.6451	-6.166963	0.000258	2.579129	0.436916	0.000026
 268	2.6567e+01	2.6523	-6.127043	0.000401	4.011978	0.679647	0.000040
 269	2.6666e+01	2.6619	-6.092419	0.000348	3.479777	0.589490	0.000035
 270	2.6765e+01	2.6726	-6.052907	0.000397	3.971039	0.672712	0.000040
 271	2.6865e+01	2.6821	-6.017875	0.000352	3.520715	0.596425	0.000035
 272	2.6965e+01	2.6920	-5.982436	0.000356	3.561654	0.603361	0.000036
 273	2.7064e+01	2.7026	-5.947405	0.000352	3.520715	0.596425	0.000035
 274	2.7163e+01	2.7119	-5.911966	0.000356	3.561654	0.603361	0.000036
 275	2.7263e+01	2.7237	-5.869602	0.000426	4.257609	0.721259	0.000043
 276	2.7363e+01	2.7337	-5.834978	0.000348	3.479777	0.589490	0.000035
 277	2.7462e+01	2.7423	-5.797503	0.000377	3.766347	0.638036	0.000038
 278	2.7561e+01	2.7500	-5.759620	0.000381	3.807285	0.644972	0.000038
 279	2.7661e+01	2.7638	-5.724589	0.000352	3.520715	0.596425	0.000035
 280	2.7761e+01	2.7690	-5.687113	0.000377	3.766347	0.638036	0.000038
 281	2.7860e+01	2.7843	-5.644749	0.000426	4.257609	0.721259	0.000043
 282	2.7959e+01	2.7912	-5.604015	0.000409	4.093855	0.693518	0.000041
 283	2.8059e+01	2.8045	-5.565725	0.000385	3.848224	0.651907	0.000038
 284	2.8159e+01	2.8144	-5.524583	0.000413	4.134794	0.700453	0.000041
 285	2.8258e+01	2.8223	-5.489959	0.000348	3.479777	0.589490	0.000035
 286	2.8358e+01	2.8338	-5.448818	0.000413	4.134794	0.700453	0.000041
 287	2.8457e+01	2.8411	-5.407676	0.000413	4.134794	0.700453	0.000041
 288	2.8556e+01	2.8529	-5.374274	0.000336	3.356961	0.568685	0.000034
 289	2.8656e+01	2.8605	-5.331910	0.000426	4.257609	0.721259	0.000043
 290	2.8756e+01	2.8728	-5.291583	0.000405	4.052917	0.686583	0.000041
 291	2.8855e+01	2.8827	-5.250849	0.000409	4.093855	0.693518	0.000041
 292	2.8954e+01	2.8920	-5.212559	0.000385	3.848224	0.651907	0.000038
 293	2.9054e+01	2.8999	-5.172232	0.000405	4.052917	0.686583	0.000041
 294	2.9154e+01	2.9121	-5.133535	0.000389	3.889162	0.658842	0.000039
 295	2.9253e+01	2.9221	-5.092800	0.000409	4.093855	0.693518	0.000041
 296	2.9352e+01	2.9324	-5.050844	0.000422	4.216671	0.714323	0.000042
 297	2.9452e+01	2.9403	-5.010924	0.000401	4.011978	0.679647	0.000040
 298	2.9552e+01	2.9515	-4.973856	0.000373	3.725408	0.631101	0.000037
 299	2.9651e+01	2.9626	-4.930271	0.000438	4.380425	0.742064	0.000044
 300	2.9750e+01	2.9725	-4.893610	0.000368	3.684470	0.624166	0.000037
 301	2.9850e+01	2.9812	-4.852875	0.000409	4.093855	0.693518	0.000041
 302	2.9950e+01	2.9922	-4.812141	0.000409	4.093855	0.693518	0.000041
 303	3.0049e+01	3.0016	-4.775888	0.000364	3.643531	0.617231	0.000036
 304	3.0148e+01	3.0151	-4.733117	0.000430	4.298548	0.728194	0.000043
 305	3.0248e+01	3.0212	-4.691568	0.000418	4.175732	0.707388	0.000042
 306	3.0348e+01	3.0306	-4.650834	0.000409	4.093855	0.693518	0.000041
 307	3.0447e+01	3.0413	-4.610099	0.000409	4.093855	0.693518	0.000041
 308	3.0547e+01	3.0517	-4.571809	0.000385	3.848224	0.651907	0.000038
 309	3.0646e+01	3.0598	-4.533926	0.000381	3.807285	0.644972	0.000038
 310	3.0745e+01	3.0724	-4.492377	0.000418	4.175732	0.707388	0.000042
 311	3.0845e+01	3.0807	-4.450421	0.000422	4.216671	0.714323	0.000042
 312	3.0945e+01	3.0887	-4.412946	0.000377	3.766347	0.638036	0.000038
 313	3.1044e+01	3.1023	-4.369360	0.000438	4.380425	0.742064	0.000044
 314	3.1143e+01	3.1092	-4.327811	0.000418	4.175732	0.707388	0.000042
 315	3.1243e+01	3.1235	-4.286262	0.000418	4.175732	0.707388	0.000042
 316	3.1343e+01	3.1326	-4.245120	0.000413	4.134794	0.700453	0.000041
 317	3.1442e+01	3.1419	-4.210904	0.000344	3.438838	0.582555	0.000034
 318	3.1541e+01	3.1507	-4.169762	0.000413	4.134794	0.700453	0.000041
 319	3.1641e+01	3.1614	-4.126584	0.000434	4.339486	0.735129	0.000043
 320	3.1741e+01	3.1713	-4.086257	0.000405	4.052917	0.686583	0.000041
 321	3.1840e+01	3.1823	-4.044708	0.000418	4.175732	0.707388	0.000042
 322	3.1939e+01	3.1887	-4.005603	0.000393	3.930101	0.665777	0.000039
 323	3.2039e+01	3.2009	-3.965276	0.000405	4.052917	0.686583	0.000041
 324	3.2139e+01	3.2110	-3.923320	0.000422	4.216671	0.714323	0.000042
 325	3.2238e+01	3.2254	-3.885844	0.000377	3.766347	0.638036	0.000038
 326	3.2337e+01	3.2308	-3.843481	0.000426	4.257609	0.721259	0.000043
 327	3.2437e+01	3.2400	-3.804376	0.000393	3.930101	0.665777	0.000039
 328	3.2536e+01	3.2498	-3.761605	0.000430	4.298548	0.728194	0.000043
 329	3.2636e+01	3.2607	-3.724537	0.000373	3.725408	0.631101	0.000037
 330	3.2736e+01	3.2720	-3.682988	0.000418	4.175732	0.707388	0.000042
 331	3.2835e+01	3.2815	-3.644290	0.000389	3.889162	0.658842	0.000039
 332	3.2934e+01	3.2900	-3.602334	0.000422	4.216671	0.714323	0.000042
 333	3.3034e+01	3.2999	-3.563229	0.000393	3.930101	0.665777	0.000039
 334	3.3133e+01	3.3138	-3.522495	0.000409	4.093855	0.693518	0.000041
 335	3.3233e+01	3.3201	-3.482982	0.000397	3.971039	0.672712	0.000040
 336	3.3333e+01	3.3270	-3.442656	0.000405	4.052917	0.686583	0.000041
 337	3.3432e+01	3.3431	-3.403143	0.000397	3.971039	0.672712	0.000040
 338	3.3532e+01	3.3524	-3.360372	0.000430	4.298548	0.728194	0.000043
 339	3.3631e+01	3.3595	-3.322082	0.000385	3.848224	0.651907	0.000038
 340	3.3730e+01	3.3697	-3.281348	0.000409	4.093855	0.693518	0.000041
 341	3.3830e+01	3.3784	-3.239799	0.000418	4.175732	0.707388	0.000042
 342	3.3929e+01	3.3886	-3.199065	0.000409	4.093855	0.693518	0.000041
 343	3.4029e+01	3.3993	-3.154664	0.000446	4.462302	0.755934	0.000045
 344	3.4129e+01	3.4090	-3.111079	0.000438	4.380425	0.742064	0.000044
 345	3.4228e+01	3.4201	-3.072381	0.000389	3.889162	0.658842	0.000039
 346	3.4328e+01	3.4302	-3.030018	0.000426	4.257609	0.721259	0.000043
 347	3.4427e+01	3.4393	-2.989691	0.000405	4.052917	0.686583	0.000041
 348	3.4526e+01	3.4513	-2.945290	0.000446	4.462302	0.755934	0.000045
 349	3.4626e+01	3.4576	-2.903741	0.000418	4.175732	0.707388	0.000042
 350	3.4725e+01	3.4659	-2.857304	0.000467	4.666995	0.790610	0.000047
 351	3.4825e+01	3.4792	-2.813311	0.000442	4.421364	0.748999	0.000044
 352	3.4925e+01	3.4899	-2.773799	0.000397	3.971039	0.672712	0.000040
 353	3.5024e+01	3.4991	-2.732658	0.000413	4.134794	0.700453	0.000041
 354	3.5123e+01	3.5110	-2.691516	0.000413	4.134794	0.700453	0.000041
 355	3.5223e+01	3.5175	-2.650374	0.000413	4.134794	0.700453	0.000041
 356	3.5322e+01	3.5281	-2.604752	0.000459	4.585118	0.776740	0.000046
 357	3.5422e+01	3.5395	-2.566054	0.000389	3.889162	0.658842	0.000039
 358	3.5522e+01	3.5509	-2.522469	0.000438	4.380425	0.742064	0.000044
 359	3.5621e+01	3.5586	-2.478883	0.000438	4.380425	0.742064	0.000044
 360	3.5721e+01	3.5699	-2.443444	0.000356	3.561654	0.603361	0.000036
 361	3.5820e+01	3.5802	-2.402303	0.000413	4.134794	0.700453	0.000041
 362	3.5919e+01	3.5885	-2.361568	0.000409	4.093855	0.693518	0.000041
 363	3.6019e+01	3.5972	-2.323686	0.000381	3.807285	0.644972	0.000038
 364	3.6118e+01	3.6104	-2.282137	0.000418	4.175732	0.707388	0.000042
 365	3.6218e+01	3.6199	-2.246291	0.000360	3.602592	0.610296	0.000036
 366	3.6318e+01	3.6309	-2.206778	0.000397	3.971039	0.672712	0.000040
 367	3.6417e+01	3.6404	-2.170525	0.000364	3.643531	0.617231	0.000036
 368	3.6517e+01	3.6485	-2.133457	0.000373	3.725408	0.631101	0.000037
 369	3.6616e+01	3.6597	-2.093130	0.000405	4.052917	0.686583	0.000041
 370	3.6715e+01	3.6680	-2.058506	0.000348	3.479777	0.589490	0.000035
 371	3.6815e+01	3.6791	-2.019808	0.000389	3.889162	0.658842	0.000039
 372	3.6914e+01	3.6876	-1.979888	0.000401	4.011978	0.679647	0.000040
 373	3.7014e+01	3.6990	-1.941191	0.000389	3.889162	0.658842	0.000039
 374	3.7114e+01	3.7075	-1.907789	0.000336	3.356961	0.568685	0.000034
 375	3.7213e+01	3.7194	-1.871535	0.000364	3.643531	0.617231	0.000036
 376	3.7313e+01	3.7286	-1.832838	0.000389	3.889162	0.658842	0.000039
 377	3.7412e+01	3.7397	-1.795770	0.000373	3.725408	0.631101	0.000037
 378	3.7511e+01	3.7465	-1.759109	0.000368	3.684470	0.624166	0.000037
 379	3.7611e+01	3.7588	-1.721633	0.000377	3.766347	0.638036	0.000038
 380	3.7711e+01	3.7704	-1.684972	0.000368	3.684470	0.624166	0.000037
 381	3.7810e+01	3.7805	-1.648312	0.000368	3.684470	0.624166	0.000037
 382	3.7910e+01	3.7882	-1.607985	0.000405	4.052917	0.686583	0.000041
 383	3.8009e+01	3.8002	-1.578249	0.000299	2.988514	0.506268	0.000030
 384	3.8108e+01	3.8089	-1.543625	0.000348	3.479777	0.589490	0.000035
 385	3.8208e+01	3.8183	-1.506149	0.000377	3.766347	0.638036	0.000038
 386	3.8307e+01	3.8289	-1.465822	0.000405	4.052917	0.686583	0.000041
 387	3.8407e+01	3.8370	-1.430791	0.000352	3.520715	0.596425	0.000035
 388	3.8507e+01	3.8450	-1.398203	0.000328	3.275084	0.554814	0.000033
 389	3.8606e+01	3.8569	-1.361950	0.000364	3.643531	0.617231	0.000036
 390	3.8706e+01	3.8676	-1.324067	0.000381	3.807285	0.644972	0.000038
 391	3.8805e+01	3.8778	-1.285777	0.000385	3.848224	0.651907	0.000038
 392	3.8904e+01	3.8876	-1.256855	0.000291	2.906637	0.492398	0.000029
 393	3.9004e+01	3.8973	-1.217343	0.000397	3.971039	0.672712	0.000040
 394	3.9103e+01	3.9075	-1.184348	0.000332	3.316023	0.561749	0.000033
 395	3.9203e+01	3.9176	-1.145244	0.000393	3.930101	0.665777	0.000039
 396	3.9303e+01	3.9257	-1.110619	0.000348	3.479777	0.589490	0.000035
 397	3.9402e+01	3.9372	-1.078847	0.000319	3.193207	0.540944	0.000032
 398	3.9502e+01	3.9424	-1.046259	0.000328	3.275084	0.554814	0.000033
 399	3.9601e+01	3.9574	-1.009599	0.000368	3.684470	0.624166	0.000037
 400	3.9700e+01	3.9657	-0.973752	0.000360	3.602592	0.610296	0.000036
 401	3.9800e+01	3.9767	-0.938314	0.000356	3.561654	0.603361	0.000036
 402	3.9900e+01	3.9861	-0.906948	0.000315	3.152268	0.534009	0.000032
 403	3.9999e+01	3.9981	-0.871102	0.000360	3.602592	0.610296	0.000036
 404	4.0099e+01	4.0063	-0.834034	0.000373	3.725408	0.631101	0.000037
 405	4.0198e+01	4.0173	-0.804705	0.000295	2.947576	0.499333	0.000029
 406	4.0297e+01	4.0267	-0.765193	0.000397	3.971039	0.672712	0.000040
 407	4.0397e+01	4.0372	-0.733420	0.000319	3.193207	0.540944	0.000032
 408	4.0496e+01	4.0453	-0.699611	0.000340	3.397900	0.575620	0.000034
 409	4.0596e+01	4.0585	-0.661321	0.000385	3.848224	0.651907	0.000038
 410	4.0696e+01	4.0685	-0.628326	0.000332	3.316023	0.561749	0.000033
 411	4.0795e+01	4.0762	-0.594924	0.000336	3.356961	0.568685	0.000034
 412	4.0895e+01	4.0878	-0.561929	0.000332	3.316023	0.561749	0.000033
 413	4.0994e+01	4.0972	-0.524046	0.000381	3.807285	0.644972	0.000038
 414	4.1093e+01	4.1074	-0.489829	0.000344	3.438838	0.582555	0.000034
 415	4.1193e+01	4.1184	-0.457242	0.000328	3.275084	0.554814	0.000033
 416	4.1292e+01	4.1257	-0.418544	0.000389	3.889162	0.658842	0.000039
 417	4.1392e+01	4.1331	-0.389623	0.000291	2.906637	0.492398	0.000029
 418	4.1492e+01	4.1463	-0.350926	0.000389	3.889162	0.658842	0.000039
 419	4.1591e+01	4.1576	-0.319560	0.000315	3.152268	0.534009	0.000032
 420	4.1691e+01	4.1650	-0.284121	0.000356	3.561654	0.603361	0.000036
 421	4.1790e+01	4.1744	-0.253163	0.000311	3.111330	0.527074	0.000031
 422	4.1889e+01	4.1850	-0.216503	0.000368	3.684470	0.624166	0.000037
 423	4.1989e+01	4.1973	-0.183915	0.000328	3.275084	0.554814	0.000033
 424	4.2089e+01	4.2060	-0.151735	0.000323	3.234146	0.547879	0.000032
 425	4.2188e+01	4.2156	-0.119555	0.000323	3.234146	0.547879	0.000032
 426	4.2288e+01	4.2262	-0.091448	0.000282	2.824760	0.478527	0.000028
 427	4.2387e+01	4.2371	-0.056010	0.000356	3.561654	0.603361	0.000036
 428	4.2486e+01	4.2462	-0.022608	0.000336	3.356961	0.568685	0.000034
 429	4.2586e+01	4.2559	0.008758	0.000315	3.152268	0.534009	0.000032
 430	4.2685e+01	4.2649	0.040123	0.000315	3.152268	0.534009	0.000032
 431	4.2785e+01	4.2735	0.072303	0.000323	3.234146	0.547879	0.000032
 432	4.2885e+01	4.2842	0.100003	0.000278	2.783821	0.471592	0.000028
 433	4.2984e+01	4.2950	0.135849	0.000360	3.602592	0.610296	0.000036
 434	4.3084e+01	4.3055	0.163955	0.000282	2.824760	0.478527	0.000028
 435	4.3183e+01	4.3188	0.190840	0.000270	2.701944	0.457722	0.000027
 436	4.3282e+01	4.3228	0.222205	0.000315	3.152268	0.534009	0.000032
 437	4.3382e+01	4.3330	0.255607	0.000336	3.356961	0.568685	0.000034
 438	4.3481e+01	4.3458	0.287380	0.000319	3.193207	0.540944	0.000032
 439	4.3581e+01	4.3546	0.318338	0.000311	3.111330	0.527074	0.000031
 440	4.3681e+01	4.3636	0.345223	0.000270	2.701944	0.457722	0.000027
 441	4.3780e+01	4.3777	0.378625	0.000336	3.356961	0.568685	0.000034
 442	4.3880e+01	4.3839	0.414471	0.000360	3.602592	0.610296	0.000036
 443	4.3979e+01	4.3937	0.443392	0.000291	2.906637	0.492398	0.000029
 444	4.4078e+01	4.4045	0.479239	0.000360	3.602592	0.610296	0.000036
 445	4.4178e+01	4.4161	0.512233	0.000332	3.316023	0.561749	0.000033
 446	4.4278e+01	4.4253	0.540747	0.000287	2.865699	0.485462	0.000029
 447	4.4377e+01	4.4330	0.576593	0.000360	3.602592	0.610296	0.000036
 448	4.4477e+01	4.4443	0.611625	0.000352	3.520715	0.596425	0.000035
 449	4.4576e+01	4.4541	0.644212	0.000328	3.275084	0.554814	0.000033
 450	4.4675e+01	4.4643	0.678022	0.000340	3.397900	0.575620	0.000034
 451	4.4775e+01	4.4767	0.713460	0.000356	3.561654	0.603361	0.000036
 452	4.4874e+01	4.4827	0.748492	0.000352	3.520715	0.596425	0.000035
 453	4.4974e+01	4.4915	0.785967	0.000377	3.766347	0.638036	0.000038
 454	4.5074e+01	4.5029	0.818962	0.000332	3.316023	0.561749	0.000033
 455	4.5173e+01	4.5150	0.853179	0.000344	3.438838	0.582555	0.000034
 456	4.5273e+01	4.5222	0.887396	0.000344	3.438838	0.582555	0.000034
 457	4.5372e+01	4.5341	0.919576	0.000323	3.234146	0.547879	0.000032
 458	4.5471e+01	4.5449	0.957866	0.000385	3.848224	0.651907	0.000038
 459	4.5571e+01	4.5559	0.989639	0.000319	3.193207	0.540944	0.000032
 460	4.5670e+01	4.5626	1.024670	0.000352	3.520715	0.596425	0.000035
 461	4.5770e+01	4.5757	1.058887	0.000344	3.438838	0.582555	0.000034
 462	4.5870e+01	4.5852	1.093104	0.000344	3.438838	0.582555	0.000034
 463	4.5969e+01	4.5945	1.131394	0.000385	3.848224	0.651907	0.000038
 464	4.6069e+01	4.6017	1.168055	0.000368	3.684470	0.624166	0.000037
 465	4.6168e+01	4.6130	1.200235	0.000323	3.234146	0.547879	0.000032
 466	4.6267e+01	4.6246	1.233637	0.000336	3.356961	0.568685	0.000034
 467	4.6367e+01	4.6343	1.268668	0.000352	3.520715	0.596425	0.000035
 468	4.6467e+01	4.6435	1.309403	0.000409	4.093855	0.693518	0.000041
 469	4.6566e+01	4.6526	1.342397	0.000332	3.316023	0.561749	0.000033
 470	4.6666e+01	4.6628	1.379058	0.000368	3.684470	0.624166	0.000037
 471	4.6765e+01	4.6720	1.413682	0.000348	3.479777	0.589490	0.000035
 472	4.6864e+01	4.6813	1.445048	0.000315	3.152268	0.534009	0.000032
 473	4.6964e+01	4.6953	1.482931	0.000381	3.807285	0.644972	0.000038
 474	4.7063e+01	4.7030	1.517962	0.000352	3.520715	0.596425	0.000035
 475	4.7163e+01	4.7136	1.552993	0.000352	3.520715	0.596425	0.000035
 476	4.7263e+01	4.7192	1.591691	0.000389	3.889162	0.658842	0.000039
 477	4.7362e+01	4.7341	1.625093	0.000336	3.356961	0.568685	0.000034
 478	4.7462e+01	4.7431	1.660939	0.000360	3.602592	0.610296	0.000036
 479	4.7561e+01	4.7518	1.702081	0.000413	4.134794	0.700453	0.000041
 480	4.7660e+01	4.7625	1.734261	0.000323	3.234146	0.547879	0.000032
 481	4.7760e+01	4.7718	1.772144	0.000381	3.807285	0.644972	0.000038
 482	4.7859e+01	4.7826	1.804324	0.000323	3.234146	0.547879	0.000032
 483	4.7959e+01	4.7927	1.844651	0.000405	4.052917	0.686583	0.000041
 484	4.8059e+01	4.8016	1.876423	0.000319	3.193207	0.540944	0.000032
 485	4.8158e+01	4.8147	1.912270	0.000360	3.602592	0.610296	0.000036
 486	4.8258e+01	4.8238	1.951374	0.000393	3.930101	0.665777	0.000039
 487	4.8357e+01	4.8321	1.983147	0.000319	3.193207	0.540944	0.000032
 488	4.8456e+01	4.8425	2.018993	0.000360	3.602592	0.610296	0.000036
 489	4.8556e+01	4.8536	2.059728	0.000409	4.093855	0.693518	0.000041
 490	4.8656e+01	4.8632	2.090278	0.000307	3.070391	0.520138	0.000031
 491	4.8755e+01	4.8721	2.129383	0.000393	3.930101	0.665777	0.000039
 492	4.8855e+01	4.8845	2.165637	0.000364	3.643531	0.617231	0.000036
 493	4.8954e+01	4.8949	2.201890	0.000364	3.643531	0.617231	0.000036
 494	4.9053e+01	4.9027	2.235700	0.000340	3.397900	0.575620	0.000034
 495	4.9153e+01	4.9126	2.269916	0.000344	3.438838	0.582555	0.000034
 496	4.9252e+01	4.9206	2.306577	0.000368	3.684470	0.624166	0.000037
 497	4.9352e+01	4.9318	2.342831	0.000364	3.643531	0.617231	0.000036
 498	4.9452e+01	4.9426	2.379899	0.000373	3.725408	0.631101	0.000037
 499	4.9551e+01	4.9541	2.411264	0.000315	3.152268	0.534009	0.000032
 500	4.9651e+01	4.9593	2.448332	0.000373	3.725408	0.631101	0.000037
 501	4.9750e+01	4.9742	2.483771	0.000356	3.561654	0.603361	0.000036
 502	4.9849e+01	4.9812	2.516766	0.000332	3.316023	0.561749	0.000033
 503	4.9949e+01	4.9906	2.555871	0.000393	3.930101	0.665777	0.000039
 504	5.0048e+01	5.0014	2.587644	0.000319	3.193207	0.540944	0.000032
 505	5.0148e+01	5.0115	2.628378	0.000409	4.093855	0.693518	0.000041
 506	5.0248e+01	5.0222	2.663817	0.000356	3.561654	0.603361	0.000036
 507	5.0347e+01	5.0320	2.703329	0.000397	3.971039	0.672712	0.000040
 508	5.0447e+01	5.0423	2.737138	0.000340	3.397900	0.575620	0.000034
 509	5.0546e+01	5.0503	2.773392	0.000364	3.643531	0.617231	0.000036
 510	5.0645e+01	5.0630	2.811275	0.000381	3.807285	0.644972	0.000038
 511	5.0745e+01	5.0690	2.848750	0.000377	3.766347	0.638036	0.000038
 512	5.0844e+01	5.0807	2.881745	0.000332	3.316023	0.561749	0.000033
 513	5.0944e+01	5.0925	2.924516	0.000430	4.298548	0.728194	0.000043
 514	5.1044e+01	5.0982	2.964028	0.000397	3.971039	0.672712	0.000040
 515	5.1143e+01	5.1092	2.999060	0.000352	3.520715	0.596425	0.000035
 516	5.1242e+01	5.1212	3.035313	0.000364	3.643531	0.617231	0.000036
 517	5.1342e+01	5.1305	3.076455	0.000413	4.134794	0.700453	0.000041
 518	5.1441e+01	5.1371	3.112708	0.000364	3.643531	0.617231	0.000036
 519	5.1541e+01	5.1488	3.153035	0.000405	4.052917	0.686583	0.000041
 520	5.1641e+01	5.1591	3.187659	0.000348	3.479777	0.589490	0.000035
 521	5.1740e+01	5.1705	3.225542	0.000381	3.807285	0.644972	0.000038
 522	5.1840e+01	5.1797	3.265462	0.000401	4.011978	0.679647	0.000040
 523	5.1939e+01	5.1884	3.300086	0.000348	3.479777	0.589490	0.000035
 524	5.2038e+01	5.1996	3.339598	0.000397	3.971039	0.672712	0.000040
 525	5.2138e+01	5.2090	3.374222	0.000348	3.479777	0.589490	0.000035
 526	5.2237e+01	5.2221	3.414142	0.000401	4.011978	0.679647	0.000040
 527	5.2337e+01	5.2309	3.450802	0.000368	3.684470	0.624166	0.000037
 528	5.2437e+01	5.2393	3.486649	0.000360	3.602592	0.610296	0.000036
 529	5.2536e+01	5.2497	3.521273	0.000348	3.479777	0.589490	0.000035
 530	5.2636e+01	5.2618	3.556711	0.000356	3.561654	0.603361	0.000036
 531	5.2735e+01	5.2720	3.589706	0.000332	3.316023	0.561749	0.000033
 532	5.2834e+01	5.2801	3.625552	0.000360	3.602592	0.610296	0.000036
 533	5.2934e+01	5.2905	3.659769	0.000344	3.438838	0.582555	0.000034
 534	5.3033e+01	5.3010	3.691135	0.000315	3.152268	0.534009	0.000032
 535	5.3133e+01	5.3088	3.722907	0.000319	3.193207	0.540944	0.000032
 536	5.3233e+01	5.3185	3.757531	0.000348	3.479777	0.589490	0.000035
 537	5.3332e+01	5.3308	3.794192	0.000368	3.684470	0.624166	0.000037
 538	5.3431e+01	5.3393	3.824336	0.000303	3.029453	0.513203	0.000030
 539	5.3531e+01	5.3477	3.859367	0.000352	3.520715	0.596425	0.000035
 540	5.3630e+01	5.3597	3.892769	0.000336	3.356961	0.568685	0.000034
 541	5.3730e+01	5.3698	3.925356	0.000328	3.275084	0.554814	0.000033
 542	5.3830e+01	5.3802	3.955907	0.000307	3.070391	0.520138	0.000031
 543	5.3929e+01	5.3924	3.991346	0.000356	3.561654	0.603361	0.000036
 544	5.4029e+01	5.3996	4.024341	0.000332	3.316023	0.561749	0.000033
 545	5.4128e+01	5.4079	4.057743	0.000336	3.356961	0.568685	0.000034
 546	5.4227e+01	5.4212	4.089923	0.000323	3.234146	0.547879	0.000032
 547	5.4327e+01	5.4314	4.116807	0.000270	2.701944	0.457722	0.000027
 548	5.4426e+01	5.4398	4.153876	0.000373	3.725408	0.631101	0.000037
 549	5.4526e+01	5.4533	4.181168	0.000274	2.742883	0.464657	0.000027
 550	5.4626e+01	5.4580	4.217421	0.000364	3.643531	0.617231	0.000036
 551	5.4725e+01	5.4713	4.247972	0.000307	3.070391	0.520138	0.000031
 552	5.4825e+01	5.4812	4.278522	0.000307	3.070391	0.520138	0.000031
 553	5.4924e+01	5.4882	4.313554	0.000352	3.520715	0.596425	0.000035
 554	5.5023e+01	5.4987	4.346956	0.000336	3.356961	0.568685	0.000034
 555	5.5123e+01	5.5077	4.377914	0.000311	3.111330	0.527074	0.000031
 556	5.5222e+01	5.5192	4.408057	0.000303	3.029453	0.513203	0.000030
 557	5.5322e+01	5.5312	4.440645	0.000328	3.275084	0.554814	0.000033
 558	5.5422e+01	5.5428	4.470788	0.000303	3.029453	0.513203	0.000030
 559	5.5521e+01	5.5518	4.502154	0.000315	3.152268	0.534009	0.000032
 560	5.5620e+01	5.5589	4.534741	0.000328	3.275084	0.554814	0.000033
 561	5.5720e+01	5.5704	4.564477	0.000299	2.988514	0.506268	0.000030
 562	5.5819e+01	5.5785	4.595435	0.000311	3.111330	0.527074	0.000031
 563	5.5919e+01	5.5926	4.627208	0.000319	3.193207	0.540944	0.000032
 564	5.6019e+01	5.5999	4.659388	0.000323	3.234146	0.547879	0.000032
 565	5.6118e+01	5.6112	4.689124	0.000299	2.988514	0.506268	0.000030
 566	5.6218e+01	5.6187	4.722119	0.000332	3.316023	0.561749	0.000033
 567	5.6317e+01	5.6289	4.751447	0.000295	2.947576	0.499333	0.000029
 568	5.6416e+01	5.6426	4.779554	0.000282	2.824760	0.478527	0.000028
 569	5.6516e+01	5.6484	4.810512	0.000311	3.111330	0.527074	0.000031
 570	5.6615e+01	5.6594	4.840248	0.000299	2.988514	0.506268	0.000030
 571	5.6715e+01	5.6695	4.870391	0.000303	3.029453	0.513203	0.000030
 572	5.6815e+01	5.6786	4.901349	0.000311	3.111330	0.527074	0.000031
 573	5.6914e+01	5.6870	4.932307	0.000311	3.111330	0.527074	0.000031
 574	5.7014e+01	5.6983	4.965302	0.000332	3.316023	0.561749	0.000033
 575	5.7113e+01	5.7061	4.991372	0.000262	2.620067	0.443851	0.000026
 576	5.7212e+01	5.7172	5.025589	0.000344	3.438838	0.582555	0.000034
 577	5.7312e+01	5.7287	5.055325	0.000299	2.988514	0.506268	0.000030
 578	5.7411e+01	5.7394	5.085468	0.000303	3.029453	0.513203	0.000030
 579	5.7511e+01	5.7484	5.118870	0.000336	3.356961	0.568685	0.000034
 580	5.7611e+01	5.7598	5.147384	0.000287	2.865699	0.485462	0.000029
 581	5.7710e+01	5.7671	5.175898	0.000287	2.865699	0.485462	0.000029
 582	5.7809e+01	5.7817	5.207264	0.000315	3.152268	0.534009	0.000032
 583	5.7909e+01	5.7865	5.237000	0.000299	2.988514	0.506268	0.000030
 584	5.8008e+01	5.7989	5.268365	0.000315	3.152268	0.534009	0.000032
 585	5.8108e+01	5.8080	5.298101	0.000299	2.988514	0.506268	0.000030
 586	5.8208e+01	5.8172	5.327022	0.000291	2.906637	0.492398	0.000029
 587	5.8307e+01	5.8270	5.356351	0.000295	2.947576	0.499333	0.000029
 588	5.8407e+01	5.8334	5.385680	0.000295	2.947576	0.499333	0.000029
 589	5.8506e+01	5.8477	5.415823	0.000303	3.029453	0.513203	0.000030
 590	5.8605e+01	5.8572	5.446781	0.000311	3.111330	0.527074	0.000031
 591	5.8705e+01	5.8696	5.476110	0.000295	2.947576	0.499333	0.000029
 592	5.8804e+01	5.8786	5.502587	0.000266	2.661006	0.450787	0.000027
 593	5.8904e+01	5.8854	5.530286	0.000278	2.783821	0.471592	0.000028
 594	5.9004e+01	5.8985	5.559207	0.000291	2.906637	0.492398	0.000029
 595	5.9103e+01	5.9084	5.586499	0.000274	2.742883	0.464657	0.000027
 596	5.9203e+01	5.9182	5.616643	0.000303	3.029453	0.513203	0.000030
 597	5.9302e+01	5.9293	5.643527	0.000270	2.701944	0.457722	0.000027
 598	5.9401e+01	5.9383	5.670005	0.000266	2.661006	0.450787	0.000027
 599	5.9501e+01	5.9454	5.700148	0.000303	3.029453	0.513203	0.000030
 600	5.9600e+01	5.9576	5.728255	0.000282	2.824760	0.478527	0.000028
 601	5.9700e+01	5.9661	5.751473	0.000233	2.333497	0.395305	0.000023
 602	5.9800e+01	5.9772	5.780394	0.000291	2.906637	0.492398	0.000029
 603	5.9899e+01	5.9882	5.801169	0.000209	2.087866	0.353694	0.000021
 604	5.9998e+01	5.9962	5.832534	0.000315	3.152268	0.534009	0.000032
 605	6.0098e+01	6.0064	5.858197	0.000258	2.579129	0.436916	0.000026
 606	6.0197e+01	6.0182	5.887118	0.000291	2.906637	0.492398	0.000029
 607	6.0297e+01	6.0279	5.916040	0.000291	2.906637	0.492398	0.000029
 608	6.0397e+01	6.0377	5.942517	0.000266	2.661006	0.450787	0.000027
 609	6.0496e+01	6.0479	5.973475	0.000311	3.111330	0.527074	0.000031
 610	6.0596e+01	6.0586	5.995879	0.000225	2.251620	0.381435	0.000023
 611	6.0695e+01	6.0656	6.029281	0.000336	3.356961	0.568685	0.000034
 612	6.0794e+01	6.0774	6.055351	0.000262	2.620067	0.443851	0.000026
 613	6.0894e+01	6.0882	6.083050	0.000278	2.783821	0.471592	0.000028
 614	6.0993e+01	6.0967	6.111564	0.000287	2.865699	0.485462	0.000029
 615	6.1093e+01	6.1062	6.142929	0.000315	3.152268	0.534009	0.000032
 616	6.1193e+01	6.1156	6.175109	0.000323	3.234146	0.547879	0.000032
 617	6.1292e+01	6.1259	6.206475	0.000315	3.152268	0.534009	0.000032
 618	6.1392e+01	6.1382	6.234174	0.000278	2.783821	0.471592	0.000028
 619	6.1491e+01	6.1495	6.262281	0.000282	2.824760	0.478527	0.000028
 620	6.1590e+01	6.1575	6.294868	0.000328	3.275084	0.554814	0.000033
 621	6.1690e+01	6.1682	6.324197	0.000295	2.947576	0.499333	0.000029
 622	6.1789e+01	6.1776	6.358006	0.000340	3.397900	0.575620	0.000034
 623	6.1889e+01	6.1852	6.388150	0.000303	3.029453	0.513203	0.000030
 624	6.1989e+01	6.1967	6.417478	0.000295	2.947576	0.499333	0.000029
 625	6.2088e+01	6.2038	6.449251	0.000319	3.193207	0.540944	0.000032
 626	6.2188e+01	6.2170	6.481838	0.000328	3.275084	0.554814	0.000033
 627	6.2287e+01	6.2284	6.514018	0.000323	3.234146	0.547879	0.000032
 628	6.2386e+01	6.2336	6.542532	0.000287	2.865699	0.485462	0.000029
 629	6.2486e+01	6.2447	6.577564	0.000352	3.520715	0.596425	0.000035
 630	6.2586e+01	6.2518	6.607300	0.000299	2.988514	0.506268	0.000030
 631	6.2685e+01	6.2646	6.636629	0.000295	2.947576	0.499333	0.000029
 632	6.2785e+01	6.2769	6.668809	0.000323	3.234146	0.547879	0.000032
 633	6.2884e+01	6.2872	6.698545	0.000299	2.988514	0.506268	0.000030
 634	6.2983e+01	6.2969	6.733169	0.000348	3.479777	0.589490	0.000035
 635	6.3083e+01	6.3033	6.757609	0.000246	2.456313	0.416111	0.000025
 636	6.3182e+01	6.3139	6.792641	0.000352	3.520715	0.596425	0.000035
 637	6.3282e+01	6.3271	6.823599	0.000311	3.111330	0.527074	0.000031
 638	6.3382e+01	6.3366	6.854964	0.000315	3.152268	0.534009	0.000032
 639	6.3481e+01	6.3473	6.885922	0.000311	3.111330	0.527074	0.000031
 640	6.3581e+01	6.3535	6.917695	0.000319	3.193207	0.540944	0.000032
 641	6.3680e+01	6.3625	6.948653	0.000311	3.111330	0.527074	0.000031
 642	6.3779e+01	6.3738	6.978796	0.000303	3.029453	0.513203	0.000030
 643	6.3879e+01	6.3845	7.013828	0.000352	3.520715	0.596425	0.000035
 644	6.3978e+01	6.3963	7.045193	0.000315	3.152268	0.534009	0.000032
 645	6.4078e+01	6.4011	7.076151	0.000311	3.111330	0.527074	0.000031
 646	6.4177e+01	6.4137	7.109146	0.000332	3.316023	0.561749	0.000033
 647	6.4277e+01	6.4236	7.142955	0.000340	3.397900	0.575620	0.000034
 648	6.4376e+01	6.4364	7.176765	0.000340	3.397900	0.575620	0.000034
 649	6.4476e+01	6.4442	7.206501	0.000299	2.988514	0.506268	0.000030
 650	6.4576e+01	6.4520	7.236237	0.000299	2.988514	0.506268	0.000030
 651	6.4675e+01	6.4640	7.271676	0.000356	3.561654	0.603361	0.000036
 652	6.4775e+01	6.4770	7.303041	0.000315	3.152268	0.534009	0.000032
 653	6.4874e+01	6.4822	7.336443	0.000336	3.356961	0.568685	0.000034
 654	6.4974e+01	6.4946	7.369438	0.000332	3.316023	0.561749	0.000033
 655	6.5073e+01	6.5051	7.403247	0.000340	3.397900	0.575620	0.000034
 656	6.5172e+01	6.5158	7.431354	0.000282	2.824760	0.478527	0.000028
 657	6.5272e+01	6.5258	7.462719	0.000315	3.152268	0.534009	0.000032
 658	6.5371e+01	6.5348	7.496121	0.000336	3.356961	0.568685	0.000034
 659	6.5471e+01	6.5466	7.531560	0.000356	3.561654	0.603361	0.000036
 660	6.5570e+01	6.5534	7.560074	0.000287	2.865699	0.485462	0.000029
 661	6.5670e+01	6.5643	7.594698	0.000348	3.479777	0.589490	0.000035
 662	6.5769e+01	6.5743	7.626471	0.000319	3.193207	0.540944	0.000032
 663	6.5869e+01	6.5821	7.657022	0.000307	3.070391	0.520138	0.000031
 664	6.5969e+01	6.5934	7.686758	0.000299	2.988514	0.506268	0.000030
 665	6.6068e+01	6.6027	7.723418	0.000368	3.684470	0.624166	0.000037
 666	6.6168e+01	6.6140	7.754376	0.000311	3.111330	0.527074	0.000031
 667	6.6267e+01	6.6235	7.784927	0.000307	3.070391	0.520138	0.000031
 668	6.6367e+01	6.6351	7.813441	0.000287	2.865699	0.485462	0.000029
 669	6.6466e+01	6.6484	7.849287	0.000360	3.602592	0.610296	0.000036
 670	6.6566e+01	6.6521	7.875765	0.000266	2.661006	0.450787	0.000027
 671	6.6665e+01	6.6656	7.913647	0.000381	3.807285	0.644972	0.000038
 672	6.6764e+01	6.6721	7.947864	0.000344	3.438838	0.582555	0.000034
 673	6.6864e+01	6.6818	7.976378	0.000287	2.865699	0.485462	0.000029
 674	6.6963e+01	6.6930	8.009780	0.000336	3.356961	0.568685	0.000034
 675	6.7063e+01	6.7064	8.041960	0.000323	3.234146	0.547879	0.000032
 676	6.7162e+01	6.7132	8.077399	0.000356	3.561654	0.603361	0.000036
 677	6.7262e+01	6.7211	8.114875	0.000377	3.766347	0.638036	0.000038
 678	6.7362e+01	6.7338	8.147055	0.000323	3.234146	0.547879	0.000032
 679	6.7461e+01	6.7432	8.182086	0.000352	3.520715	0.596425	0.000035
 680	6.7561e+01	6.7542	8.211822	0.000299	2.988514	0.506268	0.000030
 681	6.7660e+01	6.7629	8.250927	0.000393	3.930101	0.665777	0.000039
 682	6.7760e+01	6.7736	8.284329	0.000336	3.356961	0.568685	0.000034
 683	6.7859e+01	6.7812	8.316917	0.000328	3.275084	0.554814	0.000033
 684	6.7959e+01	6.7915	8.353985	0.000373	3.725408	0.631101	0.000037
 685	6.8058e+01	6.8067	8.388201	0.000344	3.438838	0.582555	0.000034
 686	6.8157e+01	6.8090	8.422826	0.000348	3.479777	0.589490	0.000035
 687	6.8257e+01	6.8206	8.457450	0.000348	3.479777	0.589490	0.000035
 688	6.8356e+01	6.8362	8.490852	0.000336	3.356961	0.568685	0.000034
 689	6.8456e+01	6.8422	8.524254	0.000336	3.356961	0.568685	0.000034
 690	6.8555e+01	6.8514	8.558471	0.000344	3.438838	0.582555	0.000034
 691	6.8655e+01	6.8632	8.591465	0.000332	3.316023	0.561749	0.000033
 692	6.8754e+01	6.8709	8.626090	0.000348	3.479777	0.589490	0.000035
 693	6.8854e+01	6.8865	8.661528	0.000356	3.561654	0.603361	0.000036
 694	6.8954e+01	6.8922	8.689635	0.000282	2.824760	0.478527	0.000028
 695	6.9053e+01	6.9021	8.723444	0.000340	3.397900	0.575620	0.000034
 696	6.9153e+01	6.9166	8.756439	0.000332	3.316023	0.561749	0.000033
 697	6.9252e+01	6.9202	8.790656	0.000344	3.438838	0.582555	0.000034
 698	6.9352e+01	6.9323	8.819170	0.000287	2.865699	0.485462	0.000029
 699	6.9451e+01	6.9396	8.851350	0.000323	3.234146	0.547879	0.000032
 700	6.9550e+01	6.9533	8.879864	0.000287	2.865699	0.485462	0.000029
 701	6.9650e+01	6.9588	8.910007	0.000303	3.029453	0.513203	0.000030
 702	6.9749e+01	6.9730	8.942595	0.000328	3.275084	0.554814	0.000033
 703	6.9849e+01	6.9807	8.971923	0.000295	2.947576	0.499333	0.000029
 704	6.9948e+01	6.9906	9.005325	0.000336	3.356961	0.568685	0.000034
 705	7.0048e+01	7.0000	9.033432	0.000282	2.824760	0.478527	0.000028
 706	7.0147e+01	7.0127	9.062761	0.000295	2.947576	0.499333	0.000029
 707	7.0247e+01	7.0223	9.090867	0.000282	2.824760	0.478527	0.000028
 708	7.0347e+01	7.0327	9.122233	0.000315	3.152268	0.534009	0.000032
 709	7.0446e+01	7.0403	9.150747	0.000287	2.865699	0.485462	0.000029
 710	7.0546e+01	7.0517	9.182112	0.000315	3.152268	0.534009	0.000032
 711	7.0645e+01	7.0632	9.208997	0.000270	2.701944	0.457722	0.000027
 712	7.0745e+01	7.0705	9.242806	0.000340	3.397900	0.575620	0.000034
 713	7.0844e+01	7.0834	9.267654	0.000250	2.497252	0.423046	0.000025
 714	7.0944e+01	7.0921	9.299834	0.000323	3.234146	0.547879	0.000032
 715	7.1043e+01	7.1027	9.322645	0.000229	2.292559	0.388370	0.000023
 716	7.1142e+01	7.1109	9.355640	0.000332	3.316023	0.561749	0.000033
 717	7.1242e+01	7.1207	9.385783	0.000303	3.029453	0.513203	0.000030
 718	7.1341e+01	7.1310	9.413890	0.000282	2.824760	0.478527	0.000028
 719	7.1441e+01	7.1387	9.445255	0.000315	3.152268	0.534009	0.000032
 720	7.1540e+01	7.1516	9.473362	0.000282	2.824760	0.478527	0.000028
 721	7.1640e+01	7.1609	9.498210	0.000250	2.497252	0.423046	0.000025
 722	7.1740e+01	7.1690	9.527946	0.000299	2.988514	0.506268	0.000030
 723	7.1839e+01	7.1807	9.558089	0.000303	3.029453	0.513203	0.000030
 724	7.1939e+01	7.1887	9.587418	0.000295	2.947576	0.499333	0.000029
 725	7.2038e+01	7.2010	9.615117	0.000278	2.783821	0.471592	0.000028
 726	7.2138e+01	7.2108	9.642409	0.000274	2.742883	0.464657	0.000027
 727	7.2237e+01	7.2193	9.673367	0.000311	3.111330	0.527074	0.000031
 728	7.2337e+01	7.2327	9.699845	0.000266	2.661006	0.450787	0.000027
 729	7.2436e+01	7.2422	9.729173	0.000295	2.947576	0.499333	0.000029
 730	7.2535e+01	7.2511	9.754021	0.000250	2.497252	0.423046	0.000025
 731	7.2635e+01	7.2638	9.783757	0.000299	2.988514	0.506268	0.000030
 732	7.2734e+01	7.2718	9.808605	0.000250	2.497252	0.423046	0.000025
 733	7.2834e+01	7.2804	9.833860	0.000254	2.538190	0.429981	0.000025
 734	7.2933e+01	7.2896	9.866040	0.000323	3.234146	0.547879	0.000032
 735	7.3033e+01	7.2998	9.892110	0.000262	2.620067	0.443851	0.000026
 736	7.3132e+01	7.3089	9.916551	0.000246	2.456313	0.416111	0.000025
 737	7.3232e+01	7.3196	9.946287	0.000299	2.988514	0.506268	0.000030
 738	7.3332e+01	7.3321	9.973579	0.000274	2.742883	0.464657	0.000027
 739	7.3431e+01	7.3392	9.999241	0.000258	2.579129	0.436916	0.000026
 740	7.3531e+01	7.3510	10.029385	0.000303	3.029453	0.513203	0.000030
 741	7.3630e+01	7.3612	10.056677	0.000274	2.742883	0.464657	0.000027
 742	7.3730e+01	7.3689	10.085598	0.000291	2.906637	0.492398	0.000029
 743	7.3829e+01	7.3782	10.108816	0.000233	2.333497	0.395305	0.000023
 744	7.3928e+01	7.3902	10.140182	0.000315	3.152268	0.534009	0.000032
 745	7.4028e+01	7.4006	10.162586	0.000225	2.251620	0.381435	0.000023
 746	7.4127e+01	7.4126	10.194358	0.000319	3.193207	0.540944	0.000032
 747	7.4227e+01	7.4198	10.219614	0.000254	2.538190	0.429981	0.000025
 748	7.4326e+01	7.4311	10.247720	0.000282	2.824760	0.478527	0.000028
 749	7.4426e+01	7.4415	10.270124	0.000225	2.251620	0.381435	0.000023
 750	7.4525e+01	7.4487	10.299453	0.000295	2.947576	0.499333	0.000029
 751	7.4625e+01	7.4606	10.330411	0.000311	3.111330	0.527074	0.000031
 752	7.4725e+01	7.4691	10.357295	0.000270	2.701944	0.457722	0.000027
 753	7.4824e+01	7.4799	10.384587	0.000274	2.742883	0.464657	0.000027
 754	7.4924e+01	7.4896	10.411879	0.000274	2.742883	0.464657	0.000027
 755	7.5023e+01	7.5018	10.439579	0.000278	2.783821	0.471592	0.000028
 756	7.5123e+01	7.5099	10.464426	0.000250	2.497252	0.423046	0.000025
 757	7.5222e+01	7.5163	10.493348	0.000291	2.906637	0.492398	0.000029
 758	7.5322e+01	7.5285	10.516974	0.000237	2.374436	0.402240	0.000024
 759	7.5421e+01	7.5402	10.539785	0.000229	2.292559	0.388370	0.000023
 760	7.5520e+01	7.5494	10.568706	0.000291	2.906637	0.492398	0.000029
 761	7.5620e+01	7.5573	10.595183	0.000266	2.661006	0.450787	0.000027
 762	7.5719e+01	7.5703	10.615551	0.000205	2.046928	0.346759	0.000020
 763	7.5819e+01	7.5774	10.640398	0.000250	2.497252	0.423046	0.000025
 764	7.5918e+01	7.5864	10.665654	0.000254	2.538190	0.429981	0.000025
 765	7.6018e+01	7.5994	10.692131	0.000266	2.661006	0.450787	0.000027
 766	7.6118e+01	7.6086	10.714535	0.000225	2.251620	0.381435	0.000023
 767	7.6217e+01	7.6182	10.743049	0.000287	2.865699	0.485462	0.000029
 768	7.6317e+01	7.6289	10.765860	0.000229	2.292559	0.388370	0.000023
 769	7.6416e+01	7.6367	10.789078	0.000233	2.333497	0.395305	0.000023
 770	7.6516e+01	7.6476	10.810668	0.000217	2.169743	0.367564	0.000022
 771	7.6615e+01	7.6585	10.841626	0.000311	3.111330	0.527074	0.000031
 772	7.6715e+01	7.6698	10.863215	0.000217	2.169743	0.367564	0.000022
 773	7.6814e+01	7.6781	10.884804	0.000217	2.169743	0.367564	0.000022
 774	7.6913e+01	7.6856	10.910467	0.000258	2.579129	0.436916	0.000026
 775	7.7013e+01	7.6987	10.933685	0.000233	2.333497	0.395305	0.000023
 776	7.7112e+01	7.7074	10.960977	0.000274	2.742883	0.464657	0.000027
 777	7.7212e+01	7.7142	10.982566	0.000217	2.169743	0.367564	0.000022
 778	7.7311e+01	7.7303	11.013932	0.000315	3.152268	0.534009	0.000032
 779	7.7411e+01	7.7378	11.035113	0.000213	2.128805	0.360629	0.000021
 780	7.7510e+01	7.7477	11.061998	0.000270	2.701944	0.457722	0.000027
 781	7.7610e+01	7.7560	11.086439	0.000246	2.456313	0.416111	0.000025
 782	7.7710e+01	7.7679	11.115360	0.000291	2.906637	0.492398	0.000029
 783	7.7809e+01	7.7760	11.141430	0.000262	2.620067	0.443851	0.000026
 784	7.7909e+01	7.7869	11.169944	0.000287	2.865699	0.485462	0.000029
 785	7.8008e+01	7.7996	11.199680	0.000299	2.988514	0.506268	0.000030
 786	7.8108e+01	7.8094	11.224935	0.000254	2.538190	0.429981	0.000025
 787	7.8207e+01	7.8191	11.252634	0.000278	2.783821	0.471592	0.000028
 788	7.8306e+01	7.8272	11.281148	0.000287	2.865699	0.485462	0.000029
 789	7.8406e+01	7.8406	11.309255	0.000282	2.824760	0.478527	0.000028
 790	7.8505e+01	7.8459	11.337769	0.000287	2.865699	0.485462	0.000029
 791	7.8605e+01	7.8573	11.363839	0.000262	2.620067	0.443851	0.000026
 792	7.8704e+01	7.8673	11.394797	0.000311	3.111330	0.527074	0.000031
 793	7.8804e+01	7.8778	11.423311	0.000287	2.865699	0.485462	0.000029
 794	7.8903e+01	7.8880	11.450195	0.000270	2.701944	0.457722	0.000027
 795	7.9003e+01	7.8979	11.479524	0.000295	2.947576	0.499333	0.000029
 796	7.9103e+01	7.9070	11.511704	0.000323	3.234146	0.547879	0.000032
 797	7.9202e+01	7.9159	11.536959	0.000254	2.538190	0.429981	0.000025
 798	7.9302e+01	7.9249	11.565473	0.000287	2.865699	0.485462	0.000029
 799	7.9401e+01	7.9361	11.597653	0.000323	3.234146	0.547879	0.000032
 800	7.9501e+01	7.9481	11.620465	0.000229	2.292559	0.388370	0.000023
 801	7.9600e+01	7.9572	11.650608	0.000303	3.029453	0.513203	0.000030
 802	7.9700e+01	7.9655	11.679937	0.000295	2.947576	0.499333	0.000029
 803	7.9799e+01	7.9771	11.712117	0.000323	3.234146	0.547879	0.000032
 804	7.9898e+01	7.9884	11.738187	0.000262	2.620067	0.443851	0.000026
 805	7.9998e+01	7.9950	11.767923	0.000299	2.988514	0.506268	0.000030
 806	8.0097e+01	8.0074	11.796437	0.000287	2.865699	0.485462	0.000029
 807	8.0197e+01	8.0145	11.823321	0.000270	2.701944	0.457722	0.000027
 808	8.0296e+01	8.0264	11.855501	0.000323	3.234146	0.547879	0.000032
 809	8.0396e+01	8.0373	11.882793	0.000274	2.742883	0.464657	0.000027
 810	8.0496e+01	8.0488	11.913344	0.000307	3.070391	0.520138	0.000031
 811	8.0595e+01	8.0587	11.942673	0.000295	2.947576	0.499333	0.000029
 812	8.0695e+01	8.0679	11.973223	0.000307	3.070391	0.520138	0.000031
 813	8.0794e+01	8.0755	12.001330	0.000282	2.824760	0.478527	0.000028
 814	8.0894e+01	8.0865	12.034325	0.000332	3.316023	0.561749	0.000033
 815	8.0993e+01	8.0946	12.062024	0.000278	2.783821	0.471592	0.000028
 816	8.1093e+01	8.1045	12.090945	0.000291	2.906637	0.492398	0.000029
 817	8.1192e+01	8.1153	12.123125	0.000323	3.234146	0.547879	0.000032
 818	8.1291e+01	8.1254	12.149603	0.000266	2.661006	0.450787	0.000027
 819	8.1391e+01	8.1373	12.178931	0.000295	2.947576	0.499333	0.000029
 820	8.1490e+01	8.1486	12.211926	0.000332	3.316023	0.561749	0.000033
 821	8.1590e+01	8.1592	12.242884	0.000311	3.111330	0.527074	0.000031
 822	8.1689e+01	8.1644	12.270176	0.000274	2.742883	0.464657	0.000027
 823	8.1789e+01	8.1788	12.302356	0.000323	3.234146	0.547879	0.000032
 824	8.1888e+01	8.1866	12.329648	0.000274	2.742883	0.464657	0.000027
 825	8.1988e+01	8.1940	12.359384	0.000299	2.988514	0.506268	0.000030
 826	8.2088e+01	8.2060	12.389527	0.000303	3.029453	0.513203	0.000030
 827	8.2187e+01	8.2169	12.422522	0.000332	3.316023	0.561749	0.000033
 828	8.2287e+01	8.2276	12.450221	0.000278	2.783821	0.471592	0.000028
 829	8.2386e+01	8.2328	12.478328	0.000282	2.824760	0.478527	0.000028
 830	8.2486e+01	8.2442	12.509693	0.000315	3.152268	0.534009	0.000032
 831	8.2585e+01	8.2548	12.538615	0.000291	2.906637	0.492398	0.000029
 832	8.2684e+01	8.2674	12.569165	0.000307	3.070391	0.520138	0.000031
 833	8.2784e+01	8.2748	12.597272	0.000282	2.824760	0.478527	0.000028
 834	8.2883e+01	8.2864	12.629859	0.000328	3.275084	0.554814	0.000033
 835	8.2983e+01	8.2970	12.655522	0.000258	2.579129	0.436916	0.000026
 836	8.3082e+01	8.3054	12.686480	0.000311	3.111330	0.527074	0.000031
 837	8.3182e+01	8.3157	12.714587	0.000282	2.824760	0.478527	0.000028
 838	8.3281e+01	8.3231	12.745137	0.000307	3.070391	0.520138	0.000031
 839	8.3381e+01	8.3336	12.777725	0.000328	3.275084	0.554814	0.000033
 840	8.3481e+01	8.3451	12.806239	0.000287	2.865699	0.485462	0.000029
 841	8.3580e+01	8.3550	12.839234	0.000332	3.316023	0.561749	0.000033
 842	8.3680e+01	8.3631	12.867748	0.000287	2.865699	0.485462	0.000029
 843	8.3779e+01	8.3750	12.901150	0.000336	3.356961	0.568685	0.000034
 844	8.3879e+01	8.3838	12.929664	0.000287	2.865699	0.485462	0.000029
 845	8.3978e+01	8.3938	12.965510	0.000360	3.602592	0.610296	0.000036
 846	8.4078e+01	8.4065	13.000134	0.000348	3.479777	0.589490	0.000035
 847	8.4177e+01	8.4124	13.028240	0.000282	2.824760	0.478527	0.000028
 848	8.4276e+01	8.4241	13.062457	0.000344	3.438838	0.582555	0.000034
 849	8.4376e+01	8.4330	13.088935	0.000266	2.661006	0.450787	0.000027
 850	8.4475e+01	8.4464	13.123966	0.000352	3.520715	0.596425	0.000035
 851	8.4575e+01	8.4566	13.155739	0.000319	3.193207	0.540944	0.000032
 852	8.4674e+01	8.4633	13.190770	0.000352	3.520715	0.596425	0.000035
 853	8.4774e+01	8.4751	13.225394	0.000348	3.479777	0.589490	0.000035
 854	8.4874e+01	8.4818	13.257167	0.000319	3.193207	0.540944	0.000032
 855	8.4973e+01	8.4943	13.290569	0.000336	3.356961	0.568685	0.000034
 856	8.5073e+01	8.5017	13.320712	0.000303	3.029453	0.513203	0.000030
 857	8.5172e+01	8.5151	13.353300	0.000328	3.275084	0.554814	0.000033
 858	8.5272e+01	8.5249	13.384665	0.000315	3.152268	0.534009	0.000032
 859	8.5371e+01	8.5340	13.416845	0.000323	3.234146	0.547879	0.000032
 860	8.5471e+01	8.5467	13.449433	0.000328	3.275084	0.554814	0.000033
 861	8.5570e+01	8.5537	13.479576	0.000303	3.029453	0.513203	0.000030
 862	8.5669e+01	8.5619	13.510941	0.000315	3.152268	0.534009	0.000032
 863	8.5769e+01	8.5748	13.541492	0.000307	3.070391	0.520138	0.000031
 864	8.5868e+01	8.5830	13.571635	0.000303	3.029453	0.513203	0.000030
 865	8.5968e+01	8.5970	13.606260	0.000348	3.479777	0.589490	0.000035
 866	8.6067e+01	8.6039	13.632329	0.000262	2.620067	0.443851	0.000026
 867	8.6167e+01	8.6140	13.664102	0.000319	3.193207	0.540944	0.000032
 868	8.6266e+01	8.6259	13.689357	0.000254	2.538190	0.429981	0.000025
 869	8.6366e+01	8.6337	13.719093	0.000299	2.988514	0.506268	0.000030
 870	8.6466e+01	8.6427	13.746793	0.000278	2.783821	0.471592	0.000028
 871	8.6565e+01	8.6501	13.774492	0.000278	2.783821	0.471592	0.000028
 872	8.6665e+01	8.6628	13.800969	0.000266	2.661006	0.450787	0.000027
 873	8.6764e+01	8.6741	13.833149	0.000323	3.234146	0.547879	0.000032
 874	8.6864e+01	8.6842	13.861663	0.000287	2.865699	0.485462	0.000029
 875	8.6963e+01	8.6939	13.889363	0.000278	2.783821	0.471592	0.000028
 876	8.7063e+01	8.7038	13.918284	0.000291	2.906637	0.492398	0.000029
 877	8.7162e+01	8.7146	13.946391	0.000282	2.824760	0.478527	0.000028
 878	8.7261e+01	8.7215	13.975719	0.000295	2.947576	0.499333	0.000029
 879	8.7361e+01	8.7338	14.007899	0.000323	3.234146	0.547879	0.000032
 880	8.7460e+01	8.7440	14.030711	0.000229	2.292559	0.388370	0.000023
 881	8.7560e+01	8.7521	14.061669	0.000311	3.111330	0.527074	0.000031
 882	8.7659e+01	8.7635	14.082850	0.000213	2.128805	0.360629	0.000021
 883	8.7759e+01	8.7722	14.114623	0.000319	3.193207	0.540944	0.000032
 884	8.7859e+01	8.7814	14.141100	0.000266	2.661006	0.450787	0.000027
 885	8.7958e+01	8.7926	14.171651	0.000307	3.070391	0.520138	0.000031
 886	8.8058e+01	8.8015	14.197721	0.000262	2.620067	0.443851	0.000026
 887	8.8157e+01	8.8114	14.223384	0.000258	2.579129	0.436916	0.000026
 888	8.8257e+01	8.8232	14.249046	0.000258	2.579129	0.436916	0.000026
 889	8.8356e+01	8.8293	14.281226	0.000323	3.234146	0.547879	0.000032
 890	8.8456e+01	8.8428	14.304037	0.000229	2.292559	0.388370	0.000023
 891	8.8555e+01	8.8557	14.332959	0.000291	2.906637	0.492398	0.000029
 892	8.8654e+01	8.8635	14.357807	0.000250	2.497252	0.423046	0.000025
 893	8.8754e+01	8.8702	14.388765	0.000311	3.111330	0.527074	0.000031
 894	8.8853e+01	8.8828	14.410761	0.000221	2.210682	0.374500	0.000022
 895	8.8953e+01	8.8935	14.436831	0.000262	2.620067	0.443851	0.000026
 896	8.9052e+01	8.9030	14.467789	0.000311	3.111330	0.527074	0.000031
 897	8.9152e+01	8.9124	14.492230	0.000246	2.456313	0.416111	0.000025
 898	8.9251e+01	8.9216	14.518707	0.000266	2.661006	0.450787	0.000027
 899	8.9351e+01	8.9307	14.547628	0.000291	2.906637	0.492398	0.000029
 900	8.9451e+01	8.9386	14.569625	0.000221	2.210682	0.374500	0.000022
 901	8.9550e+01	8.9505	14.599361	0.000299	2.988514	0.506268	0.000030
 902	8.9650e+01	8.9613	14.625838	0.000266	2.661006	0.450787	0.000027
 903	8.9749e+01	8.9732	14.652315	0.000266	2.661006	0.450787	0.000027
 904	8.9849e+01	8.9795	14.677978	0.000258	2.579129	0.436916	0.000026
 905	8.9948e+01	8.9898	14.708121	0.000303	3.029453	0.513203	0.000030
 906	9.0047e+01	9.0015	14.731747	0.000237	2.374436	0.402240	0.000024
 907	9.0147e+01	9.0097	14.758632	0.000270	2.701944	0.457722	0.000027
 908	9.0246e+01	9.0195	14.787146	0.000287	2.865699	0.485462	0.000029
 909	9.0346e+01	9.0283	14.810772	0.000237	2.374436	0.402240	0.000024
 910	9.0445e+01	9.0421	14.840508	0.000299	2.988514	0.506268	0.000030
 911	9.0545e+01	9.0481	14.863319	0.000229	2.292559	0.388370	0.000023
 912	9.0644e+01	9.0598	14.893869	0.000307	3.070391	0.520138	0.000031
 913	9.0744e+01	9.0678	14.917088	0.000233	2.333497	0.395305	0.000023
 914	9.0844e+01	9.0824	14.946417	0.000295	2.947576	0.499333	0.000029
 915	9.0943e+01	9.0919	14.972894	0.000266	2.661006	0.450787	0.000027
 916	9.1043e+01	9.1000	14.996520	0.000237	2.374436	0.402240	0.000024
 917	9.1142e+01	9.1074	15.022997	0.000266	2.661006	0.450787	0.000027
 918	9.1242e+01	9.1174	15.052326	0.000295	2.947576	0.499333	0.000029
 919	9.1341e+01	9.1357	15.076766	0.000246	2.456313	0.416111	0.000025
 920	9.1441e+01	9.1396	15.106502	0.000299	2.988514	0.506268	0.000030
 921	9.1540e+01	9.1511	15.130535	0.000242	2.415375	0.409176	0.000024
 922	9.1639e+01	9.1602	15.156605	0.000262	2.620067	0.443851	0.000026
 923	9.1739e+01	9.1679	15.185119	0.000287	2.865699	0.485462	0.000029
 924	9.1838e+01	9.1805	15.212819	0.000278	2.783821	0.471592	0.000028
 925	9.1938e+01	9.1907	15.238889	0.000262	2.620067	0.443851	0.000026
 926	9.2037e+01	9.1980	15.261292	0.000225	2.251620	0.381435	0.000023
 927	9.2137e+01	9.2090	15.289399	0.000282	2.824760	0.478527	0.000028
 928	9.2237e+01	9.2196	15.316691	0.000274	2.742883	0.464657	0.000027
 929	9.2336e+01	9.2310	15.340724	0.000242	2.415375	0.409176	0.000024
 930	9.2436e+01	9.2396	15.363128	0.000225	2.251620	0.381435	0.000023
 931	9.2535e+01	9.2493	15.388383	0.000254	2.538190	0.429981	0.000025
 932	9.2635e+01	9.2609	15.407528	0.000192	1.924112	0.325953	0.000019
 933	9.2734e+01	9.2690	15.437264	0.000299	2.988514	0.506268	0.000030
 934	9.2834e+01	9.2792	15.462112	0.000250	2.497252	0.423046	0.000025
 935	9.2933e+01	9.2896	15.484516	0.000225	2.251620	0.381435	0.000023
 936	9.3032e+01	9.2999	15.508142	0.000237	2.374436	0.402240	0.000024
 937	9.3132e+01	9.3108	15.533397	0.000254	2.538190	0.429981	0.000025
 938	9.3231e+01	9.3203	15.556616	0.000233	2.333497	0.395305	0.000023
 939	9.3331e+01	9.3297	15.583908	0.000274	2.742883	0.464657	0.000027
 940	9.3430e+01	9.3402	15.606312	0.000225	2.251620	0.381435	0.000023
 941	9.3530e+01	9.3481	15.627901	0.000217	2.169743	0.367564	0.000022
 942	9.3629e+01	9.3571	15.652749	0.000250	2.497252	0.423046	0.000025
 943	9.3729e+01	9.3678	15.680855	0.000282	2.824760	0.478527	0.000028
 944	9.3829e+01	9.3781	15.705296	0.000246	2.456313	0.416111	0.000025
 945	9.3928e+01	9.3878	15.733810	0.000287	2.865699	0.485462	0.000029
 946	9.4028e+01	9.3994	15.757436	0.000237	2.374436	0.402240	0.000024
 947	9.4127e+01	9.4096	15.781469	0.000242	2.415375	0.409176	0.000024
 948	9.4227e+01	9.4205	15.808353	0.000270	2.701944	0.457722	0.000027
 949	9.4326e+01	9.4302	15.833201	0.000250	2.497252	0.423046	0.000025
 950	9.4425e+01	9.4379	15.858864	0.000258	2.579129	0.436916	0.000026
 951	9.4525e+01	9.4505	15.891859	0.000332	3.316023	0.561749	0.000033
 952	9.4624e+01	9.4594	15.914670	0.000229	2.292559	0.388370	0.000023
 953	9.4724e+01	9.4678	15.943184	0.000287	2.865699	0.485462	0.000029
 954	9.4823e+01	9.4775	15.975771	0.000328	3.275084	0.554814	0.000033
 955	9.4923e+01	9.4866	16.003878	0.000282	2.824760	0.478527	0.000028
 956	9.5022e+01	9.4962	16.027504	0.000237	2.374436	0.402240	0.000024
 957	9.5122e+01	9.5089	16.057240	0.000299	2.988514	0.506268	0.000030
 958	9.5222e+01	9.5201	16.089420	0.000323	3.234146	0.547879	0.000032
 959	9.5321e+01	9.5277	16.117526	0.000282	2.824760	0.478527	0.000028
 960	9.5421e+01	9.5387	16.150928	0.000336	3.356961	0.568685	0.000034
 961	9.5520e+01	9.5486	16.178628	0.000278	2.783821	0.471592	0.000028
 962	9.5620e+01	9.5561	16.202254	0.000237	2.374436	0.402240	0.000024
 963	9.5719e+01	9.5691	16.235248	0.000332	3.316023	0.561749	0.000033
 964	9.5819e+01	9.5777	16.264170	0.000291	2.906637	0.492398	0.000029
 965	9.5918e+01	9.5892	16.290647	0.000266	2.661006	0.450787	0.000027
 966	9.6017e+01	9.5982	16.325678	0.000352	3.520715	0.596425	0.000035
 967	9.6117e+01	9.6094	16.351748	0.000262	2.620067	0.443851	0.000026
 968	9.6216e+01	9.6207	16.378226	0.000266	2.661006	0.450787	0.000027
 969	9.6316e+01	9.6284	16.410406	0.000323	3.234146	0.547879	0.000032
 970	9.6415e+01	9.6399	16.440549	0.000303	3.029453	0.513203	0.000030
 971	9.6515e+01	9.6473	16.468656	0.000282	2.824760	0.478527	0.000028
 972	9.6615e+01	9.6593	16.503280	0.000348	3.479777	0.589490	0.000035
 973	9.6714e+01	9.6649	16.531386	0.000282	2.824760	0.478527	0.000028
 974	9.6814e+01	9.6819	16.561122	0.000299	2.988514	0.506268	0.000030
 975	9.6913e+01	9.6875	16.592895	0.000319	3.193207	0.540944	0.000032
 976	9.7013e+01	9.6973	16.626297	0.000336	3.356961	0.568685	0.000034
 977	9.7112e+01	9.7083	16.655626	0.000295	2.947576	0.499333	0.000029
 978	9.7212e+01	9.7179	16.682918	0.000274	2.742883	0.464657	0.000027
 979	9.7311e+01	9.7261	16.717949	0.000352	3.520715	0.596425	0.000035
 980	9.7410e+01	9.7367	16.747278	0.000295	2.947576	0.499333	0.000029
 981	9.7510e+01	9.7436	16.776199	0.000291	2.906637	0.492398	0.000029
 982	9.7609e+01	9.7559	16.813267	0.000373	3.725408	0.631101	0.000037
 983	9.7709e+01	9.7700	16.841781	0.000287	2.865699	0.485462	0.000029
 984	9.7808e+01	9.7768	16.874369	0.000328	3.275084	0.554814	0.000033
 985	9.7908e+01	9.7860	16.902883	0.000287	2.865699	0.485462	0.000029
 986	9.8007e+01	9.7942	16.933026	0.000303	3.029453	0.513203	0.000030
 987	9.8107e+01	9.8077	16.965206	0.000323	3.234146	0.547879	0.000032
 988	9.8207e+01	9.8158	16.997386	0.000323	3.234146	0.547879	0.000032
 989	9.8306e+01	9.8270	17.027530	0.000303	3.029453	0.513203	0.000030
 990	9.8406e+01	9.8374	17.060524	0.000332	3.316023	0.561749	0.000033
 991	9.8505e+01	9.8481	17.091890	0.000315	3.152268	0.534009	0.000032
 992	9.8605e+01	9.8563	17.124885	0.000332	3.316023	0.561749	0.000033
 993	9.8704e+01	9.8649	17.158694	0.000340	3.397900	0.575620	0.000034
 994	9.8803e+01	9.8779	17.187615	0.000291	2.906637	0.492398	0.000029
 995	9.8903e+01	9.8861	17.221425	0.000340	3.397900	0.575620	0.000034
 996	9.9002e+01	9.8968	17.254419	0.000332	3.316023	0.561749	0.000033
 997	9.9102e+01	9.9027	17.286192	0.000319	3.193207	0.540944	0.000032
 998	9.9201e+01	9.9163	17.311855	0.000258	2.579129	0.436916	0.000026
 999	9.9301e+01	9.9268	17.347701	0.000360	3.602592	0.610296	0.000036
1000	9.9400e+01	9.9393	17.378659	0.000311	3.111330	0.527074	0.000031
1001	9.9500e+01	9.9468	17.409210	0.000307	3.070391	0.520138	0.000031
1002	9.9600e+01	9.9573	17.443019	0.000340	3.397900	0.575620	0.000034
1003	9.9699e+01	9.9671	17.473162	0.000303	3.029453	0.513203	0.000030
1004	9.9799e+01	9.9757	17.503306	0.000303	3.029453	0.513203	0.000030
1005	9.9898e+01	9.9857	17.535486	0.000323	3.234146	0.547879	0.000032
1006	9.9998e+01	9.9957	17.569295	0.000340	3.397900	0.575620	0.000034
1007	1.0010e+02	9.9873	17.556260	0.000131	1.310034	0.221926	-0.000013
1008	1.0020e+02	9.9763	17.546484	0.000098	0.982525	0.166444	-0.000010
1009	1.0030e+02	9.9683	17.530598	0.000160	1.596603	0.270472	-0.000016
1010	1.0040e+02	9.9545	17.521636	0.000090	0.900648	0.152574	-0.000009
1011	1.0050e+02	9.9435	17.509009	0.000127	1.269095	0.214991	-0.000013
1012	1.0059e+02	9.9354	17.495974	0.000131	1.310034	0.221926	-0.000013
1013	1.0069e+02	9.9244	17.481717	0.000143	1.432849	0.242731	-0.000014
1014	1.0079e+02	9.9181	17.471126	0.000106	1.064402	0.180315	-0.000011
1015	1.0089e+02	9.9073	17.456461	0.000147	1.473788	0.249666	-0.000015
1016	1.0099e+02	9.8959	17.442204	0.000143	1.432849	0.242731	-0.000014
1017	1.0109e+02	9.8867	17.434465	0.000078	0.777832	0.131768	-0.000008
1018	1.0119e+02	9.8736	17.420615	0.000139	1.391911	0.235796	-0.000014
1019	1.0129e+02	9.8672	17.406358	0.000143	1.432849	0.242731	-0.000014
1020	1.0139e+02	9.8541	17.394138	0.000123	1.228157	0.208055	-0.000012
1021	1.0149e+02	9.8462	17.381510	0.000127	1.269095	0.214991	-0.000013
1022	1.0159e+02	9.8344	17.371327	0.000102	1.023464	0.173379	-0.000010
1023	1.0169e+02	9.8293	17.351774	0.000197	1.965050	0.332889	-0.000020
1024	1.0179e+02	9.8151	17.341183	0.000106	1.064402	0.180315	-0.000011
1025	1.0189e+02	9.8077	17.326112	0.000151	1.514726	0.256602	-0.000015
1026	1.0199e+02	9.7949	17.306559	0.000197	1.965050	0.332889	-0.000020
1027	1.0209e+02	9.7866	17.294339	0.000123	1.228157	0.208055	-0.000012
1028	1.0219e+02	9.7742	17.280489	0.000139	1.391911	0.235796	-0.000014
1029	1.0229e+02	9.7674	17.263788	0.000168	1.678481	0.284342	-0.000017
1030	1.0239e+02	9.7559	17.247495	0.000164	1.637542	0.277407	-0.000016
1031	1.0248e+02	9.7474	17.233238	0.000143	1.432849	0.242731	-0.000014
1032	1.0258e+02	9.7373	17.215722	0.000176	1.760358	0.298213	-0.000018
1033	1.0268e+02	9.7280	17.199428	0.000164	1.637542	0.277407	-0.000016
1034	1.0278e+02	9.7189	17.180690	0.000188	1.883173	0.319018	-0.000019
1035	1.0288e+02	9.7089	17.165619	0.000151	1.514726	0.256602	-0.000015
1036	1.0298e+02	9.6986	17.146066	0.000197	1.965050	0.332889	-0.000020
1037	1.0308e+02	9.6883	17.127329	0.000188	1.883173	0.319018	-0.000019
1038	1.0318e+02	9.6789	17.107776	0.000197	1.965050	0.332889	-0.000020
1039	1.0328e+02	9.6655	17.088224	0.000197	1.965050	0.332889	-0.000020
1040	1.0338e+02	9.6572	17.070708	0.000176	1.760358	0.298213	-0.000018
1041	1.0348e+02	9.6465	17.049934	0.000209	2.087866	0.353694	-0.000021
1042	1.0358e+02	9.6369	17.027122	0.000229	2.292559	0.388370	-0.000023
1043	1.0368e+02	9.6265	17.010829	0.000164	1.637542	0.277407	-0.000016
1044	1.0378e+02	9.6163	16.988832	0.000221	2.210682	0.374500	-0.000022
1045	1.0388e+02	9.6076	16.969280	0.000197	1.965050	0.332889	-0.000020
1046	1.0398e+02	9.5937	16.945654	0.000237	2.374436	0.402240	-0.000024
1047	1.0408e+02	9.5863	16.932212	0.000135	1.350972	0.228861	-0.000014
1048	1.0418e+02	9.5809	16.905734	0.000266	2.661006	0.450787	-0.000027
1049	1.0428e+02	9.5685	16.885367	0.000205	2.046928	0.346759	-0.000020
1050	1.0438e+02	9.5567	16.864593	0.000209	2.087866	0.353694	-0.000021
1051	1.0447e+02	9.5498	16.842596	0.000221	2.210682	0.374500	-0.000022
1052	1.0457e+02	9.5382	16.823044	0.000197	1.965050	0.332889	-0.000020
1053	1.0467e+02	9.5248	16.802269	0.000209	2.087866	0.353694	-0.000021
1054	1.0477e+02	9.5168	16.782717	0.000197	1.965050	0.332889	-0.000020
1055	1.0487e+02	9.5079	16.759906	0.000229	2.292559	0.388370	-0.000023
1056	1.0497e+02	9.4999	16.739946	0.000201	2.005989	0.339824	-0.000020
1057	1.0507e+02	9.4863	16.719171	0.000209	2.087866	0.353694	-0.000021
1058	1.0517e+02	9.4775	16.695953	0.000233	2.333497	0.395305	-0.000023
1059	1.0527e+02	9.4678	16.675586	0.000205	2.046928	0.346759	-0.000020
1060	1.0537e+02	9.4587	16.652775	0.000229	2.292559	0.388370	-0.000023
1061	1.0547e+02	9.4501	16.633629	0.000192	1.924112	0.325953	-0.000019
1062	1.0557e+02	9.4372	16.607152	0.000266	2.661006	0.450787	-0.000027
1063	1.0567e+02	9.4282	16.582304	0.000250	2.497252	0.423046	-0.000025
1064	1.0577e+02	9.4193	16.561122	0.000213	2.128805	0.360629	-0.000021
1065	1.0587e+02	9.4077	16.543607	0.000176	1.760358	0.298213	-0.000018
1066	1.0597e+02	9.4020	16.517129	0.000266	2.661006	0.450787	-0.000027
1067	1.0607e+02	9.3917	16.493504	0.000237	2.374436	0.402240	-0.000024
1068	1.0617e+02	9.3790	16.471914	0.000217	2.169743	0.367564	-0.000022
1069	1.0627e+02	9.3679	16.447881	0.000242	2.415375	0.409176	-0.000024
1070	1.0637e+02	9.3627	16.425477	0.000225	2.251620	0.381435	-0.000023
1071	1.0647e+02	9.3481	16.405518	0.000201	2.005989	0.339824	-0.000020
1072	1.0656e+02	9.3378	16.377411	0.000282	2.824760	0.478527	-0.000028
1073	1.0666e+02	9.3311	16.353785	0.000237	2.374436	0.402240	-0.000024
1074	1.0676e+02	9.3213	16.330567	0.000233	2.333497	0.395305	-0.000023
1075	1.0686e+02	9.3093	16.307348	0.000233	2.333497	0.395305	-0.000023
1076	1.0696e+02	9.3002	16.282093	0.000254	2.538190	0.429981	-0.000025
1077	1.0706e+02	9.2920	16.260504	0.000217	2.169743	0.367564	-0.000022
1078	1.0716e+02	9.2792	16.236470	0.000242	2.415375	0.409176	-0.000024
1079	1.0726e+02	9.2693	16.211623	0.000250	2.497252	0.423046	-0.000025
1080	1.0736e+02	9.2585	16.185960	0.000258	2.579129	0.436916	-0.000026
1081	1.0746e+02	9.2496	16.164371	0.000217	2.169743	0.367564	-0.000022
1082	1.0756e+02	9.2402	16.143189	0.000213	2.128805	0.360629	-0.000021
1083	1.0766e+02	9.2294	16.120378	0.000229	2.292559	0.388370	-0.000023
1084	1.0776e+02	9.2191	16.093901	0.000266	2.661006	0.450787	-0.000027
1085	1.0786e+02	9.2109	16.070275	0.000237	2.374436	0.402240	-0.000024
1086	1.0796e+02	9.1993	16.046241	0.000242	2.415375	0.409176	-0.000024
1087	1.0806e+02	9.1907	16.020172	0.000262	2.620067	0.443851	-0.000026
1088	1.0816e+02	9.1800	15.998175	0.000221	2.210682	0.374500	-0.000022
1089	1.0826e+02	9.1724	15.974549	0.000237	2.374436	0.402240	-0.000024
1090	1.0836e+02	9.1593	15.948072	0.000266	2.661006	0.450787	-0.000027
1091	1.0845e+02	9.1504	15.921595	0.000266	2.661006	0.450787	-0.000027
1092	1.0855e+02	9.1376	15.901228	0.000205	2.046928	0.346759	-0.000020
1093	1.0865e+02	9.1285	15.878009	0.000233	2.333497	0.395305	-0.000023
1094	1.0875e+02	9.1187	15.853161	0.000250	2.497252	0.423046	-0.000025
1095	1.0885e+02	9.1093	15.822610	0.000307	3.070391	0.520138	-0.000031
1096	1.0895e+02	9.1004	15.800207	0.000225	2.251620	0.381435	-0.000023
1097	1.0905e+02	9.0894	15.771285	0.000291	2.906637	0.492398	-0.000029
1098	1.0915e+02	9.0796	15.743993	0.000274	2.742883	0.464657	-0.000027
1099	1.0925e+02	9.0710	15.718738	0.000254	2.538190	0.429981	-0.000025
1100	1.0935e+02	9.0618	15.693890	0.000250	2.497252	0.423046	-0.000025
1101	1.0945e+02	9.0522	15.665376	0.000287	2.865699	0.485462	-0.000029
1102	1.0955e+02	9.0418	15.635233	0.000303	3.029453	0.513203	-0.000030
1103	1.0965e+02	9.0321	15.609570	0.000258	2.579129	0.436916	-0.000026
1104	1.0975e+02	9.0210	15.579834	0.000299	2.988514	0.506268	-0.000030
1105	1.0985e+02	9.0125	15.552542	0.000274	2.742883	0.464657	-0.000027
1106	1.0995e+02	8.9997	15.524436	0.000282	2.824760	0.478527	-0.000028
1107	1.1005e+02	8.9910	15.499180	0.000254	2.538190	0.429981	-0.000025
1108	1.1015e+02	8.9816	15.468630	0.000307	3.070391	0.520138	-0.000031
1109	1.1025e+02	8.9730	15.444189	0.000246	2.456313	0.416111	-0.000025
1110	1.1035e+02	8.9624	15.417712	0.000266	2.661006	0.450787	-0.000027
1111	1.1044e+02	8.9520	15.391235	0.000266	2.661006	0.450787	-0.000027
1112	1.1054e+02	8.9423	15.365165	0.000262	2.620067	0.443851	-0.000026
1113	1.1064e+02	8.9319	15.338280	0.000270	2.701944	0.457722	-0.000027
1114	1.1074e+02	8.9200	15.313840	0.000246	2.456313	0.416111	-0.000025
1115	1.1084e+02	8.9121	15.285326	0.000287	2.865699	0.485462	-0.000029
1116	1.1094e+02	8.9002	15.258848	0.000266	2.661006	0.450787	-0.000027
1117	1.1104e+02	8.8920	15.234000	0.000250	2.497252	0.423046	-0.000025
1118	1.1114e+02	8.8827	15.211189	0.000229	2.292559	0.388370	-0.000023
1119	1.1124e+02	8.8708	15.186341	0.000250	2.497252	0.423046	-0.000025
1120	1.1134e+02	8.8624	15.159864	0.000266	2.661006	0.450787	-0.000027
1121	1.1144e+02	8.8497	15.136646	0.000233	2.333497	0.395305	-0.000023
1122	1.1154e+02	8.8422	15.113834	0.000229	2.292559	0.388370	-0.000023
1123	1.1164e+02	8.8303	15.090208	0.000237	2.374436	0.402240	-0.000024
1124	1.1174e+02	8.8238	15.066990	0.000233	2.333497	0.395305	-0.000023
1125	1.1184e+02	8.8108	15.042957	0.000242	2.415375	0.409176	-0.000024
1126	1.1194e+02	8.8018	15.017294	0.000258	2.579129	0.436916	-0.000026
1127	1.1204e+02	8.7916	14.997742	0.000197	1.965050	0.332889	-0.000020
1128	1.1214e+02	8.7843	14.972894	0.000250	2.497252	0.423046	-0.000025
1129	1.1224e+02	8.7721	14.951712	0.000213	2.128805	0.360629	-0.000021
1130	1.1234e+02	8.7641	14.927679	0.000242	2.415375	0.409176	-0.000024
1131	1.1244e+02	8.7514	14.903646	0.000242	2.415375	0.409176	-0.000024
1132	1.1253e+02	8.7408	14.879205	0.000246	2.456313	0.416111	-0.000025
1133	1.1263e+02	8.7336	14.856801	0.000225	2.251620	0.381435	-0.000023
1134	1.1273e+02	8.7207	14.832361	0.000246	2.456313	0.416111	-0.000025
1135	1.1283e+02	8.7137	14.809142	0.000233	2.333497	0.395305	-0.000023
1136	1.1293e+02	8.7031	14.781443	0.000278	2.783821	0.471592	-0.000028
1137	1.1303e+02	8.6906	14.760261	0.000213	2.128805	0.360629	-0.000021
1138	1.1313e+02	8.6811	14.736635	0.000237	2.374436	0.402240	-0.000024
1139	1.1323e+02	8.6734	14.715861	0.000209	2.087866	0.353694	-0.000021
1140	1.1333e+02	8.6652	14.692642	0.000233	2.333497	0.395305	-0.000023
1141	1.1343e+02	8.6525	14.667387	0.000254	2.538190	0.429981	-0.000025
1142	1.1353e+02	8.6437	14.645798	0.000217	2.169743	0.367564	-0.000022
1143	1.1363e+02	8.6346	14.623394	0.000225	2.251620	0.381435	-0.000023
1144	1.1373e+02	8.6242	14.597731	0.000258	2.579129	0.436916	-0.000026
1145	1.1383e+02	8.6127	14.571254	0.000266	2.661006	0.450787	-0.000027
1146	1.1393e+02	8.6044	14.547628	0.000237	2.374436	0.402240	-0.000024
1147	1.1403e+02	8.5924	14.530927	0.000168	1.678481	0.284342	-0.000017
1148	1.1413e+02	8.5832	14.507301	0.000237	2.374436	0.402240	-0.000024
1149	1.1423e+02	8.5738	14.487342	0.000201	2.005989	0.339824	-0.000020
1150	1.1433e+02	8.5659	14.462494	0.000250	2.497252	0.423046	-0.000025
1151	1.1442e+02	8.5508	14.439275	0.000233	2.333497	0.395305	-0.000023
1152	1.1452e+02	8.5465	14.414835	0.000246	2.456313	0.416111	-0.000025
1153	1.1462e+02	8.5352	14.393245	0.000217	2.169743	0.367564	-0.000022
1154	1.1472e+02	8.5262	14.372064	0.000213	2.128805	0.360629	-0.000021
1155	1.1482e+02	8.5122	14.352511	0.000197	1.965050	0.332889	-0.000020
1156	1.1492e+02	8.5020	14.327663	0.000250	2.497252	0.423046	-0.000025
1157	1.1502e+02	8.4949	14.302815	0.000250	2.497252	0.423046	-0.000025
1158	1.1512e+02	8.4847	14.281634	0.000213	2.128805	0.360629	-0.000021
1159	1.1522e+02	8.4735	14.256786	0.000250	2.497252	0.423046	-0.000025
1160	1.1532e+02	8.4660	14.234789	0.000221	2.210682	0.374500	-0.000022
1161	1.1542e+02	8.4543	14.214015	0.000209	2.087866	0.353694	-0.000021
1162	1.1552e+02	8.4437	14.191203	0.000229	2.292559	0.388370	-0.000023
1163	1.1562e+02	8.4348	14.167170	0.000242	2.415375	0.409176	-0.000024
1164	1.1572e+02	8.4263	14.144766	0.000225	2.251620	0.381435	-0.000023
1165	1.1582e+02	8.4155	14.122770	0.000221	2.210682	0.374500	-0.000022
1166	1.1592e+02	8.4027	14.099551	0.000233	2.333497	0.395305	-0.000023
1167	1.1602e+02	8.3947	14.076740	0.000229	2.292559	0.388370	-0.000023
1168	1.1612e+02	8.3841	14.052707	0.000242	2.415375	0.409176	-0.000024
1169	1.1622e+02	8.3731	14.029896	0.000229	2.292559	0.388370	-0.000023
1170	1.1632e+02	8.3649	14.005863	0.000242	2.415375	0.409176	-0.000024
1171	1.1642e+02	8.3553	13.982644	0.000233	2.333497	0.395305	-0.000023
1172	1.1651e+02	8.3434	13.964721	0.000180	1.801296	0.305148	-0.000018
1173	1.1661e+02	8.3343	13.934985	0.000299	2.988514	0.506268	-0.000030
1174	1.1671e+02	8.3252	13.914618	0.000205	2.046928	0.346759	-0.000020
1175	1.1681e+02	8.3163	13.892621	0.000221	2.210682	0.374500	-0.000022
1176	1.1691e+02	8.3088	13.870218	0.000225	2.251620	0.381435	-0.000023
1177	1.1701e+02	8.2959	13.845777	0.000246	2.456313	0.416111	-0.000025
1178	1.1711e+02	8.2856	13.829891	0.000160	1.596603	0.270472	-0.000016
1179	1.1721e+02	8.2740	13.803821	0.000262	2.620067	0.443851	-0.000026
1180	1.1731e+02	8.2632	13.786305	0.000176	1.760358	0.298213	-0.000018
1181	1.1741e+02	8.2543	13.763086	0.000233	2.333497	0.395305	-0.000023
1182	1.1751e+02	8.2459	13.743941	0.000192	1.924112	0.325953	-0.000019
1183	1.1761e+02	8.2355	13.722760	0.000213	2.128805	0.360629	-0.000021
1184	1.1771e+02	8.2262	13.700763	0.000221	2.210682	0.374500	-0.000022
1185	1.1781e+02	8.2185	13.680803	0.000201	2.005989	0.339824	-0.000020
1186	1.1791e+02	8.2043	13.657177	0.000237	2.374436	0.402240	-0.000024
1187	1.1801e+02	8.1954	13.640069	0.000172	1.719419	0.291277	-0.000017
1188	1.1811e+02	8.1862	13.621331	0.000188	1.883173	0.319018	-0.000019
1189	1.1821e+02	8.1755	13.601779	0.000197	1.965050	0.332889	-0.000020
1190	1.1831e+02	8.1676	13.578560	0.000233	2.333497	0.395305	-0.000023
1191	1.1841e+02	8.1544	13.559415	0.000192	1.924112	0.325953	-0.000019
1192	1.1850e+02	8.1453	13.536197	0.000233	2.333497	0.395305	-0.000023
1193	1.1860e+02	8.1351	13.516237	0.000201	2.005989	0.339824	-0.000020
1194	1.1870e+02	8.1243	13.495462	0.000209	2.087866	0.353694	-0.000021
1195	1.1880e+02	8.1160	13.472651	0.000229	2.292559	0.388370	-0.000023
1196	1.1890e+02	8.1086	13.453913	0.000188	1.883173	0.319018	-0.000019
1197	1.1900e+02	8.1013	13.430695	0.000233	2.333497	0.395305	-0.000023
1198	1.1910e+02	8.0863	13.407069	0.000237	2.374436	0.402240	-0.000024
1199	1.1920e+02	8.0752	13.383851	0.000233	2.333497	0.395305	-0.000023
1200	1.1930e+02	8.0646	13.358595	0.000254	2.538190	0.429981	-0.000025
1201	1.1940e+02	8.0579	13.337413	0.000213	2.128805	0.360629	-0.000021
1202	1.1950e+02	8.0452	13.311751	0.000258	2.579129	0.436916	-0.000026
1203	1.1960e+02	8.0354	13.288940	0.000229	2.292559	0.388370	-0.000023
1204	1.1970e+02	8.0264	13.264907	0.000242	2.415375	0.409176	-0.000024
1205	1.1980e+02	8.0155	13.242910	0.000221	2.210682	0.374500	-0.000022
1206	1.1990e+02	8.0059	13.213581	0.000295	2.947576	0.499333	-0.000029
1207	1.2000e+02	7.9971	13.189141	0.000246	2.456313	0.416111	-0.000025
1208	1.2010e+02	7.9854	13.164700	0.000246	2.456313	0.416111	-0.000025
1209	1.2020e+02	7.9762	13.138223	0.000266	2.661006	0.450787	-0.000027
1210	1.2030e+02	7.9644	13.114190	0.000242	2.415375	0.409176	-0.000024
1211	1.2039e+02	7.9556	13.091379	0.000229	2.292559	0.388370	-0.000023
1212	1.2049e+02	7.9478	13.064901	0.000266	2.661006	0.450787	-0.000027
1213	1.2059e+02	7.9350	13.038424	0.000266	2.661006	0.450787	-0.000027
1214	1.2069e+02	7.9264	13.011539	0.000270	2.701944	0.457722	-0.000027
1215	1.2079e+02	7.9166	12.983433	0.000282	2.824760	0.478527	-0.000028
1216	1.2089e+02	7.9086	12.961029	0.000225	2.251620	0.381435	-0.000023
1217	1.2099e+02	7.8955	12.932922	0.000282	2.824760	0.478527	-0.000028
1218	1.2109e+02	7.8873	12.908074	0.000250	2.497252	0.423046	-0.000025
1219	1.2119e+02	7.8760	12.880375	0.000278	2.783821	0.471592	-0.000028
1220	1.2129e+02	7.8678	12.856342	0.000242	2.415375	0.409176	-0.000024
1221	1.2139e+02	7.8565	12.831087	0.000254	2.538190	0.429981	-0.000025
1222	1.2149e+02	7.8461	12.802573	0.000287	2.865699	0.485462	-0.000029
1223	1.2159e+02	7.8397	12.775281	0.000274	2.742883	0.464657	-0.000027
1224	1.2169e+02	7.8265	12.749618	0.000258	2.579129	0.436916	-0.000026
1225	1.2179e+02	7.8190	12.727622	0.000221	2.210682	0.374500	-0.000022
1226	1.2189e+02	7.8086	12.701144	0.000266	2.661006	0.450787	-0.000027
1227	1.2199e+02	7.8016	12.671408	0.000299	2.988514	0.506268	-0.000030
1228	1.2209e+02	7.7882	12.645338	0.000262	2.620067	0.443851	-0.000026
1229	1.2219e+02	7.7754	12.616010	0.000295	2.947576	0.499333	-0.000029
1230	1.2229e+02	7.7692	12.590347	0.000258	2.579129	0.436916	-0.000026
1231	1.2239e+02	7.7570	12.559797	0.000307	3.070391	0.520138	-0.000031
1232	1.2248e+02	7.7493	12.536578	0.000233	2.333497	0.395305	-0.000023
1233	1.2258e+02	7.7393	12.506842	0.000299	2.988514	0.506268	-0.000030
1234	1.2268e+02	7.7252	12.480772	0.000262	2.620067	0.443851	-0.000026
1235	1.2278e+02	7.7154	12.451443	0.000295	2.947576	0.499333	-0.000029
1236	1.2288e+02	7.7083	12.424151	0.000274	2.742883	0.464657	-0.000027
1237	1.2298e+02	7.6974	12.396452	0.000278	2.783821	0.471592	-0.000028
1238	1.2308e+02	7.6900	12.363865	0.000328	3.275084	0.554814	-0.000033
1239	1.2318e+02	7.6778	12.339832	0.000242	2.415375	0.409176	-0.000024
1240	1.2328e+02	7.6667	12.310503	0.000295	2.947576	0.499333	-0.000029
1241	1.2338e+02	7.6577	12.286062	0.000246	2.456313	0.416111	-0.000025
1242	1.2348e+02	7.6443	12.254697	0.000315	3.152268	0.534009	-0.000032
1243	1.2358e+02	7.6387	12.225368	0.000295	2.947576	0.499333	-0.000029
1244	1.2368e+02	7.6284	12.202150	0.000233	2.333497	0.395305	-0.000023
1245	1.2378e+02	7.6189	12.174043	0.000282	2.824760	0.478527	-0.000028
1246	1.2388e+02	7.6074	12.144715	0.000295	2.947576	0.499333	-0.000029
1247	1.2398e+02	7.5999	12.117423	0.000274	2.742883	0.464657	-0.000027
1248	1.2408e+02	7.5880	12.093389	0.000242	2.415375	0.409176	-0.000024
1249	1.2418e+02	7.5787	12.062839	0.000307	3.070391	0.520138	-0.000031
1250	1.2428e+02	7.5678	12.036361	0.000266	2.661006	0.450787	-0.000027
1251	1.2438e+02	7.5590	12.005811	0.000307	3.070391	0.520138	-0.000031
1252	1.2447e+02	7.5504	11.980555	0.000254	2.538190	0.429981	-0.000025
1253	1.2457e+02	7.5391	11.952856	0.000278	2.783821	0.471592	-0.000028
1254	1.2467e+02	7.5314	11.922713	0.000303	3.029453	0.513203	-0.000030
1255	1.2477e+02	7.5182	11.896236	0.000266	2.661006	0.450787	-0.000027
1256	1.2487e+02	7.5082	11.867722	0.000287	2.865699	0.485462	-0.000029
1257	1.2497e+02	7.5010	11.840022	0.000278	2.783821	0.471592	-0.000028
1258	1.2507e+02	7.4903	11.809472	0.000307	3.070391	0.520138	-0.000031
1259	1.2517e+02	7.4809	11.781772	0.000278	2.783821	0.471592	-0.000028
1260	1.2527e+02	7.4660	11.755702	0.000262	2.620067	0.443851	-0.000026
1261	1.2537e+02	7.4585	11.723115	0.000328	3.275084	0.554814	-0.000033
1262	1.2547e+02	7.4491	11.691342	0.000319	3.193207	0.540944	-0.000032
1263	1.2557e+02	7.4381	11.663236	0.000282	2.824760	0.478527	-0.000028
1264	1.2567e+02	7.4281	11.631463	0.000319	3.193207	0.540944	-0.000032
1265	1.2577e+02	7.4206	11.604578	0.000270	2.701944	0.457722	-0.000027
1266	1.2587e+02	7.4109	11.572398	0.000323	3.234146	0.547879	-0.000032
1267	1.2597e+02	7.4001	11.538996	0.000336	3.356961	0.568685	-0.000034
1268	1.2607e+02	7.3910	11.507223	0.000319	3.193207	0.540944	-0.000032
1269	1.2617e+02	7.3789	11.477895	0.000295	2.947576	0.499333	-0.000029
1270	1.2627e+02	7.3690	11.450603	0.000274	2.742883	0.464657	-0.000027
1271	1.2636e+02	7.3610	11.418830	0.000319	3.193207	0.540944	-0.000032
1272	1.2646e+02	7.3509	11.385428	0.000336	3.356961	0.568685	-0.000034
1273	1.2656e+02	7.3405	11.354063	0.000315	3.152268	0.534009	-0.000032
1274	1.2666e+02	7.3289	11.323512	0.000307	3.070391	0.520138	-0.000031
1275	1.2676e+02	7.3174	11.290110	0.000336	3.356961	0.568685	-0.000034
1276	1.2686e+02	7.3106	11.259966	0.000303	3.029453	0.513203	-0.000030
1277	1.2696e+02	7.2980	11.229416	0.000307	3.070391	0.520138	-0.000031
1278	1.2706e+02	7.2872	11.200494	0.000291	2.906637	0.492398	-0.000029
1279	1.2716e+02	7.2825	11.166685	0.000340	3.397900	0.575620	-0.000034
1280	1.2726e+02	7.2705	11.140615	0.000262	2.620067	0.443851	-0.000026
1281	1.2736e+02	7.2619	11.107620	0.000332	3.316023	0.561749	-0.000033
1282	1.2746e+02	7.2488	11.079106	0.000287	2.865699	0.485462	-0.000029
1283	1.2756e+02	7.2402	11.047741	0.000315	3.152268	0.534009	-0.000032
1284	1.2766e+02	7.2305	11.020449	0.000274	2.742883	0.464657	-0.000027
1285	1.2776e+02	7.2182	10.990713	0.000299	2.988514	0.506268	-0.000030
1286	1.2786e+02	7.2120	10.962199	0.000287	2.865699	0.485462	-0.000029
1287	1.2796e+02	7.2005	10.933278	0.000291	2.906637	0.492398	-0.000029
1288	1.2806e+02	7.1906	10.904764	0.000287	2.865699	0.485462	-0.000029
1289	1.2816e+02	7.1818	10.877064	0.000278	2.783821	0.471592	-0.000028
1290	1.2826e+02	7.1717	10.852624	0.000246	2.456313	0.416111	-0.000025
1291	1.2835e+02	7.1613	10.823295	0.000295	2.947576	0.499333	-0.000029
1292	1.2845e+02	7.1511	10.796411	0.000270	2.701944	0.457722	-0.000027
1293	1.2855e+02	7.1412	10.766675	0.000299	2.988514	0.506268	-0.000030
1294	1.2865e+02	7.1322	10.737346	0.000295	2.947576	0.499333	-0.000029
1295	1.2875e+02	7.1200	10.714127	0.000233	2.333497	0.395305	-0.000023
1296	1.2885e+02	7.1085	10.685613	0.000287	2.865699	0.485462	-0.000029
1297	1.2895e+02	7.1032	10.658322	0.000274	2.742883	0.464657	-0.000027
1298	1.2905e+02	7.0924	10.631844	0.000266	2.661006	0.450787	-0.000027
1299	1.2915e+02	7.0831	10.605367	0.000266	2.661006	0.450787	-0.000027
1300	1.2925e+02	7.0743	10.578890	0.000266	2.661006	0.450787	-0.000027
1301	1.2935e+02	7.0631	10.550376	0.000287	2.865699	0.485462	-0.000029
1302	1.2945e+02	7.0521	10.523491	0.000270	2.701944	0.457722	-0.000027
1303	1.2955e+02	7.0435	10.497829	0.000258	2.579129	0.436916	-0.000026
1304	1.2965e+02	7.0313	10.469722	0.000282	2.824760	0.478527	-0.000028
1305	1.2975e+02	7.0238	10.446911	0.000229	2.292559	0.388370	-0.000023
1306	1.2985e+02	7.0094	10.417989	0.000291	2.906637	0.492398	-0.000029
1307	1.2995e+02	7.0014	10.388661	0.000295	2.947576	0.499333	-0.000029
1308	1.3005e+02	6.9904	10.363813	0.000250	2.497252	0.423046	-0.000025
1309	1.3015e+02	6.9827	10.333670	0.000303	3.029453	0.513203	-0.000030
1310	1.3025e+02	6.9712	10.311673	0.000221	2.210682	0.374500	-0.000022
1311	1.3034e+02	6.9620	10.282752	0.000291	2.906637	0.492398	-0.000029
1312	1.3044e+02	6.9512	10.256682	0.000262	2.620067	0.443851	-0.000026
1313	1.3054e+02	6.9415	10.231834	0.000250	2.497252	0.423046	-0.000025
1314	1.3064e+02	6.9320	10.205764	0.000262	2.620067	0.443851	-0.000026
1315	1.3074e+02	6.9241	10.179287	0.000266	2.661006	0.450787	-0.000027
1316	1.3084e+02	6.9115	10.149958	0.000295	2.947576	0.499333	-0.000029
1317	1.3094e+02	6.9009	10.127554	0.000225	2.251620	0.381435	-0.000023
1318	1.3104e+02	6.8926	10.098633	0.000291	2.906637	0.492398	-0.000029
1319	1.3114e+02	6.8827	10.074600	0.000242	2.415375	0.409176	-0.000024
1320	1.3124e+02	6.8701	10.048530	0.000262	2.620067	0.443851	-0.000026
1321	1.3134e+02	6.8633	10.020016	0.000287	2.865699	0.485462	-0.000029
1322	1.3144e+02	6.8507	9.996390	0.000237	2.374436	0.402240	-0.000024
1323	1.3154e+02	6.8426	9.971949	0.000246	2.456313	0.416111	-0.000025
1324	1.3164e+02	6.8334	9.943028	0.000291	2.906637	0.492398	-0.000029
1325	1.3174e+02	6.8238	9.918180	0.000250	2.497252	0.423046	-0.000025
1326	1.3184e+02	6.8130	9.889666	0.000287	2.865699	0.485462	-0.000029
1327	1.3194e+02	6.8041	9.863596	0.000262	2.620067	0.443851	-0.000026
1328	1.3204e+02	6.7924	9.835897	0.000278	2.783821	0.471592	-0.000028
1329	1.3214e+02	6.7815	9.813493	0.000225	2.251620	0.381435	-0.000023
1330	1.3224e+02	6.7730	9.787016	0.000266	2.661006	0.450787	-0.000027
1331	1.3234e+02	6.7638	9.760946	0.000262	2.620067	0.443851	-0.000026
1332	1.3243e+02	6.7544	9.733247	0.000278	2.783821	0.471592	-0.000028
1333	1.3253e+02	6.7406	9.705955	0.000274	2.742883	0.464657	-0.000027
1334	1.3263e+02	6.7334	9.679477	0.000266	2.661006	0.450787	-0.000027
1335	1.3273e+02	6.7239	9.655852	0.000237	2.374436	0.402240	-0.000024
1336	1.3283e+02	6.7149	9.630596	0.000254	2.538190	0.429981	-0.000025
1337	1.3293e+02	6.7043	9.604526	0.000262	2.620067	0.443851	-0.000026
1338	1.3303e+02	6.6935	9.575605	0.000291	2.906637	0.492398	-0.000029
1339	1.3313e+02	6.6846	9.547091	0.000287	2.865699	0.485462	-0.000029
1340	1.3323e+02	6.6738	9.521428	0.000258	2.579129	0.436916	-0.000026
1341	1.3333e+02	6.6634	9.497395	0.000242	2.415375	0.409176	-0.000024
1342	1.3343e+02	6.6505	9.468067	0.000295	2.947576	0.499333	-0.000029
1343	1.3353e+02	6.6436	9.441182	0.000270	2.701944	0.457722	-0.000027
1344	1.3363e+02	6.6325	9.415519	0.000258	2.579129	0.436916	-0.000026
1345	1.3373e+02	6.6254	9.393116	0.000225	2.251620	0.381435	-0.000023
1346	1.3383e+02	6.6131	9.367046	0.000262	2.620067	0.443851	-0.000026
1347	1.3393e+02	6.6045	9.343827	0.000233	2.333497	0.395305	-0.000023
1348	1.3403e+02	6.5910	9.315720	0.000282	2.824760	0.478527	-0.000028
1349	1.3413e+02	6.5842	9.294946	0.000209	2.087866	0.353694	-0.000021
1350	1.3423e+02	6.5743	9.271727	0.000233	2.333497	0.395305	-0.000023
1351	1.3432e+02	6.5663	9.246472	0.000254	2.538190	0.429981	-0.000025
1352	1.3442e+02	6.5536	9.224883	0.000217	2.169743	0.367564	-0.000022
1353	1.3452e+02	6.5412	9.199221	0.000258	2.579129	0.436916	-0.000026
1354	1.3462e+02	6.5345	9.174373	0.000250	2.497252	0.423046	-0.000025
1355	1.3472e+02	6.5246	9.153598	0.000209	2.087866	0.353694	-0.000021
1356	1.3482e+02	6.5144	9.126714	0.000270	2.701944	0.457722	-0.000027
1357	1.3492e+02	6.5051	9.104717	0.000221	2.210682	0.374500	-0.000022
1358	1.3502e+02	6.4956	9.078647	0.000262	2.620067	0.443851	-0.000026
1359	1.3512e+02	6.4840	9.051763	0.000270	2.701944	0.457722	-0.000027
1360	1.3522e+02	6.4751	9.032210	0.000197	1.965050	0.332889	-0.000020
1361	1.3532e+02	6.4645	9.006140	0.000262	2.620067	0.443851	-0.000026
1362	1.3542e+02	6.4538	8.979663	0.000266	2.661006	0.450787	-0.000027
1363	1.3552e+02	6.4434	8.955222	0.000246	2.456313	0.416111	-0.000025
1364	1.3562e+02	6.4346	8.932411	0.000229	2.292559	0.388370	-0.000023
1365	1.3572e+02	6.4244	8.905934	0.000266	2.661006	0.450787	-0.000027
1366	1.3582e+02	6.4134	8.881493	0.000246	2.456313	0.416111	-0.000025
1367	1.3592e+02	6.4020	8.852165	0.000295	2.947576	0.499333	-0.000029
1368	1.3602e+02	6.3935	8.830576	0.000217	2.169743	0.367564	-0.000022
1369	1.3612e+02	6.3845	8.797988	0.000328	3.275084	0.554814	-0.000033
1370	1.3622e+02	6.3767	8.771511	0.000266	2.661006	0.450787	-0.000027
1371	1.3631e+02	6.3656	8.745034	0.000266	2.661006	0.450787	-0.000027
1372	1.3641e+02	6.3558	8.716927	0.000282	2.824760	0.478527	-0.000028
1373	1.3651e+02	6.3436	8.687598	0.000295	2.947576	0.499333	-0.000029
1374	1.3661e+02	6.3365	8.659899	0.000278	2.783821	0.471592	-0.000028
1375	1.3671e+02	6.3265	8.632200	0.000278	2.783821	0.471592	-0.000028
1376	1.3681e+02	6.3154	8.604500	0.000278	2.783821	0.471592	-0.000028
1377	1.3691e+02	6.3049	8.574764	0.000299	2.988514	0.506268	-0.000030
1378	1.3701e+02	6.2966	8.549102	0.000258	2.579129	0.436916	-0.000026
1379	1.3711e+02	6.2829	8.516922	0.000323	3.234146	0.547879	-0.000032
1380	1.3721e+02	6.2756	8.487593	0.000295	2.947576	0.499333	-0.000029
1381	1.3731e+02	6.2632	8.458264	0.000295	2.947576	0.499333	-0.000029
1382	1.3741e+02	6.2539	8.428936	0.000295	2.947576	0.499333	-0.000029
1383	1.3751e+02	6.2420	8.402051	0.000270	2.701944	0.457722	-0.000027
1384	1.3761e+02	6.2356	8.372315	0.000299	2.988514	0.506268	-0.000030
1385	1.3771e+02	6.2307	8.345838	0.000266	2.661006	0.450787	-0.000027
1386	1.3781e+02	6.2157	8.313250	0.000328	3.275084	0.554814	-0.000033
1387	1.3791e+02	6.2057	8.282700	0.000307	3.070391	0.520138	-0.000031
1388	1.3801e+02	6.1948	8.256630	0.000262	2.620067	0.443851	-0.000026
1389	1.3811e+02	6.1866	8.227301	0.000295	2.947576	0.499333	-0.000029
1390	1.3821e+02	6.1777	8.194714	0.000328	3.275084	0.554814	-0.000033
1391	1.3831e+02	6.1697	8.165385	0.000295	2.947576	0.499333	-0.000029
1392	1.3840e+02	6.1581	8.130761	0.000348	3.479777	0.589490	-0.000035
1393	1.3850e+02	6.1475	8.103469	0.000274	2.742883	0.464657	-0.000027
1394	1.3860e+02	6.1370	8.073733	0.000299	2.988514	0.506268	-0.000030
1395	1.3870e+02	6.1264	8.047256	0.000266	2.661006	0.450787	-0.000027
1396	1.3880e+02	6.1175	8.016705	0.000307	3.070391	0.520138	-0.000031
1397	1.3890e+02	6.1053	7.983303	0.000336	3.356961	0.568685	-0.000034
1398	1.3900e+02	6.0966	7.952752	0.000307	3.070391	0.520138	-0.000031
1399	1.3910e+02	6.0863	7.923016	0.000299	2.988514	0.506268	-0.000030
1400	1.3920e+02	6.0791	7.896539	0.000266	2.661006	0.450787	-0.000027
1401	1.3930e+02	6.0661	7.860693	0.000360	3.602592	0.610296	-0.000036
1402	1.3940e+02	6.0592	7.829328	0.000315	3.152268	0.534009	-0.000032
1403	1.3950e+02	6.0449	7.799592	0.000299	2.988514	0.506268	-0.000030
1404	1.3960e+02	6.0366	7.767004	0.000328	3.275084	0.554814	-0.000033
1405	1.3970e+02	6.0267	7.738083	0.000291	2.906637	0.492398	-0.000029
1406	1.3980e+02	6.0192	7.706310	0.000319	3.193207	0.540944	-0.000032
1407	1.3990e+02	6.0087	7.669649	0.000368	3.684470	0.624166	-0.000037
1408	1.4000e+02	5.9966	7.641135	0.000287	2.865699	0.485462	-0.000029
1409	1.4010e+02	5.9875	7.611807	0.000295	2.947576	0.499333	-0.000029
1410	1.4020e+02	5.9789	7.580034	0.000319	3.193207	0.540944	-0.000032
1411	1.4029e+02	5.9661	7.551113	0.000291	2.906637	0.492398	-0.000029
1412	1.4039e+02	5.9551	7.518932	0.000323	3.234146	0.547879	-0.000032
1413	1.4049e+02	5.9449	7.487567	0.000315	3.152268	0.534009	-0.000032
1414	1.4059e+02	5.9357	7.454165	0.000336	3.356961	0.568685	-0.000034
1415	1.4069e+02	5.9286	7.425651	0.000287	2.865699	0.485462	-0.000029
1416	1.4079e+02	5.9173	7.391434	0.000344	3.438838	0.582555	-0.000034
1417	1.4089e+02	5.9093	7.358032	0.000336	3.356961	0.568685	-0.000034
1418	1.4099e+02	5.8993	7.329518	0.000287	2.865699	0.485462	-0.000029
1419	1.4109e+02	5.8878	7.296523	0.000332	3.316023	0.561749	-0.000033
1420	1.4119e+02	5.8797	7.265973	0.000307	3.070391	0.520138	-0.000031
1421	1.4129e+02	5.8672	7.237459	0.000287	2.865699	0.485462	-0.000029
1422	1.4139e+02	5.8549	7.202020	0.000356	3.561654	0.603361	-0.000036
1423	1.4149e+02	5.8462	7.172284	0.000299	2.988514	0.506268	-0.000030
1424	1.4159e+02	5.8399	7.140104	0.000323	3.234146	0.547879	-0.000032
1425	1.4169e+02	5.8260	7.105887	0.000344	3.438838	0.582555	-0.000034
1426	1.4179e+02	5.8172	7.077781	0.000282	2.824760	0.478527	-0.000028
1427	1.4189e+02	5.8080	7.041527	0.000364	3.643531	0.617231	-0.000036
1428	1.4199e+02	5.7977	7.010569	0.000311	3.111330	0.527074	-0.000031
1429	1.4209e+02	5.7914	6.978796	0.000319	3.193207	0.540944	-0.000032
1430	1.4219e+02	5.7765	6.948653	0.000303	3.029453	0.513203	-0.000030
1431	1.4228e+02	5.7684	6.909548	0.000393	3.930101	0.665777	-0.000039
1432	1.4238e+02	5.7583	6.878183	0.000315	3.152268	0.534009	-0.000032
1433	1.4248e+02	5.7476	6.844373	0.000340	3.397900	0.575620	-0.000034
1434	1.4258e+02	5.7366	6.808934	0.000356	3.561654	0.603361	-0.000036
1435	1.4268e+02	5.7284	6.774718	0.000344	3.438838	0.582555	-0.000034
1436	1.4278e+02	5.7186	6.737242	0.000377	3.766347	0.638036	-0.000038
1437	1.4288e+02	5.7076	6.702618	0.000348	3.479777	0.589490	-0.000035
1438	1.4298e+02	5.7010	6.670031	0.000328	3.275084	0.554814	-0.000033
1439	1.4308e+02	5.6863	6.635814	0.000344	3.438838	0.582555	-0.000034
1440	1.4318e+02	5.6788	6.600782	0.000352	3.520715	0.596425	-0.000035
1441	1.4328e+02	5.6664	6.564529	0.000364	3.643531	0.617231	-0.000036
1442	1.4338e+02	5.6588	6.529905	0.000348	3.479777	0.589490	-0.000035
1443	1.4348e+02	5.6486	6.495688	0.000344	3.438838	0.582555	-0.000034
1444	1.4358e+02	5.6382	6.459842	0.000360	3.602592	0.610296	-0.000036
1445	1.4368e+02	5.6281	6.430106	0.000299	2.988514	0.506268	-0.000030
1446	1.4378e+02	5.6191	6.392223	0.000381	3.807285	0.644972	-0.000038
1447	1.4388e+02	5.6098	6.359636	0.000328	3.275084	0.554814	-0.000033
1448	1.4398e+02	5.5996	6.325826	0.000340	3.397900	0.575620	-0.000034
1449	1.4408e+02	5.5895	6.294461	0.000315	3.152268	0.534009	-0.000032
1450	1.4418e+02	5.5772	6.256985	0.000377	3.766347	0.638036	-0.000038
1451	1.4428e+02	5.5682	6.224398	0.000328	3.275084	0.554814	-0.000033
1452	1.4437e+02	5.5578	6.194662	0.000299	2.988514	0.506268	-0.000030
1453	1.4447e+02	5.5499	6.161667	0.000332	3.316023	0.561749	-0.000033
1454	1.4457e+02	5.5395	6.129080	0.000328	3.275084	0.554814	-0.000033
1455	1.4467e+02	5.5296	6.100566	0.000287	2.865699	0.485462	-0.000029
1456	1.4477e+02	5.5170	6.067571	0.000332	3.316023	0.561749	-0.000033
1457	1.4487e+02	5.5087	6.032947	0.000348	3.479777	0.589490	-0.000035
1458	1.4497e+02	5.4986	6.005655	0.000274	2.742883	0.464657	-0.000027
1459	1.4507e+02	5.4896	5.975104	0.000307	3.070391	0.520138	-0.000031
1460	1.4517e+02	5.4800	5.946590	0.000287	2.865699	0.485462	-0.000029
1461	1.4527e+02	5.4693	5.912781	0.000340	3.397900	0.575620	-0.000034
1462	1.4537e+02	5.4594	5.879379	0.000336	3.356961	0.568685	-0.000034
1463	1.4547e+02	5.4528	5.850457	0.000291	2.906637	0.492398	-0.000029
1464	1.4557e+02	5.4406	5.816648	0.000340	3.397900	0.575620	-0.000034
1465	1.4567e+02	5.4311	5.788949	0.000278	2.783821	0.471592	-0.000028
1466	1.4577e+02	5.4197	5.759620	0.000295	2.947576	0.499333	-0.000029
1467	1.4587e+02	5.4111	5.727847	0.000319	3.193207	0.540944	-0.000032
1468	1.4597e+02	5.4005	5.695667	0.000323	3.234146	0.547879	-0.000032
1469	1.4607e+02	5.3914	5.667968	0.000278	2.783821	0.471592	-0.000028
1470	1.4617e+02	5.3786	5.635788	0.000323	3.234146	0.547879	-0.000032
1471	1.4626e+02	5.3692	5.606867	0.000291	2.906637	0.492398	-0.000029
1472	1.4636e+02	5.3593	5.573057	0.000340	3.397900	0.575620	-0.000034
1473	1.4646e+02	5.3493	5.545765	0.000274	2.742883	0.464657	-0.000027
1474	1.4656e+02	5.3402	5.516844	0.000291	2.906637	0.492398	-0.000029
1475	1.4666e+02	5.3295	5.483849	0.000332	3.316023	0.561749	-0.000033
1476	1.4676e+02	5.3190	5.455742	0.000282	2.824760	0.478527	-0.000028
1477	1.4686e+02	5.3097	5.424377	0.000315	3.152268	0.534009	-0.000032
1478	1.4696e+02	5.3028	5.394641	0.000299	2.988514	0.506268	-0.000030
1479	1.4706e+02	5.2904	5.363276	0.000315	3.152268	0.534009	-0.000032
1480	1.4716e+02	5.2838	5.331910	0.000315	3.152268	0.534009	-0.000032
1481	1.4726e+02	5.2714	5.304211	0.000278	2.783821	0.471592	-0.000028
1482	1.4736e+02	5.2602	5.274882	0.000295	2.947576	0.499333	-0.000029
1483	1.4746e+02	5.2493	5.243517	0.000315	3.152268	0.534009	-0.000032
1484	1.4756e+02	5.2404	5.212152	0.000315	3.152268	0.534009	-0.000032
1485	1.4766e+02	5.2299	5.181194	0.000311	3.111330	0.527074	-0.000031
1486	1.4776e+02	5.2187	5.152680	0.000287	2.865699	0.485462	-0.000029
1487	1.4786e+02	5.2111	5.122944	0.000299	2.988514	0.506268	-0.000030
1488	1.4796e+02	5.2010	5.094837	0.000282	2.824760	0.478527	-0.000028
1489	1.4806e+02	5.1917	5.063064	0.000319	3.193207	0.540944	-0.000032
1490	1.4816e+02	5.1812	5.033736	0.000295	2.947576	0.499333	-0.000029
1491	1.4825e+02	5.1685	5.007258	0.000266	2.661006	0.450787	-0.000027
1492	1.4835e+02	5.1630	4.978337	0.000291	2.906637	0.492398	-0.000029
1493	1.4845e+02	5.1524	4.943713	0.000348	3.479777	0.589490	-0.000035
1494	1.4855e+02	5.1411	4.915606	0.000282	2.824760	0.478527	-0.000028
1495	1.4865e+02	5.1329	4.884648	0.000311	3.111330	0.527074	-0.000031
1496	1.4875e+02	5.1241	4.855320	0.000295	2.947576	0.499333	-0.000029
1497	1.4885e+02	5.1098	4.825991	0.000295	2.947576	0.499333	-0.000029
1498	1.4895e+02	5.1003	4.798699	0.000274	2.742883	0.464657	-0.000027
1499	1.4905e+02	5.0907	4.766519	0.000323	3.234146	0.547879	-0.000032
1500	1.4915e+02	5.0805	4.733931	0.000328	3.275084	0.554814	-0.000033
1501	1.4925e+02	5.0732	4.705417	0.000287	2.865699	0.485462	-0.000029
1502	1.4935e+02	5.0605	4.678126	0.000274	2.742883	0.464657	-0.000027
1503	1.4945e+02	5.0503	4.645538	0.000328	3.275084	0.554814	-0.000033
1504	1.4955e+02	5.0414	4.614173	0.000315	3.152268	0.534009	-0.000032
1505	1.4965e+02	5.0307	4.586473	0.000278	2.783821	0.471592	-0.000028
1506	1.4975e+02	5.0219	4.556330	0.000303	3.029453	0.513203	-0.000030
1507	1.4985e+02	5.0109	4.524150	0.000323	3.234146	0.547879	-0.000032
1508	1.4995e+02	5.0013	4.493599	0.000307	3.070391	0.520138	-0.000031
1509	1.5005e+02	4.9923	4.467122	0.000266	2.661006	0.450787	-0.000027
1510	1.5015e+02	4.9819	4.436164	0.000311	3.111330	0.527074	-0.000031
1511	1.5025e+02	4.9709	4.404799	0.000315	3.152268	0.534009	-0.000032
1512	1.5034e+02	4.9642	4.376285	0.000287	2.865699	0.485462	-0.000029
1513	1.5044e+02	4.9524	4.345734	0.000307	3.070391	0.520138	-0.000031
1514	1.5054e+02	4.9419	4.316405	0.000295	2.947576	0.499333	-0.000029
1515	1.5064e+02	4.9313	4.290335	0.000262	2.620067	0.443851	-0.000026
1516	1.5074e+02	4.9233	4.260599	0.000299	2.988514	0.506268	-0.000030
1517	1.5084e+02	4.9128	4.234937	0.000258	2.579129	0.436916	-0.000026
1518	1.5094e+02	4.9017	4.207238	0.000278	2.783821	0.471592	-0.000028
1519	1.5104e+02	4.8918	4.178724	0.000287	2.865699	0.485462	-0.000029
1520	1.5114e+02	4.8849	4.149395	0.000295	2.947576	0.499333	-0.000029
1521	1.5124e+02	4.8722	4.121288	0.000282	2.824760	0.478527	-0.000028
1522	1.5134e+02	4.8637	4.095626	0.000258	2.579129	0.436916	-0.000026
1523	1.5144e+02	4.8505	4.070778	0.000250	2.497252	0.423046	-0.000025
1524	1.5154e+02	4.8411	4.042264	0.000287	2.865699	0.485462	-0.000029
1525	1.5164e+02	4.8350	4.011713	0.000307	3.070391	0.520138	-0.000031
1526	1.5174e+02	4.8232	3.985643	0.000262	2.620067	0.443851	-0.000026
1527	1.5184e+02	4.8139	3.956315	0.000295	2.947576	0.499333	-0.000029
1528	1.5194e+02	4.8013	3.927801	0.000287	2.865699	0.485462	-0.000029
1529	1.5204e+02	4.7930	3.899287	0.000287	2.865699	0.485462	-0.000029
1530	1.5214e+02	4.7845	3.871587	0.000278	2.783821	0.471592	-0.000028
1531	1.5224e+02	4.7720	3.844703	0.000270	2.701944	0.457722	-0.000027
1532	1.5233e+02	4.7649	3.815781	0.000291	2.906637	0.492398	-0.000029
1533	1.5243e+02	4.7540	3.784823	0.000311	3.111330	0.527074	-0.000031
1534	1.5253e+02	4.7433	3.755087	0.000299	2.988514	0.506268	-0.000030
1535	1.5263e+02	4.7332	3.721685	0.000336	3.356961	0.568685	-0.000034
1536	1.5273e+02	4.7216	3.693579	0.000282	2.824760	0.478527	-0.000028
1537	1.5283e+02	4.7136	3.664250	0.000295	2.947576	0.499333	-0.000029
1538	1.5293e+02	4.7035	3.630440	0.000340	3.397900	0.575620	-0.000034
1539	1.5303e+02	4.6977	3.598260	0.000323	3.234146	0.547879	-0.000032
1540	1.5313e+02	4.6815	3.570561	0.000278	2.783821	0.471592	-0.000028
1541	1.5323e+02	4.6719	3.532271	0.000385	3.848224	0.651907	-0.000038
1542	1.5333e+02	4.6648	3.498869	0.000336	3.356961	0.568685	-0.000034
1543	1.5343e+02	4.6552	3.469133	0.000299	2.988514	0.506268	-0.000030
1544	1.5353e+02	4.6438	3.432472	0.000368	3.684470	0.624166	-0.000037
1545	1.5363e+02	4.6319	3.400699	0.000319	3.193207	0.540944	-0.000032
1546	1.5373e+02	4.6258	3.368519	0.000323	3.234146	0.547879	-0.000032
1547	1.5383e+02	4.6119	3.338783	0.000299	2.988514	0.506268	-0.000030
1548	1.5393e+02	4.6033	3.304974	0.000340	3.397900	0.575620	-0.000034
1549	1.5403e+02	4.5948	3.269128	0.000360	3.602592	0.610296	-0.000036
1550	1.5413e+02	4.5846	3.238170	0.000311	3.111330	0.527074	-0.000031
1551	1.5422e+02	4.5719	3.209248	0.000291	2.906637	0.492398	-0.000029
1552	1.5432e+02	4.5654	3.169736	0.000397	3.971039	0.672712	-0.000040
1553	1.5442e+02	4.5521	3.142444	0.000274	2.742883	0.464657	-0.000027
1554	1.5452e+02	4.5444	3.104969	0.000377	3.766347	0.638036	-0.000038
1555	1.5462e+02	4.5347	3.071974	0.000332	3.316023	0.561749	-0.000033
1556	1.5472e+02	4.5220	3.038572	0.000336	3.356961	0.568685	-0.000034
1557	1.5482e+02	4.5138	3.008836	0.000299	2.988514	0.506268	-0.000030
1558	1.5492e+02	4.5026	2.971360	0.000377	3.766347	0.638036	-0.000038
1559	1.5502e+02	4.4949	2.938365	0.000332	3.316023	0.561749	-0.000033
1560	1.5512e+02	4.4849	2.903334	0.000352	3.520715	0.596425	-0.000035
1561	1.5522e+02	4.4762	2.867081	0.000364	3.643531	0.617231	-0.000036
1562	1.5532e+02	4.4621	2.837752	0.000295	2.947576	0.499333	-0.000029
1563	1.5542e+02	4.4540	2.800276	0.000377	3.766347	0.638036	-0.000038
1564	1.5552e+02	4.4439	2.765245	0.000352	3.520715	0.596425	-0.000035
1565	1.5562e+02	4.4331	2.735102	0.000303	3.029453	0.513203	-0.000030
1566	1.5572e+02	4.4253	2.697626	0.000377	3.766347	0.638036	-0.000038
1567	1.5582e+02	4.4144	2.660558	0.000373	3.725408	0.631101	-0.000037
1568	1.5592e+02	4.4032	2.629192	0.000315	3.152268	0.534009	-0.000032
1569	1.5602e+02	4.3926	2.594568	0.000348	3.479777	0.589490	-0.000035
1570	1.5612e+02	4.3841	2.555056	0.000397	3.971039	0.672712	-0.000040
1571	1.5622e+02	4.3754	2.522469	0.000328	3.275084	0.554814	-0.000033
1572	1.5631e+02	4.3665	2.488252	0.000344	3.438838	0.582555	-0.000034
1573	1.5641e+02	4.3551	2.451998	0.000364	3.643531	0.617231	-0.000036
1574	1.5651e+02	4.3470	2.416560	0.000356	3.561654	0.603361	-0.000036
1575	1.5661e+02	4.3334	2.378677	0.000381	3.807285	0.644972	-0.000038
1576	1.5671e+02	4.3255	2.349348	0.000295	2.947576	0.499333	-0.000029
1577	1.5681e+02	4.3148	2.307799	0.000418	4.175732	0.707388	-0.000042
1578	1.5691e+02	4.3060	2.273175	0.000348	3.479777	0.589490	-0.000035
1579	1.5701e+02	4.2945	2.240180	0.000332	3.316023	0.561749	-0.000033
1580	1.5711e+02	4.2825	2.207186	0.000332	3.316023	0.561749	-0.000033
1581	1.5721e+02	4.2748	2.167673	0.000397	3.971039	0.672712	-0.000040
1582	1.5731e+02	4.2662	2.131013	0.000368	3.684470	0.624166	-0.000037
1583	1.5741e+02	4.2558	2.098425	0.000328	3.275084	0.554814	-0.000033
1584	1.5751e+02	4.2442	2.062579	0.000360	3.602592	0.610296	-0.000036
1585	1.5761e+02	4.2367	2.024696	0.000381	3.807285	0.644972	-0.000038
1586	1.5771e+02	4.2265	1.988850	0.000360	3.602592	0.610296	-0.000036
1587	1.5781e+02	4.2181	1.954226	0.000348	3.479777	0.589490	-0.000035
1588	1.5791e+02	4.2049	1.920824	0.000336	3.356961	0.568685	-0.000034
1589	1.5801e+02	4.1979	1.883756	0.000373	3.725408	0.631101	-0.000037
1590	1.5811e+02	4.1854	1.847095	0.000368	3.684470	0.624166	-0.000037
1591	1.5821e+02	4.1752	1.813285	0.000340	3.397900	0.575620	-0.000034
1592	1.5830e+02	4.1647	1.775403	0.000381	3.807285	0.644972	-0.000038
1593	1.5840e+02	4.1551	1.738742	0.000368	3.684470	0.624166	-0.000037
1594	1.5850e+02	4.1453	1.702896	0.000360	3.602592	0.610296	-0.000036
1595	1.5860e+02	4.1352	1.666642	0.000364	3.643531	0.617231	-0.000036
1596	1.5870e+02	4.1258	1.631203	0.000356	3.561654	0.603361	-0.000036
1597	1.5880e+02	4.1158	1.590876	0.000405	4.052917	0.686583	-0.000041
1598	1.5890e+02	4.1050	1.554623	0.000364	3.643531	0.617231	-0.000036
1599	1.5900e+02	4.0975	1.519591	0.000352	3.520715	0.596425	-0.000035
1600	1.5910e+02	4.0849	1.477635	0.000422	4.216671	0.714323	-0.000042
1601	1.5920e+02	4.0789	1.440974	0.000368	3.684470	0.624166	-0.000037
1602	1.5930e+02	4.0653	1.400647	0.000405	4.052917	0.686583	-0.000041
1603	1.5940e+02	4.0566	1.364801	0.000360	3.602592	0.610296	-0.000036
1604	1.5950e+02	4.0479	1.323660	0.000413	4.134794	0.700453	-0.000041
1605	1.5960e+02	4.0376	1.286184	0.000377	3.766347	0.638036	-0.000038
1606	1.5970e+02	4.0278	1.248301	0.000381	3.807285	0.644972	-0.000038
1607	1.5980e+02	4.0154	1.207974	0.000405	4.052917	0.686583	-0.000041
1608	1.5990e+02	4.0087	1.167647	0.000405	4.052917	0.686583	-0.000041
1609	1.6000e+02	3.9971	1.127728	0.000401	4.011978	0.679647	-0.000040
1610	1.6010e+02	3.9863	1.086586	0.000413	4.134794	0.700453	-0.000041
1611	1.6019e+02	3.9764	1.048703	0.000381	3.807285	0.644972	-0.000038
1612	1.6029e+02	3.9680	1.012857	0.000360	3.602592	0.610296	-0.000036
1613	1.6039e+02	3.9540	0.972530	0.000405	4.052917	0.686583	-0.000041
1614	1.6049e+02	3.9451	0.931389	0.000413	4.134794	0.700453	-0.000041
1615	1.6059e+02	3.9371	0.895950	0.000356	3.561654	0.603361	-0.000036
1616	1.6069e+02	3.9275	0.856845	0.000393	3.930101	0.665777	-0.000039
1617	1.6079e+02	3.9181	0.820999	0.000360	3.602592	0.610296	-0.000036
1618	1.6089e+02	3.9056	0.783523	0.000377	3.766347	0.638036	-0.000038
1619	1.6099e+02	3.8971	0.748492	0.000352	3.520715	0.596425	-0.000035
1620	1.6109e+02	3.8876	0.708165	0.000405	4.052917	0.686583	-0.000041
1621	1.6119e+02	3.8769	0.673541	0.000348	3.479777	0.589490	-0.000035
1622	1.6129e+02	3.8679	0.634843	0.000389	3.889162	0.658842	-0.000039
1623	1.6139e+02	3.8586	0.600627	0.000344	3.438838	0.582555	-0.000034
1624	1.6149e+02	3.8477	0.561522	0.000393	3.930101	0.665777	-0.000039
1625	1.6159e+02	3.8377	0.528527	0.000332	3.316023	0.561749	-0.000033
1626	1.6169e+02	3.8294	0.494718	0.000340	3.397900	0.575620	-0.000034
1627	1.6179e+02	3.8183	0.458057	0.000368	3.684470	0.624166	-0.000037
1628	1.6189e+02	3.8061	0.424655	0.000336	3.356961	0.568685	-0.000034
1629	1.6199e+02	3.7975	0.387586	0.000373	3.725408	0.631101	-0.000037
1630	1.6209e+02	3.7882	0.353777	0.000340	3.397900	0.575620	-0.000034
1631	1.6219e+02	3.7761	0.320375	0.000336	3.356961	0.568685	-0.000034
1632	1.6228e+02	3.7701	0.285343	0.000352	3.520715	0.596425	-0.000035
1633	1.6238e+02	3.7585	0.247461	0.000381	3.807285	0.644972	-0.000038
1634	1.6248e+02	3.7452	0.214466	0.000332	3.316023	0.561749	-0.000033
1635	1.6258e+02	3.7379	0.177805	0.000368	3.684470	0.624166	-0.000037
1636	1.6268e+02	3.7277	0.143996	0.000340	3.397900	0.575620	-0.000034
1637	1.6278e+02	3.7188	0.110594	0.000336	3.356961	0.568685	-0.000034
1638	1.6288e+02	3.7074	0.074340	0.000364	3.643531	0.617231	-0.000036
1639	1.6298e+02	3.7029	0.035642	0.000389	3.889162	0.658842	-0.000039
1640	1.6308e+02	3.6917	0.002240	0.000336	3.356961	0.568685	-0.000034
1641	1.6318e+02	3.6738	-0.031162	0.000336	3.356961	0.568685	-0.000034
1642	1.6328e+02	3.6691	-0.068637	0.000377	3.766347	0.638036	-0.000038
1643	1.6338e+02	3.6597	-0.102854	0.000344	3.438838	0.582555	-0.000034
1644	1.6348e+02	3.6490	-0.139107	0.000364	3.643531	0.617231	-0.000036
1645	1.6358e+02	3.6382	-0.172917	0.000340	3.397900	0.575620	-0.000034
1646	1.6368e+02	3.6288	-0.204690	0.000319	3.193207	0.540944	-0.000032
1647	1.6378e+02	3.6214	-0.242572	0.000381	3.807285	0.644972	-0.000038
1648	1.6388e+02	3.6089	-0.275975	0.000336	3.356961	0.568685	-0.000034
1649	1.6398e+02	3.6004	-0.307747	0.000319	3.193207	0.540944	-0.000032
1650	1.6408e+02	3.5876	-0.346445	0.000389	3.889162	0.658842	-0.000039
1651	1.6418e+02	3.5772	-0.378625	0.000323	3.234146	0.547879	-0.000032
1652	1.6427e+02	3.5679	-0.414064	0.000356	3.561654	0.603361	-0.000036
1653	1.6437e+02	3.5583	-0.446244	0.000323	3.234146	0.547879	-0.000032
1654	1.6447e+02	3.5474	-0.480868	0.000348	3.479777	0.589490	-0.000035
1655	1.6457e+02	3.5389	-0.517936	0.000373	3.725408	0.631101	-0.000037
1656	1.6467e+02	3.5235	-0.552153	0.000344	3.438838	0.582555	-0.000034
1657	1.6477e+02	3.5197	-0.584333	0.000323	3.234146	0.547879	-0.000032
1658	1.6487e+02	3.5085	-0.618550	0.000344	3.438838	0.582555	-0.000034
1659	1.6497e+02	3.4997	-0.654803	0.000364	3.643531	0.617231	-0.000036
1660	1.6507e+02	3.4893	-0.688613	0.000340	3.397900	0.575620	-0.000034
1661	1.6517e+02	3.4789	-0.724459	0.000360	3.602592	0.610296	-0.000036
1662	1.6527e+02	3.4696	-0.758268	0.000340	3.397900	0.575620	-0.000034
1663	1.6537e+02	3.4621	-0.792485	0.000344	3.438838	0.582555	-0.000034
1664	1.6547e+02	3.4483	-0.825072	0.000328	3.275084	0.554814	-0.000033
1665	1.6557e+02	3.4414	-0.862141	0.000373	3.725408	0.631101	-0.000037
1666	1.6567e+02	3.4290	-0.896765	0.000348	3.479777	0.589490	-0.000035
1667	1.6577e+02	3.4191	-0.927723	0.000311	3.111330	0.527074	-0.000031
1668	1.6587e+02	3.4081	-0.964791	0.000373	3.725408	0.631101	-0.000037
1669	1.6597e+02	3.3994	-1.001044	0.000364	3.643531	0.617231	-0.000036
1670	1.6607e+02	3.3897	-1.036483	0.000356	3.561654	0.603361	-0.000036
1671	1.6616e+02	3.3797	-1.070700	0.000344	3.438838	0.582555	-0.000034
1672	1.6626e+02	3.3715	-1.107361	0.000368	3.684470	0.624166	-0.000037
1673	1.6636e+02	3.3602	-1.141578	0.000344	3.438838	0.582555	-0.000034
1674	1.6646e+02	3.3510	-1.175387	0.000340	3.397900	0.575620	-0.000034
1675	1.6656e+02	3.3402	-1.209604	0.000344	3.438838	0.582555	-0.000034
1676	1.6666e+02	3.3315	-1.244228	0.000348	3.479777	0.589490	-0.000035
1677	1.6676e+02	3.3189	-1.276408	0.000323	3.234146	0.547879	-0.000032
1678	1.6686e+02	3.3128	-1.311847	0.000356	3.561654	0.603361	-0.000036
1679	1.6696e+02	3.3006	-1.346878	0.000352	3.520715	0.596425	-0.000035
1680	1.6706e+02	3.2890	-1.380280	0.000336	3.356961	0.568685	-0.000034
1681	1.6716e+02	3.2824	-1.412053	0.000319	3.193207	0.540944	-0.000032
1682	1.6726e+02	3.2698	-1.448306	0.000364	3.643531	0.617231	-0.000036
1683	1.6736e+02	3.2604	-1.480894	0.000328	3.275084	0.554814	-0.000033
1684	1.6746e+02	3.2497	-1.515518	0.000348	3.479777	0.589490	-0.000035
1685	1.6756e+02	3.2403	-1.546883	0.000315	3.152268	0.534009	-0.000032
1686	1.6766e+02	3.2293	-1.579471	0.000328	3.275084	0.554814	-0.000033
1687	1.6776e+02	3.2211	-1.612465	0.000332	3.316023	0.561749	-0.000033
1688	1.6786e+02	3.2101	-1.647904	0.000356	3.561654	0.603361	-0.000036
1689	1.6796e+02	3.2059	-1.679270	0.000315	3.152268	0.534009	-0.000032
1690	1.6806e+02	3.1931	-1.711042	0.000319	3.193207	0.540944	-0.000032
1691	1.6816e+02	3.1811	-1.740778	0.000299	2.988514	0.506268	-0.000030
1692	1.6825e+02	3.1709	-1.776625	0.000360	3.602592	0.610296	-0.000036
1693	1.6835e+02	3.1602	-1.806361	0.000299	2.988514	0.506268	-0.000030
1694	1.6845e+02	3.1509	-1.843021	0.000368	3.684470	0.624166	-0.000037
1695	1.6855e+02	3.1409	-1.874387	0.000315	3.152268	0.534009	-0.000032
1696	1.6865e+02	3.1313	-1.907381	0.000332	3.316023	0.561749	-0.000033
1697	1.6875e+02	3.1208	-1.940784	0.000336	3.356961	0.568685	-0.000034
1698	1.6885e+02	3.1104	-1.971334	0.000307	3.070391	0.520138	-0.000031
1699	1.6895e+02	3.1042	-2.005958	0.000348	3.479777	0.589490	-0.000035
1700	1.6905e+02	3.0910	-2.044249	0.000385	3.848224	0.651907	-0.000038
1701	1.6915e+02	3.0807	-2.079687	0.000356	3.561654	0.603361	-0.000036
1702	1.6925e+02	3.0705	-2.113497	0.000340	3.397900	0.575620	-0.000034
1703	1.6935e+02	3.0625	-2.148936	0.000356	3.561654	0.603361	-0.000036
1704	1.6945e+02	3.0486	-2.180301	0.000315	3.152268	0.534009	-0.000032
1705	1.6955e+02	3.0435	-2.221443	0.000413	4.134794	0.700453	-0.000041
1706	1.6965e+02	3.0298	-2.257289	0.000360	3.602592	0.610296	-0.000036
1707	1.6975e+02	3.0191	-2.297616	0.000405	4.052917	0.686583	-0.000041
1708	1.6985e+02	3.0114	-2.328166	0.000307	3.070391	0.520138	-0.000031
1709	1.6995e+02	3.0000	-2.370123	0.000422	4.216671	0.714323	-0.000042
1710	1.7005e+02	2.9928	-2.408820	0.000389	3.889162	0.658842	-0.000039
1711	1.7015e+02	2.9821	-2.446296	0.000377	3.766347	0.638036	-0.000038
1712	1.7024e+02	2.9719	-2.483771	0.000377	3.766347	0.638036	-0.000038
1713	1.7034e+02	2.9583	-2.517581	0.000340	3.397900	0.575620	-0.000034
1714	1.7044e+02	2.9521	-2.559537	0.000422	4.216671	0.714323	-0.000042
1715	1.7054e+02	2.9418	-2.595383	0.000360	3.602592	0.610296	-0.000036
1716	1.7064e+02	2.9318	-2.634895	0.000397	3.971039	0.672712	-0.000040
1717	1.7074e+02	2.9200	-2.671963	0.000373	3.725408	0.631101	-0.000037
1718	1.7084e+02	2.9127	-2.709032	0.000373	3.725408	0.631101	-0.000037
1719	1.7094e+02	2.9002	-2.748137	0.000393	3.930101	0.665777	-0.000039
1720	1.7104e+02	2.8918	-2.788871	0.000409	4.093855	0.693518	-0.000041
1721	1.7114e+02	2.8811	-2.826346	0.000377	3.766347	0.638036	-0.000038
1722	1.7124e+02	2.8725	-2.864636	0.000385	3.848224	0.651907	-0.000038
1723	1.7134e+02	2.8616	-2.901705	0.000373	3.725408	0.631101	-0.000037
1724	1.7144e+02	2.8493	-2.942439	0.000409	4.093855	0.693518	-0.000041
1725	1.7154e+02	2.8437	-2.981136	0.000389	3.889162	0.658842	-0.000039
1726	1.7164e+02	2.8321	-3.018612	0.000377	3.766347	0.638036	-0.000038
1727	1.7174e+02	2.8233	-3.056902	0.000385	3.848224	0.651907	-0.000038
1728	1.7184e+02	2.8111	-3.096822	0.000401	4.011978	0.679647	-0.000040
1729	1.7194e+02	2.8041	-3.136334	0.000397	3.971039	0.672712	-0.000040
1730	1.7204e+02	2.7926	-3.177068	0.000409	4.093855	0.693518	-0.000041
1731	1.7213e+02	2.7811	-3.213322	0.000364	3.643531	0.617231	-0.000036
1732	1.7223e+02	2.7729	-3.254871	0.000418	4.175732	0.707388	-0.000042
1733	1.7233e+02	2.7621	-3.293976	0.000393	3.930101	0.665777	-0.000039
1734	1.7243e+02	2.7525	-3.335932	0.000422	4.216671	0.714323	-0.000042
1735	1.7253e+02	2.7406	-3.378295	0.000426	4.257609	0.721259	-0.000043
1736	1.7263e+02	2.7325	-3.417808	0.000397	3.971039	0.672712	-0.000040
1737	1.7273e+02	2.7226	-3.459764	0.000422	4.216671	0.714323	-0.000042
1738	1.7283e+02	2.7107	-3.494388	0.000348	3.479777	0.589490	-0.000035
1739	1.7293e+02	2.7041	-3.538788	0.000446	4.462302	0.755934	-0.000045
1740	1.7303e+02	2.6910	-3.581152	0.000426	4.257609	0.721259	-0.000043
1741	1.7313e+02	2.6833	-3.620664	0.000397	3.971039	0.672712	-0.000040
1742	1.7323e+02	2.6705	-3.658954	0.000385	3.848224	0.651907	-0.000038
1743	1.7333e+02	2.6649	-3.701725	0.000430	4.298548	0.728194	-0.000043
1744	1.7343e+02	2.6542	-3.740830	0.000393	3.930101	0.665777	-0.000039
1745	1.7353e+02	2.6425	-3.783601	0.000430	4.298548	0.728194	-0.000043
1746	1.7363e+02	2.6340	-3.822706	0.000393	3.930101	0.665777	-0.000039
1747	1.7373e+02	2.6244	-3.861811	0.000393	3.930101	0.665777	-0.000039
1748	1.7383e+02	2.6117	-3.902138	0.000405	4.052917	0.686583	-0.000041
1749	1.7393e+02	2.6035	-3.945724	0.000438	4.380425	0.742064	-0.000044
1750	1.7403e+02	2.5939	-3.991753	0.000463	4.626056	0.783675	-0.000046
1751	1.7413e+02	2.5817	-4.028414	0.000368	3.684470	0.624166	-0.000037
1752	1.7422e+02	2.5735	-4.065075	0.000368	3.684470	0.624166	-0.000037
1753	1.7432e+02	2.5648	-4.107439	0.000426	4.257609	0.721259	-0.000043
1754	1.7442e+02	2.5540	-4.151024	0.000438	4.380425	0.742064	-0.000044
1755	1.7452e+02	2.5443	-4.193388	0.000426	4.257609	0.721259	-0.000043
1756	1.7462e+02	2.5313	-4.232085	0.000389	3.889162	0.658842	-0.000039
1757	1.7472e+02	2.5216	-4.274856	0.000430	4.298548	0.728194	-0.000043
1758	1.7482e+02	2.5139	-4.311925	0.000373	3.725408	0.631101	-0.000037
1759	1.7492e+02	2.5043	-4.353066	0.000413	4.134794	0.700453	-0.000041
1760	1.7502e+02	2.4953	-4.396652	0.000438	4.380425	0.742064	-0.000044
1761	1.7512e+02	2.4833	-4.435349	0.000389	3.889162	0.658842	-0.000039
1762	1.7522e+02	2.4738	-4.476898	0.000418	4.175732	0.707388	-0.000042
1763	1.7532e+02	2.4639	-4.522928	0.000463	4.626056	0.783675	-0.000046
1764	1.7542e+02	2.4538	-4.565292	0.000426	4.257609	0.721259	-0.000043
1765	1.7552e+02	2.4427	-4.606433	0.000413	4.134794	0.700453	-0.000041
1766	1.7562e+02	2.4342	-4.649612	0.000434	4.339486	0.735129	-0.000043
1767	1.7572e+02	2.4247	-4.694419	0.000450	4.503241	0.762870	-0.000045
1768	1.7582e+02	2.4188	-4.738820	0.000446	4.462302	0.755934	-0.000045
1769	1.7592e+02	2.4050	-4.785664	0.000471	4.707933	0.797546	-0.000047
1770	1.7602e+02	2.3930	-4.823954	0.000385	3.848224	0.651907	-0.000038
1771	1.7612e+02	2.3845	-4.869577	0.000459	4.585118	0.776740	-0.000046
1772	1.7621e+02	2.3759	-4.914384	0.000450	4.503241	0.762870	-0.000045
1773	1.7631e+02	2.3632	-4.959599	0.000454	4.544179	0.769805	-0.000045
1774	1.7641e+02	2.3536	-5.005629	0.000463	4.626056	0.783675	-0.000046
1775	1.7651e+02	2.3455	-5.049622	0.000442	4.421364	0.748999	-0.000044
1776	1.7661e+02	2.3341	-5.096059	0.000467	4.666995	0.790610	-0.000047
1777	1.7671e+02	2.3266	-5.140867	0.000450	4.503241	0.762870	-0.000045
1778	1.7681e+02	2.3148	-5.184045	0.000434	4.339486	0.735129	-0.000043
1779	1.7691e+02	2.3048	-5.226816	0.000430	4.298548	0.728194	-0.000043
1780	1.7701e+02	2.2957	-5.271216	0.000446	4.462302	0.755934	-0.000045
1781	1.7711e+02	2.2844	-5.313173	0.000422	4.216671	0.714323	-0.000042
1782	1.7721e+02	2.2741	-5.364498	0.000516	5.158257	0.873832	-0.000052
1783	1.7731e+02	2.2630	-5.408898	0.000446	4.462302	0.755934	-0.000045
1784	1.7741e+02	2.2562	-5.448410	0.000397	3.971039	0.672712	-0.000040
1785	1.7751e+02	2.2449	-5.494847	0.000467	4.666995	0.790610	-0.000047
1786	1.7761e+02	2.2359	-5.534360	0.000397	3.971039	0.672712	-0.000040
1787	1.7771e+02	2.2285	-5.577131	0.000430	4.298548	0.728194	-0.000043
1788	1.7781e+02	2.2178	-5.618272	0.000413	4.134794	0.700453	-0.000041
1789	1.7791e+02	2.2028	-5.658599	0.000405	4.052917	0.686583	-0.000041
1790	1.7801e+02	2.1945	-5.704629	0.000463	4.626056	0.783675	-0.000046
1791	1.7810e+02	2.1856	-5.742919	0.000385	3.848224	0.651907	-0.000038
1792	1.7820e+02	2.1757	-5.786097	0.000434	4.339486	0.735129	-0.000043
1793	1.7830e+02	2.1655	-5.826832	0.000409	4.093855	0.693518	-0.000041
1794	1.7840e+02	2.1557	-5.868380	0.000418	4.175732	0.707388	-0.000042
1795	1.7850e+02	2.1442	-5.909522	0.000413	4.134794	0.700453	-0.000041
1796	1.7860e+02	2.1351	-5.951886	0.000426	4.257609	0.721259	-0.000043
1797	1.7870e+02	2.1285	-5.990991	0.000393	3.930101	0.665777	-0.000039
1798	1.7880e+02	2.1139	-6.029688	0.000389	3.889162	0.658842	-0.000039
1799	1.7890e+02	2.1047	-6.071237	0.000418	4.175732	0.707388	-0.000042
1800	1.7900e+02	2.0982	-6.114415	0.000434	4.339486	0.735129	-0.000043
1801	1.7910e+02	2.0847	-6.154742	0.000405	4.052917	0.686583	-0.000041
1802	1.7920e+02	2.0757	-6.197513	0.000430	4.298548	0.728194	-0.000043
1803	1.7930e+02	2.0656	-6.236211	0.000389	3.889162	0.658842	-0.000039
1804	1.7940e+02	2.0550	-6.277352	0.000413	4.134794	0.700453	-0.000041
1805	1.7950e+02	2.0452	-6.317272	0.000401	4.011978	0.679647	-0.000040
1806	1.7960e+02	2.0361	-6.356377	0.000393	3.930101	0.665777	-0.000039
1807	1.7970e+02	2.0238	-6.397111	0.000409	4.093855	0.693518	-0.000041
1808	1.7980e+02	2.0167	-6.441104	0.000442	4.421364	0.748999	-0.000044
1809	1.7990e+02	2.0051	-6.481838	0.000409	4.093855	0.693518	-0.000041
1810	1.8000e+02	1.9962	-6.524202	0.000426	4.257609	0.721259	-0.000043
1811	1.8009e+02	1.9896	-6.564529	0.000405	4.052917	0.686583	-0.000041
1812	1.8019e+02	1.9780	-6.606078	0.000418	4.175732	0.707388	-0.000042
1813	1.8029e+02	1.9646	-6.645590	0.000397	3.971039	0.672712	-0.000040
1814	1.8039e+02	1.9559	-6.683473	0.000381	3.807285	0.644972	-0.000038
1815	1.8049e+02	1.9489	-6.727873	0.000446	4.462302	0.755934	-0.000045
1816	1.8059e+02	1.9350	-6.766978	0.000393	3.930101	0.665777	-0.000039
1817	1.8069e+02	1.9276	-6.807712	0.000409	4.093855	0.693518	-0.000041
1818	1.8079e+02	1.9171	-6.851705	0.000442	4.421364	0.748999	-0.000044
1819	1.8089e+02	1.9072	-6.884293	0.000328	3.275084	0.554814	-0.000033
1820	1.8099e+02	1.8958	-6.928693	0.000446	4.462302	0.755934	-0.000045
1821	1.8109e+02	1.8880	-6.969427	0.000409	4.093855	0.693518	-0.000041
1822	1.8119e+02	1.8800	-7.007310	0.000381	3.807285	0.644972	-0.000038
1823	1.8129e+02	1.8644	-7.046008	0.000389	3.889162	0.658842	-0.000039
1824	1.8139e+02	1.8572	-7.090001	0.000442	4.421364	0.748999	-0.000044
1825	1.8149e+02	1.8481	-7.126662	0.000368	3.684470	0.624166	-0.000037
1826	1.8159e+02	1.8394	-7.166581	0.000401	4.011978	0.679647	-0.000040
1827	1.8169e+02	1.8273	-7.209352	0.000430	4.298548	0.728194	-0.000043
1828	1.8179e+02	1.8172	-7.251308	0.000422	4.216671	0.714323	-0.000042
1829	1.8189e+02	1.8089	-7.287969	0.000368	3.684470	0.624166	-0.000037
1830	1.8199e+02	1.7982	-7.329926	0.000422	4.216671	0.714323	-0.000042
1831	1.8209e+02	1.7883	-7.369845	0.000401	4.011978	0.679647	-0.000040
1832	1.8218e+02	1.7771	-7.410579	0.000409	4.093855	0.693518	-0.000041
1833	1.8228e+02	1.7690	-7.452536	0.000422	4.216671	0.714323	-0.000042
1834	1.8238e+02	1.7574	-7.491641	0.000393	3.930101	0.665777	-0.000039
1835	1.8248e+02	1.7458	-7.535634	0.000442	4.421364	0.748999	-0.000044
1836	1.8258e+02	1.7374	-7.574738	0.000393	3.930101	0.665777	-0.000039
1837	1.8268e+02	1.7274	-7.617509	0.000430	4.298548	0.728194	-0.000043
1838	1.8278e+02	1.7184	-7.655800	0.000385	3.848224	0.651907	-0.000038
1839	1.8288e+02	1.7102	-7.697349	0.000418	4.175732	0.707388	-0.000042
1840	1.8298e+02	1.6970	-7.738083	0.000409	4.093855	0.693518	-0.000041
1841	1.8308e+02	1.6874	-7.781668	0.000438	4.380425	0.742064	-0.000044
1842	1.8318e+02	1.6778	-7.819551	0.000381	3.807285	0.644972	-0.000038
1843	1.8328e+02	1.6680	-7.859878	0.000405	4.052917	0.686583	-0.000041
1844	1.8338e+02	1.6578	-7.900205	0.000405	4.052917	0.686583	-0.000041
1845	1.8348e+02	1.6481	-7.945013	0.000450	4.503241	0.762870	-0.000045
1846	1.8358e+02	1.6366	-7.981266	0.000364	3.643531	0.617231	-0.000036
1847	1.8368e+02	1.6277	-8.022001	0.000409	4.093855	0.693518	-0.000041
1848	1.8378e+02	1.6187	-8.061105	0.000393	3.930101	0.665777	-0.000039
1849	1.8388e+02	1.6052	-8.102247	0.000413	4.134794	0.700453	-0.000041
1850	1.8398e+02	1.5969	-8.141759	0.000397	3.971039	0.672712	-0.000040
1851	1.8407e+02	1.5897	-8.177605	0.000360	3.602592	0.610296	-0.000036
1852	1.8417e+02	1.5762	-8.220376	0.000430	4.298548	0.728194	-0.000043
1853	1.8427e+02	1.5676	-8.256630	0.000364	3.643531	0.617231	-0.000036
1854	1.8437e+02	1.5589	-8.295735	0.000393	3.930101	0.665777	-0.000039
1855	1.8447e+02	1.5474	-8.336062	0.000405	4.052917	0.686583	-0.000041
1856	1.8457e+02	1.5404	-8.375167	0.000393	3.930101	0.665777	-0.000039
1857	1.8467e+02	1.5270	-8.412235	0.000373	3.725408	0.631101	-0.000037
1858	1.8477e+02	1.5178	-8.453784	0.000418	4.175732	0.707388	-0.000042
1859	1.8487e+02	1.5070	-8.490037	0.000364	3.643531	0.617231	-0.000036
1860	1.8497e+02	1.4999	-8.527105	0.000373	3.725408	0.631101	-0.000037
1861	1.8507e+02	1.4877	-8.566210	0.000393	3.930101	0.665777	-0.000039
1862	1.8517e+02	1.4780	-8.606130	0.000401	4.011978	0.679647	-0.000040
1863	1.8527e+02	1.4736	-8.645642	0.000397	3.971039	0.672712	-0.000040
1864	1.8537e+02	1.4600	-8.686376	0.000409	4.093855	0.693518	-0.000041
1865	1.8547e+02	1.4495	-8.727110	0.000409	4.093855	0.693518	-0.000041
1866	1.8557e+02	1.4389	-8.767437	0.000405	4.052917	0.686583	-0.000041
1867	1.8567e+02	1.4285	-8.803691	0.000364	3.643531	0.617231	-0.000036
1868	1.8577e+02	1.4191	-8.844018	0.000405	4.052917	0.686583	-0.000041
1869	1.8587e+02	1.4094	-8.889233	0.000454	4.544179	0.769805	-0.000045
1870	1.8597e+02	1.3981	-8.926708	0.000377	3.766347	0.638036	-0.000038
1871	1.8606e+02	1.3891	-8.967035	0.000405	4.052917	0.686583	-0.000041
1872	1.8616e+02	1.3809	-9.013880	0.000471	4.707933	0.797546	-0.000047
1873	1.8626e+02	1.3694	-9.056651	0.000430	4.298548	0.728194	-0.000043
1874	1.8636e+02	1.3611	-9.097792	0.000413	4.134794	0.700453	-0.000041
1875	1.8646e+02	1.3511	-9.141378	0.000438	4.380425	0.742064	-0.000044
1876	1.8656e+02	1.3390	-9.186186	0.000450	4.503241	0.762870	-0.000045
1877	1.8666e+02	1.3308	-9.230586	0.000446	4.462302	0.755934	-0.000045
1878	1.8676e+02	1.3163	-9.269283	0.000389	3.889162	0.658842	-0.000039
1879	1.8686e+02	1.3080	-9.318572	0.000495	4.953565	0.839157	-0.000050
1880	1.8696e+02	1.3007	-9.359713	0.000413	4.134794	0.700453	-0.000041
1881	1.8706e+02	1.2891	-9.403299	0.000438	4.380425	0.742064	-0.000044
1882	1.8716e+02	1.2794	-9.451773	0.000487	4.871688	0.825286	-0.000049
1883	1.8726e+02	1.2709	-9.494951	0.000434	4.339486	0.735129	-0.000043
1884	1.8736e+02	1.2613	-9.532427	0.000377	3.766347	0.638036	-0.000038
1885	1.8746e+02	1.2491	-9.580086	0.000479	4.789810	0.811416	-0.000048
1886	1.8756e+02	1.2402	-9.626523	0.000467	4.666995	0.790610	-0.000047
1887	1.8766e+02	1.2294	-9.667664	0.000413	4.134794	0.700453	-0.000041
1888	1.8776e+02	1.2205	-9.712472	0.000450	4.503241	0.762870	-0.000045
1889	1.8786e+02	1.2110	-9.757280	0.000450	4.503241	0.762870	-0.000045
1890	1.8796e+02	1.2019	-9.804124	0.000471	4.707933	0.797546	-0.000047
1891	1.8806e+02	1.1933	-9.846895	0.000430	4.298548	0.728194	-0.000043
1892	1.8815e+02	1.1797	-9.892518	0.000459	4.585118	0.776740	-0.000046
1893	1.8825e+02	1.1690	-9.938547	0.000463	4.626056	0.783675	-0.000046
1894	1.8835e+02	1.1629	-9.984170	0.000459	4.585118	0.776740	-0.000046
1895	1.8845e+02	1.1492	-10.028163	0.000442	4.421364	0.748999	-0.000044
1896	1.8855e+02	1.1438	-10.075414	0.000475	4.748872	0.804481	-0.000047
1897	1.8865e+02	1.1323	-10.119000	0.000438	4.380425	0.742064	-0.000044
1898	1.8875e+02	1.1217	-10.164215	0.000454	4.544179	0.769805	-0.000045
1899	1.8885e+02	1.1128	-10.211467	0.000475	4.748872	0.804481	-0.000047
1900	1.8895e+02	1.0985	-10.256274	0.000450	4.503241	0.762870	-0.000045
1901	1.8905e+02	1.0903	-10.302304	0.000463	4.626056	0.783675	-0.000046
1902	1.8915e+02	1.0799	-10.347927	0.000459	4.585118	0.776740	-0.000046
1903	1.8925e+02	1.0699	-10.395586	0.000479	4.789810	0.811416	-0.000048
1904	1.8935e+02	1.0593	-10.440393	0.000450	4.503241	0.762870	-0.000045
1905	1.8945e+02	1.0530	-10.488460	0.000483	4.830749	0.818351	-0.000048
1906	1.8955e+02	1.0440	-10.534489	0.000463	4.626056	0.783675	-0.000046
1907	1.8965e+02	1.0351	-10.580519	0.000463	4.626056	0.783675	-0.000046
1908	1.8975e+02	1.0211	-10.627363	0.000471	4.707933	0.797546	-0.000047
1909	1.8985e+02	1.0143	-10.675837	0.000487	4.871688	0.825286	-0.000049
1910	1.8995e+02	0.9998	-10.725126	0.000495	4.953565	0.839157	-0.000050
1911	1.9004e+02	0.9897	-10.768711	0.000438	4.380425	0.742064	-0.000044
1912	1.9014e+02	0.9799	-10.813926	0.000454	4.544179	0.769805	-0.000045
1913	1.9024e+02	0.9717	-10.863622	0.000499	4.994503	0.846092	-0.000050
1914	1.9034e+02	0.9617	-10.909245	0.000459	4.585118	0.776740	-0.000046
1915	1.9044e+02	0.9519	-10.957311	0.000483	4.830749	0.818351	-0.000048
1916	1.9054e+02	0.9444	-11.005377	0.000483	4.830749	0.818351	-0.000048
1917	1.9064e+02	0.9305	-11.050592	0.000454	4.544179	0.769805	-0.000045
1918	1.9074e+02	0.9232	-11.096622	0.000463	4.626056	0.783675	-0.000046
1919	1.9084e+02	0.9121	-11.145911	0.000495	4.953565	0.839157	-0.000050
1920	1.9094e+02	0.9004	-11.195199	0.000495	4.953565	0.839157	-0.000050
1921	1.9104e+02	0.8921	-11.241636	0.000467	4.666995	0.790610	-0.000047
1922	1.9114e+02	0.8829	-11.287666	0.000463	4.626056	0.783675	-0.000046
1923	1.9124e+02	0.8723	-11.336547	0.000491	4.912626	0.832221	-0.000049
1924	1.9134e+02	0.8600	-11.380133	0.000438	4.380425	0.742064	-0.000044
1925	1.9144e+02	0.8511	-11.427792	0.000479	4.789810	0.811416	-0.000048
1926	1.9154e+02	0.8434	-11.475451	0.000479	4.789810	0.811416	-0.000048
1927	1.9164e+02	0.8315	-11.525554	0.000504	5.035442	0.853027	-0.000050
1928	1.9174e+02	0.8197	-11.574435	0.000491	4.912626	0.832221	-0.000049
1929	1.9184e+02	0.8141	-11.620465	0.000463	4.626056	0.783675	-0.000046
1930	1.9194e+02	0.8044	-11.666902	0.000467	4.666995	0.790610	-0.000047
1931	1.9203e+02	0.7938	-11.714153	0.000475	4.748872	0.804481	-0.000047
1932	1.9213e+02	0.7821	-11.766293	0.000524	5.240135	0.887703	-0.000052
1933	1.9223e+02	0.7710	-11.815989	0.000499	4.994503	0.846092	-0.000050
1934	1.9233e+02	0.7639	-11.863648	0.000479	4.789810	0.811416	-0.000048
1935	1.9243e+02	0.7510	-11.914566	0.000512	5.117319	0.866897	-0.000051
1936	1.9253e+02	0.7433	-11.963040	0.000487	4.871688	0.825286	-0.000049
1937	1.9263e+02	0.7333	-12.013958	0.000512	5.117319	0.866897	-0.000051
1938	1.9273e+02	0.7226	-12.068134	0.000544	5.444827	0.922379	-0.000054
1939	1.9283e+02	0.7117	-12.113349	0.000454	4.544179	0.769805	-0.000045
1940	1.9293e+02	0.7043	-12.164674	0.000516	5.158257	0.873832	-0.000052
1941	1.9303e+02	0.6963	-12.218851	0.000544	5.444827	0.922379	-0.000054
1942	1.9313e+02	0.6824	-12.270176	0.000516	5.158257	0.873832	-0.000052
1943	1.9323e+02	0.6712	-12.318650	0.000487	4.871688	0.825286	-0.000049
1944	1.9333e+02	0.6615	-12.369568	0.000512	5.117319	0.866897	-0.000051
1945	1.9343e+02	0.6561	-12.420078	0.000508	5.076380	0.859962	-0.000051
1946	1.9353e+02	0.6446	-12.469774	0.000499	4.994503	0.846092	-0.000050
1947	1.9363e+02	0.6326	-12.520284	0.000508	5.076380	0.859962	-0.000051
1948	1.9373e+02	0.6216	-12.571202	0.000512	5.117319	0.866897	-0.000051
1949	1.9383e+02	0.6129	-12.620898	0.000499	4.994503	0.846092	-0.000050
1950	1.9393e+02	0.6036	-12.671408	0.000508	5.076380	0.859962	-0.000051
1951	1.9403e+02	0.5921	-12.720697	0.000495	4.953565	0.839157	-0.000050
1952	1.9412e+02	0.5865	-12.772022	0.000516	5.158257	0.873832	-0.000052
1953	1.9422e+02	0.5732	-12.819274	0.000475	4.748872	0.804481	-0.000047
1954	1.9432e+02	0.5625	-12.870599	0.000516	5.158257	0.873832	-0.000052
1955	1.9442e+02	0.5546	-12.918665	0.000483	4.830749	0.818351	-0.000048
1956	1.9452e+02	0.5435	-12.963066	0.000446	4.462302	0.755934	-0.000045
1957	1.9462e+02	0.5339	-13.012761	0.000499	4.994503	0.846092	-0.000050
1958	1.9472e+02	0.5238	-13.060421	0.000479	4.789810	0.811416	-0.000048
1959	1.9482e+02	0.5141	-13.110116	0.000499	4.994503	0.846092	-0.000050
1960	1.9492e+02	0.5043	-13.154924	0.000450	4.503241	0.762870	-0.000045
1961	1.9502e+02	0.4939	-13.203398	0.000487	4.871688	0.825286	-0.000049
1962	1.9512e+02	0.4847	-13.247798	0.000446	4.462302	0.755934	-0.000045
1963	1.9522e+02	0.4755	-13.293828	0.000463	4.626056	0.783675	-0.000046
1964	1.9532e+02	0.4638	-13.345153	0.000516	5.158257	0.873832	-0.000052
1965	1.9542e+02	0.4496	-13.390775	0.000459	4.585118	0.776740	-0.000046
1966	1.9552e+02	0.4459	-13.436398	0.000459	4.585118	0.776740	-0.000046
1967	1.9562e+02	0.4338	-13.484464	0.000483	4.830749	0.818351	-0.000048
1968	1.9572e+02	0.4224	-13.530494	0.000463	4.626056	0.783675	-0.000046
1969	1.9582e+02	0.4152	-13.576931	0.000467	4.666995	0.790610	-0.000047
1970	1.9592e+02	0.4062	-13.625405	0.000487	4.871688	0.825286	-0.000049
1971	1.9601e+02	0.3967	-13.675508	0.000504	5.035442	0.853027	-0.000050
1972	1.9611e+02	0.3825	-13.719093	0.000438	4.380425	0.742064	-0.000044
1973	1.9621e+02	0.3728	-13.765123	0.000463	4.626056	0.783675	-0.000046
1974	1.9631e+02	0.3632	-13.811153	0.000463	4.626056	0.783675	-0.000046
1975	1.9641e+02	0.3535	-13.859627	0.000487	4.871688	0.825286	-0.000049
1976	1.9651e+02	0.3422	-13.908508	0.000491	4.912626	0.832221	-0.000049
1977	1.9661e+02	0.3338	-13.951686	0.000434	4.339486	0.735129	-0.000043
1978	1.9671e+02	0.3252	-14.003011	0.000516	5.158257	0.873832	-0.000052
1979	1.9681e+02	0.3151	-14.046190	0.000434	4.339486	0.735129	-0.000043
1980	1.9691e+02	0.3076	-14.092627	0.000467	4.666995	0.790610	-0.000047
1981	1.9701e+02	0.2920	-14.140286	0.000479	4.789810	0.811416	-0.000048
1982	1.9711e+02	0.2809	-14.184279	0.000442	4.421364	0.748999	-0.000044
1983	1.9721e+02	0.2724	-14.232345	0.000483	4.830749	0.818351	-0.000048
1984	1.9731e+02	0.2637	-14.276338	0.000442	4.421364	0.748999	-0.000044
1985	1.9741e+02	0.2502	-14.324812	0.000487	4.871688	0.825286	-0.000049
1986	1.9751e+02	0.2469	-14.367990	0.000434	4.339486	0.735129	-0.000043
1987	1.9761e+02	0.2343	-14.415242	0.000475	4.748872	0.804481	-0.000047
1988	1.9771e+02	0.2252	-14.462901	0.000479	4.789810	0.811416	-0.000048
1989	1.9781e+02	0.2168	-14.504857	0.000422	4.216671	0.714323	-0.000042
1990	1.9791e+02	0.2056	-14.554553	0.000499	4.994503	0.846092	-0.000050
1991	1.9800e+02	0.1949	-14.597324	0.000430	4.298548	0.728194	-0.000043
1992	1.9810e+02	0.1815	-14.646612	0.000495	4.953565	0.839157	-0.000050
1993	1.9820e+02	0.1732	-14.691827	0.000454	4.544179	0.769805	-0.000045
1994	1.9830e+02	0.1708	-14.737857	0.000463	4.626056	0.783675	-0.000046
1995	1.9840e+02	0.1527	-14.784702	0.000471	4.707933	0.797546	-0.000047
1996	1.9850e+02	0.1439	-14.827880	0.000434	4.339486	0.735129	-0.000043
1997	1.9860e+02	0.1344	-14.878390	0.000508	5.076380	0.859962	-0.000051
1998	1.9870e+02	0.1237	-14.921161	0.000430	4.298548	0.728194	-0.000043
1999	1.9880e+02	0.1159	-14.967598	0.000467	4.666995	0.790610	-0.000047
2000	1.9890e+02	0.1042	-15.015665	0.000483	4.830749	0.818351	-0.000048
2001	1.9900e+02	0.0967	-15.059250	0.000438	4.380425	0.742064	-0.000044
2002	1.9910e+02	0.0863	-15.105280	0.000463	4.626056	0.783675	-0.000046
2003	1.9920e+02	0.0751	-15.154161	0.000491	4.912626	0.832221	-0.000049
2004	1.9930e+02	0.0649	-15.198969	0.000450	4.503241	0.762870	-0.000045
2005	1.9940e+02	0.0566	-15.247850	0.000491	4.912626	0.832221	-0.000049
2006	1.9950e+02	0.0433	-15.293472	0.000459	4.585118	0.776740	-0.000046
2007	1.9960e+02	0.0383	-15.339909	0.000467	4.666995	0.790610	-0.000047
2008	1.9970e+02	0.0296	-15.383495	0.000438	4.380425	0.742064	-0.000044
2009	1.9980e+02	0.0132	-15.429117	0.000459	4.585118	0.776740	-0.000046
2010	1.9990e+02	0.0054	-15.482887	0.000540	5.403889	0.915444	-0.000054
2011	2.0000e+02	-0.0032	-15.523621	0.000540	5.403889	0.915444	-0.000041

PMax (uC/cm2):	3.51e+01
Pr (uC/cm2):	2.06e+00
-Pr (uC/cm2):	0.00e+00
PLoss (uC/cm2):	0.00e+00
C (Max-Eff) (nF):	3.52e-01
K (Eff):	5.96e+02
Vert. (+/-Pr) Shift (uC/cm2):	1.03e+00
Offset (uC/cm2):	1.76e+01

A (Loop Area - uC/cm2·Volts):	-2.09e-02



Hysteresis Version: 5.48.1 - Radiant Technologies, Inc., 1999 - 9/12/24

