»»»»»»»»»»»»»»»»»»»»»»»»»»»»»»»»»»»» Hysteresis ««««««««««««««««««««««««««««««««««««
»»»  Executed Version:	5.48.1
»»»  Vision Version:	5.48.4 (R)
»»»  Vision Compiled:	9/18/24
»»»  Driver Version:	5.47.0
»»»  Windows Version:	Windows 8 or 8.1
»»»  Processor Information:	x86 (AMD or Intel) - 32 Processors
»»»  Tester Name:	PMF21124-494 (100V)
»»»  Tester S/N:	PMF21124-494
»»»  Internal Amp Type:	100V RevK 270k
»»»  Internal Amp S/N:	iAB2-596/K     
»»»  Execution Count:	1
»»»»»»»»»»»»»»»»»»»»»»»»»»»»»»»»»»»»»»»»»»««««««««««««««««««««««««««««««««««««««««««

Stored:	6/30/2025 - 11:33:29
Configured:	06/30/25 10:19:58 AM
Executed:	06/30/25 11:33:00 AM

»»»»»»»»»»»»»»»»»»»»»»»»»»»»»»»»»»» Sample Info ««««««««««««««««««««««««««««««««««««
Sample Name:	
Lot Name:	
Wafer Name:	
Die Row/Column:	0/0
Capacitor Number:	0
Sample Area (cm2):	1.00e-04
Sample Thickness (microns):	1.50e-01

Amplifier:	Internal

»»»»»»»»»»»»»»»»»»»»»»»»»»»»»»»»»»» Tester Info «««««««««««««««««««««««««««««««««««
Tester Name:	PMF21124-494 (100V)
Tester Serial Number:	PMF21124-494
Return Signal Amp. Level:	1.9 [Index: 2]

»»»»»»»»»»»»»»»»»»»»»»»»»»»»»»»» Hysteresis Info ««««««««««««««««««««««««««««««««««
Task Name:	Hyst-1804
Volts:	10.00
Field:	666.67 (kV/cm)
DCBias:	0.00
DCField:	0.00 (kV/cm)
Hysteresis Period (ms):	2.00e+02
Preset:	Enabled
Preset Delay (ms):	1.00e+03
Profile:	Standard Monopolar

»»»»»»»»»»»»»»»»»»»»»»»»»»»»»»»»»»»»»» Data «««««««««««««««««««««««««««««««««««««««
Points:	2011

Valid Data

Point	Time (ms)	Drive Voltage	Measured Polarization (uC/cm2)	Capacitance (uF)	Normalized Capacitance (uF/cm2)	Dielectric Constant	Instantaneous Current (mA)
   1	0.0000e+00	-0.0043	-17.287211	0.000401	4.012330	0.679707	0.000040
   2	9.9500e-02	0.0047	-17.247291	0.000401	4.012330	0.679707	0.000040
   3	1.9900e-01	0.0166	-17.204520	0.000430	4.298925	0.728258	0.000043
   4	2.9850e-01	0.0253	-17.161749	0.000430	4.298925	0.728258	0.000043
   5	3.9800e-01	0.0356	-17.119385	0.000426	4.257983	0.721322	0.000043
   6	4.9750e-01	0.0436	-17.077429	0.000422	4.217041	0.714386	0.000042
   7	5.9700e-01	0.0537	-17.035066	0.000426	4.257983	0.721322	0.000043
   8	6.9650e-01	0.0625	-16.992295	0.000430	4.298925	0.728258	0.000043
   9	7.9600e-01	0.0747	-16.951153	0.000414	4.135156	0.700514	0.000041
  10	8.9550e-01	0.0855	-16.907160	0.000442	4.421751	0.749065	0.000044
  11	9.9500e-01	0.0944	-16.861538	0.000459	4.585520	0.776808	0.000046
  12	1.0945e+00	0.1035	-16.822433	0.000393	3.930446	0.665836	0.000039
  13	1.1940e+00	0.1162	-16.775588	0.000471	4.708346	0.797615	0.000047
  14	1.2935e+00	0.1225	-16.732003	0.000438	4.380809	0.742129	0.000044
  15	1.3930e+00	0.1399	-16.692898	0.000393	3.930446	0.665836	0.000039
  16	1.4925e+00	0.1472	-16.647275	0.000459	4.585520	0.776808	0.000046
  17	1.5920e+00	0.1566	-16.604097	0.000434	4.339867	0.735193	0.000043
  18	1.6915e+00	0.1650	-16.562141	0.000422	4.217041	0.714386	0.000042
  19	1.7910e+00	0.1736	-16.520185	0.000422	4.217041	0.714386	0.000042
  20	1.8905e+00	0.1824	-16.477006	0.000434	4.339867	0.735193	0.000043
  21	1.9900e+00	0.1954	-16.437901	0.000393	3.930446	0.665836	0.000039
  22	2.0895e+00	0.2056	-16.392686	0.000454	4.544578	0.769872	0.000045
  23	2.1890e+00	0.2154	-16.347471	0.000454	4.544578	0.769872	0.000045
  24	2.2885e+00	0.2248	-16.303478	0.000442	4.421751	0.749065	0.000044
  25	2.3880e+00	0.2330	-16.263966	0.000397	3.971388	0.672771	0.000040
  26	2.4875e+00	0.2455	-16.222824	0.000414	4.135156	0.700514	0.000041
  27	2.5870e+00	0.2561	-16.177609	0.000454	4.544578	0.769872	0.000045
  28	2.6865e+00	0.2644	-16.137690	0.000401	4.012330	0.679707	0.000040
  29	2.7860e+00	0.2712	-16.096956	0.000409	4.094214	0.693579	0.000041
  30	2.8855e+00	0.2858	-16.054999	0.000422	4.217041	0.714386	0.000042
  31	2.9850e+00	0.2930	-16.014265	0.000409	4.094214	0.693579	0.000041
  32	3.0845e+00	0.3033	-15.974753	0.000397	3.971388	0.672771	0.000040
  33	3.1840e+00	0.3130	-15.936870	0.000381	3.807619	0.645028	0.000038
  34	3.2835e+00	0.3226	-15.895321	0.000418	4.176099	0.707450	0.000042
  35	3.3830e+00	0.3349	-15.852957	0.000426	4.257983	0.721322	0.000043
  36	3.4825e+00	0.3446	-15.811001	0.000422	4.217041	0.714386	0.000042
  37	3.5820e+00	0.3525	-15.772304	0.000389	3.889504	0.658900	0.000039
  38	3.6815e+00	0.3658	-15.729125	0.000434	4.339867	0.735193	0.000043
  39	3.7810e+00	0.3764	-15.690428	0.000389	3.889504	0.658900	0.000039
  40	3.8805e+00	0.3833	-15.648471	0.000422	4.217041	0.714386	0.000042
  41	3.9800e+00	0.3935	-15.610589	0.000381	3.807619	0.645028	0.000038
  42	4.0795e+00	0.4019	-15.567818	0.000430	4.298925	0.728258	0.000043
  43	4.1790e+00	0.4119	-15.529527	0.000385	3.848561	0.651964	0.000038
  44	4.2785e+00	0.4248	-15.488386	0.000414	4.135156	0.700514	0.000041
  45	4.3780e+00	0.4362	-15.444393	0.000442	4.421751	0.749065	0.000044
  46	4.4775e+00	0.4422	-15.406510	0.000381	3.807619	0.645028	0.000038
  47	4.5770e+00	0.4535	-15.362110	0.000446	4.462694	0.756001	0.000045
  48	4.6765e+00	0.4645	-15.321375	0.000409	4.094214	0.693579	0.000041
  49	4.7760e+00	0.4745	-15.279419	0.000422	4.217041	0.714386	0.000042
  50	4.8755e+00	0.4828	-15.236648	0.000430	4.298925	0.728258	0.000043
  51	4.9750e+00	0.4945	-15.195507	0.000414	4.135156	0.700514	0.000041
  52	5.0745e+00	0.5008	-15.153958	0.000418	4.176099	0.707450	0.000042
  53	5.1740e+00	0.5130	-15.112409	0.000418	4.176099	0.707450	0.000042
  54	5.2735e+00	0.5219	-15.068823	0.000438	4.380809	0.742129	0.000044
  55	5.3730e+00	0.5329	-15.024830	0.000442	4.421751	0.749065	0.000044
  56	5.4725e+00	0.5424	-14.982059	0.000430	4.298925	0.728258	0.000043
  57	5.5720e+00	0.5526	-14.937659	0.000446	4.462694	0.756001	0.000045
  58	5.6715e+00	0.5650	-14.896110	0.000418	4.176099	0.707450	0.000042
  59	5.7710e+00	0.5724	-14.856598	0.000397	3.971388	0.672771	0.000040
  60	5.8705e+00	0.5821	-14.815049	0.000418	4.176099	0.707450	0.000042
  61	5.9700e+00	0.5907	-14.765760	0.000495	4.953999	0.839230	0.000050
  62	6.0695e+00	0.6033	-14.726655	0.000393	3.930446	0.665836	0.000039
  63	6.1690e+00	0.6130	-14.687550	0.000393	3.930446	0.665836	0.000039
  64	6.2685e+00	0.6219	-14.640706	0.000471	4.708346	0.797615	0.000047
  65	6.3680e+00	0.6326	-14.601194	0.000397	3.971388	0.672771	0.000040
  66	6.4675e+00	0.6419	-14.561682	0.000397	3.971388	0.672771	0.000040
  67	6.5670e+00	0.6548	-14.522169	0.000397	3.971388	0.672771	0.000040
  68	6.6665e+00	0.6633	-14.478176	0.000442	4.421751	0.749065	0.000044
  69	6.7660e+00	0.6694	-14.438257	0.000401	4.012330	0.679707	0.000040
  70	6.8655e+00	0.6804	-14.398745	0.000397	3.971388	0.672771	0.000040
  71	6.9650e+00	0.6934	-14.355974	0.000430	4.298925	0.728258	0.000043
  72	7.0645e+00	0.7012	-14.315239	0.000409	4.094214	0.693579	0.000041
  73	7.1640e+00	0.7113	-14.270024	0.000454	4.544578	0.769872	0.000045
  74	7.2635e+00	0.7206	-14.230105	0.000401	4.012330	0.679707	0.000040
  75	7.3630e+00	0.7348	-14.187334	0.000430	4.298925	0.728258	0.000043
  76	7.4625e+00	0.7398	-14.147414	0.000401	4.012330	0.679707	0.000040
  77	7.5620e+00	0.7528	-14.112383	0.000352	3.521024	0.596478	0.000035
  78	7.6615e+00	0.7650	-14.068797	0.000438	4.380809	0.742129	0.000044
  79	7.7610e+00	0.7714	-14.026841	0.000422	4.217041	0.714386	0.000042
  80	7.8605e+00	0.7813	-13.981626	0.000454	4.544578	0.769872	0.000045
  81	7.9600e+00	0.7921	-13.940891	0.000409	4.094214	0.693579	0.000041
  82	8.0595e+00	0.8009	-13.897713	0.000434	4.339867	0.735193	0.000043
  83	8.1590e+00	0.8127	-13.853313	0.000446	4.462694	0.756001	0.000045
  84	8.2585e+00	0.8215	-13.812171	0.000414	4.135156	0.700514	0.000041
  85	8.3580e+00	0.8318	-13.766956	0.000454	4.544578	0.769872	0.000045
  86	8.4575e+00	0.8427	-13.718075	0.000491	4.913057	0.832294	0.000049
  87	8.5570e+00	0.8512	-13.676934	0.000414	4.135156	0.700514	0.000041
  88	8.6565e+00	0.8600	-13.634570	0.000426	4.257983	0.721322	0.000043
  89	8.7560e+00	0.8701	-13.592614	0.000422	4.217041	0.714386	0.000042
  90	8.8555e+00	0.8831	-13.549435	0.000434	4.339867	0.735193	0.000043
  91	8.9550e+00	0.8920	-13.506257	0.000434	4.339867	0.735193	0.000043
  92	9.0545e+00	0.9031	-13.463079	0.000434	4.339867	0.735193	0.000043
  93	9.1540e+00	0.9126	-13.418678	0.000446	4.462694	0.756001	0.000045
  94	9.2535e+00	0.9235	-13.377129	0.000418	4.176099	0.707450	0.000042
  95	9.3530e+00	0.9308	-13.331914	0.000454	4.544578	0.769872	0.000045
  96	9.4525e+00	0.9412	-13.286292	0.000459	4.585520	0.776808	0.000046
  97	9.5520e+00	0.9520	-13.242706	0.000438	4.380809	0.742129	0.000044
  98	9.6515e+00	0.9636	-13.200750	0.000422	4.217041	0.714386	0.000042
  99	9.7510e+00	0.9698	-13.156350	0.000446	4.462694	0.756001	0.000045
 100	9.8505e+00	0.9797	-13.110727	0.000459	4.585520	0.776808	0.000046
 101	9.9500e+00	0.9927	-13.069586	0.000414	4.135156	0.700514	0.000041
 102	1.0050e+01	1.0021	-13.025185	0.000446	4.462694	0.756001	0.000045
 103	1.0149e+01	1.0094	-12.979156	0.000463	4.626462	0.783744	0.000046
 104	1.0248e+01	1.0206	-12.934755	0.000446	4.462694	0.756001	0.000045
 105	1.0348e+01	1.0313	-12.891984	0.000430	4.298925	0.728258	0.000043
 106	1.0447e+01	1.0384	-12.848399	0.000438	4.380809	0.742129	0.000044
 107	1.0547e+01	1.0509	-12.805628	0.000430	4.298925	0.728258	0.000043
 108	1.0646e+01	1.0577	-12.759191	0.000467	4.667404	0.790680	0.000047
 109	1.0746e+01	1.0688	-12.718049	0.000414	4.135156	0.700514	0.000041
 110	1.0845e+01	1.0806	-12.669983	0.000483	4.831173	0.818423	0.000048
 111	1.0945e+01	1.0880	-12.627619	0.000426	4.257983	0.721322	0.000043
 112	1.1044e+01	1.1011	-12.582811	0.000450	4.503636	0.762937	0.000045
 113	1.1144e+01	1.1113	-12.537189	0.000459	4.585520	0.776808	0.000046
 114	1.1243e+01	1.1207	-12.489937	0.000475	4.749289	0.804551	0.000047
 115	1.1343e+01	1.1327	-12.445130	0.000450	4.503636	0.762937	0.000045
 116	1.1443e+01	1.1361	-12.397063	0.000483	4.831173	0.818423	0.000048
 117	1.1542e+01	1.1526	-12.354292	0.000430	4.298925	0.728258	0.000043
 118	1.1642e+01	1.1609	-12.308263	0.000463	4.626462	0.783744	0.000046
 119	1.1741e+01	1.1707	-12.262640	0.000459	4.585520	0.776808	0.000046
 120	1.1841e+01	1.1787	-12.214166	0.000487	4.872115	0.825359	0.000049
 121	1.1940e+01	1.1932	-12.168951	0.000454	4.544578	0.769872	0.000045
 122	1.2040e+01	1.2019	-12.126588	0.000426	4.257983	0.721322	0.000043
 123	1.2139e+01	1.2126	-12.080151	0.000467	4.667404	0.790680	0.000047
 124	1.2239e+01	1.2212	-12.031677	0.000487	4.872115	0.825359	0.000049
 125	1.2338e+01	1.2302	-11.989721	0.000422	4.217041	0.714386	0.000042
 126	1.2438e+01	1.2397	-11.944098	0.000459	4.585520	0.776808	0.000046
 127	1.2537e+01	1.2524	-11.895625	0.000487	4.872115	0.825359	0.000049
 128	1.2636e+01	1.2595	-11.850410	0.000454	4.544578	0.769872	0.000045
 129	1.2736e+01	1.2699	-11.810490	0.000401	4.012330	0.679707	0.000040
 130	1.2835e+01	1.2781	-11.763238	0.000475	4.749289	0.804551	0.000047
 131	1.2935e+01	1.2905	-11.719653	0.000438	4.380809	0.742129	0.000044
 132	1.3034e+01	1.3000	-11.676882	0.000430	4.298925	0.728258	0.000043
 133	1.3134e+01	1.3097	-11.629630	0.000475	4.749289	0.804551	0.000047
 134	1.3233e+01	1.3189	-11.588896	0.000409	4.094214	0.693579	0.000041
 135	1.3333e+01	1.3292	-11.543273	0.000459	4.585520	0.776808	0.000046
 136	1.3432e+01	1.3370	-11.500095	0.000434	4.339867	0.735193	0.000043
 137	1.3532e+01	1.3475	-11.458546	0.000418	4.176099	0.707450	0.000042
 138	1.3632e+01	1.3584	-11.411294	0.000475	4.749289	0.804551	0.000047
 139	1.3731e+01	1.3683	-11.372189	0.000393	3.930446	0.665836	0.000039
 140	1.3831e+01	1.3792	-11.327789	0.000446	4.462694	0.756001	0.000045
 141	1.3930e+01	1.3885	-11.282981	0.000450	4.503636	0.762937	0.000045
 142	1.4030e+01	1.3964	-11.243062	0.000401	4.012330	0.679707	0.000040
 143	1.4129e+01	1.4095	-11.197032	0.000463	4.626462	0.783744	0.000046
 144	1.4229e+01	1.4174	-11.152632	0.000446	4.462694	0.756001	0.000045
 145	1.4328e+01	1.4286	-11.111897	0.000409	4.094214	0.693579	0.000041
 146	1.4428e+01	1.4368	-11.065460	0.000467	4.667404	0.790680	0.000047
 147	1.4527e+01	1.4479	-11.021060	0.000446	4.462694	0.756001	0.000045
 148	1.4627e+01	1.4574	-10.979511	0.000418	4.176099	0.707450	0.000042
 149	1.4726e+01	1.4697	-10.936333	0.000434	4.339867	0.735193	0.000043
 150	1.4825e+01	1.4805	-10.892747	0.000438	4.380809	0.742129	0.000044
 151	1.4925e+01	1.4861	-10.844273	0.000487	4.872115	0.825359	0.000049
 152	1.5024e+01	1.4988	-10.801095	0.000434	4.339867	0.735193	0.000043
 153	1.5124e+01	1.5083	-10.755065	0.000463	4.626462	0.783744	0.000046
 154	1.5223e+01	1.5205	-10.712294	0.000430	4.298925	0.728258	0.000043
 155	1.5323e+01	1.5246	-10.667079	0.000454	4.544578	0.769872	0.000045
 156	1.5422e+01	1.5361	-10.623901	0.000434	4.339867	0.735193	0.000043
 157	1.5522e+01	1.5461	-10.584796	0.000393	3.930446	0.665836	0.000039
 158	1.5621e+01	1.5587	-10.539581	0.000454	4.544578	0.769872	0.000045
 159	1.5721e+01	1.5688	-10.494773	0.000450	4.503636	0.762937	0.000045
 160	1.5820e+01	1.5771	-10.449558	0.000454	4.544578	0.769872	0.000045
 161	1.5920e+01	1.5873	-10.405565	0.000442	4.421751	0.749065	0.000044
 162	1.6020e+01	1.5978	-10.357499	0.000483	4.831173	0.818423	0.000048
 163	1.6119e+01	1.6102	-10.317987	0.000397	3.971388	0.672771	0.000040
 164	1.6218e+01	1.6193	-10.272772	0.000454	4.544578	0.769872	0.000045
 165	1.6318e+01	1.6286	-10.230001	0.000430	4.298925	0.728258	0.000043
 166	1.6418e+01	1.6390	-10.186008	0.000442	4.421751	0.749065	0.000044
 167	1.6517e+01	1.6460	-10.147718	0.000385	3.848561	0.651964	0.000038
 168	1.6616e+01	1.6577	-10.105761	0.000422	4.217041	0.714386	0.000042
 169	1.6716e+01	1.6679	-10.067064	0.000389	3.889504	0.658900	0.000039
 170	1.6816e+01	1.6779	-10.027144	0.000401	4.012330	0.679707	0.000040
 171	1.6915e+01	1.6849	-9.979078	0.000483	4.831173	0.818423	0.000048
 172	1.7015e+01	1.6965	-9.940788	0.000385	3.848561	0.651964	0.000038
 173	1.7114e+01	1.7072	-9.895980	0.000450	4.503636	0.762937	0.000045
 174	1.7213e+01	1.7195	-9.858097	0.000381	3.807619	0.645028	0.000038
 175	1.7313e+01	1.7254	-9.815733	0.000426	4.257983	0.721322	0.000043
 176	1.7413e+01	1.7354	-9.770926	0.000450	4.503636	0.762937	0.000045
 177	1.7512e+01	1.7437	-9.732228	0.000389	3.889504	0.658900	0.000039
 178	1.7611e+01	1.7564	-9.692309	0.000401	4.012330	0.679707	0.000040
 179	1.7711e+01	1.7696	-9.654833	0.000377	3.766677	0.638092	0.000038
 180	1.7811e+01	1.7779	-9.608803	0.000463	4.626462	0.783744	0.000046
 181	1.7910e+01	1.7895	-9.570106	0.000389	3.889504	0.658900	0.000039
 182	1.8009e+01	1.7957	-9.531001	0.000393	3.930446	0.665836	0.000039
 183	1.8109e+01	1.8069	-9.489452	0.000418	4.176099	0.707450	0.000042
 184	1.8209e+01	1.8156	-9.448718	0.000409	4.094214	0.693579	0.000041
 185	1.8308e+01	1.8257	-9.407169	0.000418	4.176099	0.707450	0.000042
 186	1.8407e+01	1.8385	-9.367657	0.000397	3.971388	0.672771	0.000040
 187	1.8507e+01	1.8477	-9.326515	0.000414	4.135156	0.700514	0.000041
 188	1.8607e+01	1.8571	-9.284966	0.000418	4.176099	0.707450	0.000042
 189	1.8706e+01	1.8671	-9.246676	0.000385	3.848561	0.651964	0.000038
 190	1.8805e+01	1.8775	-9.205534	0.000414	4.135156	0.700514	0.000041
 191	1.8905e+01	1.8865	-9.167244	0.000385	3.848561	0.651964	0.000038
 192	1.9005e+01	1.8986	-9.125288	0.000422	4.217041	0.714386	0.000042
 193	1.9104e+01	1.9048	-9.084146	0.000414	4.135156	0.700514	0.000041
 194	1.9203e+01	1.9149	-9.045449	0.000389	3.889504	0.658900	0.000039
 195	1.9303e+01	1.9260	-9.004714	0.000409	4.094214	0.693579	0.000041
 196	1.9402e+01	1.9361	-8.965202	0.000397	3.971388	0.672771	0.000040
 197	1.9502e+01	1.9445	-8.926912	0.000385	3.848561	0.651964	0.000038
 198	1.9602e+01	1.9556	-8.887807	0.000393	3.930446	0.665836	0.000039
 199	1.9701e+01	1.9660	-8.851961	0.000360	3.602909	0.610349	0.000036
 200	1.9800e+01	1.9765	-8.814485	0.000377	3.766677	0.638092	0.000038
 201	1.9900e+01	1.9877	-8.779047	0.000356	3.561966	0.603413	0.000036
 202	2.0000e+01	1.9949	-8.740756	0.000385	3.848561	0.651964	0.000038
 203	2.0099e+01	2.0052	-8.698800	0.000422	4.217041	0.714386	0.000042
 204	2.0198e+01	2.0129	-8.664583	0.000344	3.439140	0.582606	0.000034
 205	2.0298e+01	2.0275	-8.625479	0.000393	3.930446	0.665836	0.000039
 206	2.0398e+01	2.0358	-8.581078	0.000446	4.462694	0.756001	0.000045
 207	2.0497e+01	2.0461	-8.550527	0.000307	3.070661	0.520184	0.000031
 208	2.0596e+01	2.0560	-8.509793	0.000409	4.094214	0.693579	0.000041
 209	2.0696e+01	2.0663	-8.475169	0.000348	3.480082	0.589542	0.000035
 210	2.0796e+01	2.0731	-8.433620	0.000418	4.176099	0.707450	0.000042
 211	2.0895e+01	2.0865	-8.394515	0.000393	3.930446	0.665836	0.000039
 212	2.0994e+01	2.0961	-8.357447	0.000373	3.725735	0.631157	0.000037
 213	2.1094e+01	2.1060	-8.321601	0.000360	3.602909	0.610349	0.000036
 214	2.1194e+01	2.1139	-8.280052	0.000418	4.176099	0.707450	0.000042
 215	2.1293e+01	2.1228	-8.247872	0.000323	3.234429	0.547927	0.000032
 216	2.1392e+01	2.1374	-8.202657	0.000454	4.544578	0.769872	0.000045
 217	2.1492e+01	2.1471	-8.166811	0.000360	3.602909	0.610349	0.000036
 218	2.1591e+01	2.1562	-8.125669	0.000414	4.135156	0.700514	0.000041
 219	2.1691e+01	2.1659	-8.088194	0.000377	3.766677	0.638092	0.000038
 220	2.1791e+01	2.1766	-8.048681	0.000397	3.971388	0.672771	0.000040
 221	2.1890e+01	2.1884	-8.007133	0.000418	4.176099	0.707450	0.000042
 222	2.1989e+01	2.1969	-7.970472	0.000368	3.684793	0.624221	0.000037
 223	2.2089e+01	2.2086	-7.928515	0.000422	4.217041	0.714386	0.000042
 224	2.2189e+01	2.2163	-7.886966	0.000418	4.176099	0.707450	0.000042
 225	2.2288e+01	2.2247	-7.849084	0.000381	3.807619	0.645028	0.000038
 226	2.2387e+01	2.2349	-7.808349	0.000409	4.094214	0.693579	0.000041
 227	2.2487e+01	2.2422	-7.767615	0.000409	4.094214	0.693579	0.000041
 228	2.2587e+01	2.2539	-7.729325	0.000385	3.848561	0.651964	0.000038
 229	2.2686e+01	2.2640	-7.690627	0.000389	3.889504	0.658900	0.000039
 230	2.2785e+01	2.2741	-7.651115	0.000397	3.971388	0.672771	0.000040
 231	2.2885e+01	2.2842	-7.610381	0.000409	4.094214	0.693579	0.000041
 232	2.2985e+01	2.2928	-7.579423	0.000311	3.111603	0.527120	0.000031
 233	2.3084e+01	2.3064	-7.535023	0.000446	4.462694	0.756001	0.000045
 234	2.3183e+01	2.3146	-7.501213	0.000340	3.398198	0.575670	0.000034
 235	2.3283e+01	2.3251	-7.460886	0.000405	4.053272	0.686643	0.000041
 236	2.3383e+01	2.3354	-7.425040	0.000360	3.602909	0.610349	0.000036
 237	2.3482e+01	2.3440	-7.388787	0.000364	3.643851	0.617285	0.000036
 238	2.3581e+01	2.3531	-7.345201	0.000438	4.380809	0.742129	0.000044
 239	2.3681e+01	2.3662	-7.306503	0.000389	3.889504	0.658900	0.000039
 240	2.3780e+01	2.3765	-7.272287	0.000344	3.439140	0.582606	0.000034
 241	2.3880e+01	2.3815	-7.230330	0.000422	4.217041	0.714386	0.000042
 242	2.3980e+01	2.3936	-7.191225	0.000393	3.930446	0.665836	0.000039
 243	2.4079e+01	2.4030	-7.154157	0.000373	3.725735	0.631157	0.000037
 244	2.4178e+01	2.4150	-7.116682	0.000377	3.766677	0.638092	0.000038
 245	2.4278e+01	2.4235	-7.078392	0.000385	3.848561	0.651964	0.000038
 246	2.4378e+01	2.4341	-7.040916	0.000377	3.766677	0.638092	0.000038
 247	2.4477e+01	2.4455	-7.003033	0.000381	3.807619	0.645028	0.000038
 248	2.4576e+01	2.4538	-6.966780	0.000364	3.643851	0.617285	0.000036
 249	2.4676e+01	2.4641	-6.930526	0.000364	3.643851	0.617285	0.000036
 250	2.4776e+01	2.4720	-6.889385	0.000414	4.135156	0.700514	0.000041
 251	2.4875e+01	2.4850	-6.847021	0.000426	4.257983	0.721322	0.000043
 252	2.4974e+01	2.4953	-6.805065	0.000422	4.217041	0.714386	0.000042
 253	2.5074e+01	2.5036	-6.765552	0.000397	3.971388	0.672771	0.000040
 254	2.5174e+01	2.5124	-6.728077	0.000377	3.766677	0.638092	0.000038
 255	2.5273e+01	2.5222	-6.686528	0.000418	4.176099	0.707450	0.000042
 256	2.5372e+01	2.5329	-6.647016	0.000397	3.971388	0.672771	0.000040
 257	2.5472e+01	2.5423	-6.610355	0.000368	3.684793	0.624221	0.000037
 258	2.5572e+01	2.5544	-6.563103	0.000475	4.749289	0.804551	0.000047
 259	2.5671e+01	2.5636	-6.526850	0.000364	3.643851	0.617285	0.000036
 260	2.5770e+01	2.5720	-6.486930	0.000401	4.012330	0.679707	0.000040
 261	2.5870e+01	2.5826	-6.447011	0.000401	4.012330	0.679707	0.000040
 262	2.5970e+01	2.5935	-6.406684	0.000405	4.053272	0.686643	0.000041
 263	2.6069e+01	2.6021	-6.367986	0.000389	3.889504	0.658900	0.000039
 264	2.6169e+01	2.6111	-6.326845	0.000414	4.135156	0.700514	0.000041
 265	2.6268e+01	2.6221	-6.285296	0.000418	4.176099	0.707450	0.000042
 266	2.6367e+01	2.6333	-6.244561	0.000409	4.094214	0.693579	0.000041
 267	2.6467e+01	2.6416	-6.206271	0.000385	3.848561	0.651964	0.000038
 268	2.6567e+01	2.6507	-6.163907	0.000426	4.257983	0.721322	0.000043
 269	2.6666e+01	2.6630	-6.125617	0.000385	3.848561	0.651964	0.000038
 270	2.6765e+01	2.6737	-6.084883	0.000409	4.094214	0.693579	0.000041
 271	2.6865e+01	2.6824	-6.045778	0.000393	3.930446	0.665836	0.000039
 272	2.6965e+01	2.6920	-6.002192	0.000438	4.380809	0.742129	0.000044
 273	2.7064e+01	2.7026	-5.962273	0.000401	4.012330	0.679707	0.000040
 274	2.7163e+01	2.7136	-5.926427	0.000360	3.602909	0.610349	0.000036
 275	2.7263e+01	2.7257	-5.885693	0.000409	4.094214	0.693579	0.000041
 276	2.7363e+01	2.7334	-5.844144	0.000418	4.176099	0.707450	0.000042
 277	2.7462e+01	2.7424	-5.801780	0.000426	4.257983	0.721322	0.000043
 278	2.7561e+01	2.7542	-5.761860	0.000401	4.012330	0.679707	0.000040
 279	2.7661e+01	2.7625	-5.720311	0.000418	4.176099	0.707450	0.000042
 280	2.7761e+01	2.7715	-5.680799	0.000397	3.971388	0.672771	0.000040
 281	2.7860e+01	2.7817	-5.634770	0.000463	4.626462	0.783744	0.000046
 282	2.7959e+01	2.7912	-5.598109	0.000368	3.684793	0.624221	0.000037
 283	2.8059e+01	2.8027	-5.554523	0.000438	4.380809	0.742129	0.000044
 284	2.8159e+01	2.8112	-5.508901	0.000459	4.585520	0.776808	0.000046
 285	2.8258e+01	2.8197	-5.470610	0.000385	3.848561	0.651964	0.000038
 286	2.8358e+01	2.8310	-5.425803	0.000450	4.503636	0.762937	0.000045
 287	2.8457e+01	2.8416	-5.387105	0.000389	3.889504	0.658900	0.000039
 288	2.8556e+01	2.8471	-5.343520	0.000438	4.380809	0.742129	0.000044
 289	2.8656e+01	2.8609	-5.298712	0.000450	4.503636	0.762937	0.000045
 290	2.8756e+01	2.8733	-5.260422	0.000385	3.848561	0.651964	0.000038
 291	2.8855e+01	2.8818	-5.218873	0.000418	4.176099	0.707450	0.000042
 292	2.8954e+01	2.8927	-5.175287	0.000438	4.380809	0.742129	0.000044
 293	2.9054e+01	2.9005	-5.131294	0.000442	4.421751	0.749065	0.000044
 294	2.9154e+01	2.9120	-5.091782	0.000397	3.971388	0.672771	0.000040
 295	2.9253e+01	2.9219	-5.051048	0.000409	4.094214	0.693579	0.000041
 296	2.9352e+01	2.9334	-5.010313	0.000409	4.094214	0.693579	0.000041
 297	2.9452e+01	2.9414	-4.965913	0.000446	4.462694	0.756001	0.000045
 298	2.9552e+01	2.9517	-4.926401	0.000397	3.971388	0.672771	0.000040
 299	2.9651e+01	2.9609	-4.886481	0.000401	4.012330	0.679707	0.000040
 300	2.9750e+01	2.9715	-4.845340	0.000414	4.135156	0.700514	0.000041
 301	2.9850e+01	2.9806	-4.807457	0.000381	3.807619	0.645028	0.000038
 302	2.9950e+01	2.9903	-4.768759	0.000389	3.889504	0.658900	0.000039
 303	3.0049e+01	3.0002	-4.727618	0.000414	4.135156	0.700514	0.000041
 304	3.0148e+01	3.0073	-4.684439	0.000434	4.339867	0.735193	0.000043
 305	3.0248e+01	3.0206	-4.646964	0.000377	3.766677	0.638092	0.000038
 306	3.0348e+01	3.0328	-4.608674	0.000385	3.848561	0.651964	0.000038
 307	3.0447e+01	3.0405	-4.568754	0.000401	4.012330	0.679707	0.000040
 308	3.0547e+01	3.0483	-4.533315	0.000356	3.561966	0.603413	0.000036
 309	3.0646e+01	3.0614	-4.495025	0.000385	3.848561	0.651964	0.000038
 310	3.0745e+01	3.0703	-4.452254	0.000430	4.298925	0.728258	0.000043
 311	3.0845e+01	3.0811	-4.415593	0.000368	3.684793	0.624221	0.000037
 312	3.0945e+01	3.0919	-4.378118	0.000377	3.766677	0.638092	0.000038
 313	3.1044e+01	3.1020	-4.333310	0.000450	4.503636	0.762937	0.000045
 314	3.1143e+01	3.1106	-4.293390	0.000401	4.012330	0.679707	0.000040
 315	3.1243e+01	3.1210	-4.255100	0.000385	3.848561	0.651964	0.000038
 316	3.1343e+01	3.1300	-4.214366	0.000409	4.094214	0.693579	0.000041
 317	3.1442e+01	3.1421	-4.174039	0.000405	4.053272	0.686643	0.000041
 318	3.1541e+01	3.1481	-4.134527	0.000397	3.971388	0.672771	0.000040
 319	3.1641e+01	3.1609	-4.093385	0.000414	4.135156	0.700514	0.000041
 320	3.1741e+01	3.1686	-4.051429	0.000422	4.217041	0.714386	0.000042
 321	3.1840e+01	3.1805	-4.011917	0.000397	3.971388	0.672771	0.000040
 322	3.1939e+01	3.1911	-3.975256	0.000368	3.684793	0.624221	0.000037
 323	3.2039e+01	3.2019	-3.933300	0.000422	4.217041	0.714386	0.000042
 324	3.2139e+01	3.2104	-3.894602	0.000389	3.889504	0.658900	0.000039
 325	3.2238e+01	3.2211	-3.856312	0.000385	3.848561	0.651964	0.000038
 326	3.2337e+01	3.2317	-3.813541	0.000430	4.298925	0.728258	0.000043
 327	3.2437e+01	3.2424	-3.774029	0.000397	3.971388	0.672771	0.000040
 328	3.2536e+01	3.2492	-3.728814	0.000454	4.544578	0.769872	0.000045
 329	3.2636e+01	3.2604	-3.690931	0.000381	3.807619	0.645028	0.000038
 330	3.2736e+01	3.2681	-3.654677	0.000364	3.643851	0.617285	0.000036
 331	3.2835e+01	3.2793	-3.615165	0.000397	3.971388	0.672771	0.000040
 332	3.2934e+01	3.2919	-3.574838	0.000405	4.053272	0.686643	0.000041
 333	3.3034e+01	3.3009	-3.538177	0.000368	3.684793	0.624221	0.000037
 334	3.3133e+01	3.3083	-3.500702	0.000377	3.766677	0.638092	0.000038
 335	3.3233e+01	3.3205	-3.461190	0.000397	3.971388	0.672771	0.000040
 336	3.3333e+01	3.3294	-3.425344	0.000360	3.602909	0.610349	0.000036
 337	3.3432e+01	3.3379	-3.386646	0.000389	3.889504	0.658900	0.000039
 338	3.3532e+01	3.3477	-3.351207	0.000356	3.561966	0.603413	0.000036
 339	3.3631e+01	3.3585	-3.312510	0.000389	3.889504	0.658900	0.000039
 340	3.3730e+01	3.3701	-3.275034	0.000377	3.766677	0.638092	0.000038
 341	3.3830e+01	3.3819	-3.237151	0.000381	3.807619	0.645028	0.000038
 342	3.3929e+01	3.3858	-3.200083	0.000373	3.725735	0.631157	0.000037
 343	3.4029e+01	3.4005	-3.163830	0.000364	3.643851	0.617285	0.000036
 344	3.4129e+01	3.4076	-3.126354	0.000377	3.766677	0.638092	0.000038
 345	3.4228e+01	3.4240	-3.093359	0.000332	3.316314	0.561799	0.000033
 346	3.4328e+01	3.4295	-3.055069	0.000385	3.848561	0.651964	0.000038
 347	3.4427e+01	3.4392	-3.020445	0.000348	3.480082	0.589542	0.000035
 348	3.4526e+01	3.4448	-2.984599	0.000360	3.602909	0.610349	0.000036
 349	3.4626e+01	3.4631	-2.944679	0.000401	4.012330	0.679707	0.000040
 350	3.4725e+01	3.4700	-2.910463	0.000344	3.439140	0.582606	0.000034
 351	3.4825e+01	3.4776	-2.874209	0.000364	3.643851	0.617285	0.000036
 352	3.4925e+01	3.4907	-2.835104	0.000393	3.930446	0.665836	0.000039
 353	3.5024e+01	3.4982	-2.804146	0.000311	3.111603	0.527120	0.000031
 354	3.5123e+01	3.5090	-2.767485	0.000368	3.684793	0.624221	0.000037
 355	3.5223e+01	3.5174	-2.729602	0.000381	3.807619	0.645028	0.000038
 356	3.5322e+01	3.5244	-2.692127	0.000377	3.766677	0.638092	0.000038
 357	3.5422e+01	3.5398	-2.658725	0.000336	3.357256	0.568735	0.000034
 358	3.5522e+01	3.5491	-2.616361	0.000426	4.257983	0.721322	0.000043
 359	3.5621e+01	3.5600	-2.584588	0.000319	3.193487	0.540991	0.000032
 360	3.5721e+01	3.5676	-2.546706	0.000381	3.807619	0.645028	0.000038
 361	3.5820e+01	3.5812	-2.515748	0.000311	3.111603	0.527120	0.000031
 362	3.5919e+01	3.5886	-2.476643	0.000393	3.930446	0.665836	0.000039
 363	3.6019e+01	3.5995	-2.440389	0.000364	3.643851	0.617285	0.000036
 364	3.6118e+01	3.6086	-2.406172	0.000344	3.439140	0.582606	0.000034
 365	3.6218e+01	3.6196	-2.373585	0.000328	3.275371	0.554863	0.000033
 366	3.6318e+01	3.6256	-2.338961	0.000348	3.480082	0.589542	0.000035
 367	3.6417e+01	3.6379	-2.308410	0.000307	3.070661	0.520184	0.000031
 368	3.6517e+01	3.6471	-2.272564	0.000360	3.602909	0.610349	0.000036
 369	3.6616e+01	3.6593	-2.239569	0.000332	3.316314	0.561799	0.000033
 370	3.6715e+01	3.6684	-2.205760	0.000340	3.398198	0.575670	0.000034
 371	3.6815e+01	3.6797	-2.171136	0.000348	3.480082	0.589542	0.000035
 372	3.6914e+01	3.6865	-2.138141	0.000332	3.316314	0.561799	0.000033
 373	3.7014e+01	3.6975	-2.099036	0.000393	3.930446	0.665836	0.000039
 374	3.7114e+01	3.7078	-2.068485	0.000307	3.070661	0.520184	0.000031
 375	3.7213e+01	3.7196	-2.035898	0.000328	3.275371	0.554863	0.000033
 376	3.7313e+01	3.7280	-2.000052	0.000360	3.602909	0.610349	0.000036
 377	3.7412e+01	3.7366	-1.970723	0.000295	2.947834	0.499377	0.000029
 378	3.7511e+01	3.7464	-1.934877	0.000360	3.602909	0.610349	0.000036
 379	3.7611e+01	3.7564	-1.901068	0.000340	3.398198	0.575670	0.000034
 380	3.7711e+01	3.7661	-1.872146	0.000291	2.906892	0.492441	0.000029
 381	3.7810e+01	3.7792	-1.835078	0.000373	3.725735	0.631157	0.000037
 382	3.7910e+01	3.7882	-1.805342	0.000299	2.988776	0.506312	0.000030
 383	3.8009e+01	3.7966	-1.769089	0.000364	3.643851	0.617285	0.000036
 384	3.8108e+01	3.8059	-1.734465	0.000348	3.480082	0.589542	0.000035
 385	3.8208e+01	3.8145	-1.700248	0.000344	3.439140	0.582606	0.000034
 386	3.8307e+01	3.8284	-1.663180	0.000373	3.725735	0.631157	0.000037
 387	3.8407e+01	3.8372	-1.632222	0.000311	3.111603	0.527120	0.000031
 388	3.8507e+01	3.8489	-1.596375	0.000360	3.602909	0.610349	0.000036
 389	3.8606e+01	3.8573	-1.559715	0.000368	3.684793	0.624221	0.000037
 390	3.8706e+01	3.8706	-1.525091	0.000348	3.480082	0.589542	0.000035
 391	3.8805e+01	3.8762	-1.485986	0.000393	3.930446	0.665836	0.000039
 392	3.8904e+01	3.8839	-1.450954	0.000352	3.521024	0.596478	0.000035
 393	3.9004e+01	3.8960	-1.417959	0.000332	3.316314	0.561799	0.000033
 394	3.9103e+01	3.9079	-1.384965	0.000332	3.316314	0.561799	0.000033
 395	3.9203e+01	3.9178	-1.346674	0.000385	3.848561	0.651964	0.000038
 396	3.9303e+01	3.9251	-1.314494	0.000323	3.234429	0.547927	0.000032
 397	3.9402e+01	3.9367	-1.277426	0.000373	3.725735	0.631157	0.000037
 398	3.9502e+01	3.9475	-1.241987	0.000356	3.561966	0.603413	0.000036
 399	3.9601e+01	3.9547	-1.212251	0.000299	2.988776	0.506312	0.000030
 400	3.9700e+01	3.9626	-1.177220	0.000352	3.521024	0.596478	0.000035
 401	3.9800e+01	3.9783	-1.143411	0.000340	3.398198	0.575670	0.000034
 402	3.9900e+01	3.9872	-1.108379	0.000352	3.521024	0.596478	0.000035
 403	3.9999e+01	3.9960	-1.072940	0.000356	3.561966	0.603413	0.000036
 404	4.0099e+01	4.0041	-1.041982	0.000311	3.111603	0.527120	0.000031
 405	4.0198e+01	4.0148	-1.012246	0.000299	2.988776	0.506312	0.000030
 406	4.0297e+01	4.0282	-0.973141	0.000393	3.930446	0.665836	0.000039
 407	4.0397e+01	4.0344	-0.938925	0.000344	3.439140	0.582606	0.000034
 408	4.0496e+01	4.0458	-0.902264	0.000368	3.684793	0.624221	0.000037
 409	4.0596e+01	4.0569	-0.871713	0.000307	3.070661	0.520184	0.000031
 410	4.0696e+01	4.0652	-0.839940	0.000319	3.193487	0.540991	0.000032
 411	4.0795e+01	4.0765	-0.805316	0.000348	3.480082	0.589542	0.000035
 412	4.0895e+01	4.0862	-0.772321	0.000332	3.316314	0.561799	0.000033
 413	4.0994e+01	4.0973	-0.738105	0.000344	3.439140	0.582606	0.000034
 414	4.1093e+01	4.1051	-0.704295	0.000340	3.398198	0.575670	0.000034
 415	4.1193e+01	4.1160	-0.672115	0.000323	3.234429	0.547927	0.000032
 416	4.1292e+01	4.1263	-0.634640	0.000377	3.766677	0.638092	0.000038
 417	4.1392e+01	4.1348	-0.603274	0.000315	3.152545	0.534056	0.000032
 418	4.1492e+01	4.1461	-0.566613	0.000368	3.684793	0.624221	0.000037
 419	4.1591e+01	4.1567	-0.529138	0.000377	3.766677	0.638092	0.000038
 420	4.1691e+01	4.1651	-0.493699	0.000356	3.561966	0.603413	0.000036
 421	4.1790e+01	4.1772	-0.458260	0.000356	3.561966	0.603413	0.000036
 422	4.1889e+01	4.1858	-0.424044	0.000344	3.439140	0.582606	0.000034
 423	4.1989e+01	4.1987	-0.387383	0.000368	3.684793	0.624221	0.000037
 424	4.2089e+01	4.2046	-0.351129	0.000364	3.643851	0.617285	0.000036
 425	4.2188e+01	4.2158	-0.313654	0.000377	3.766677	0.638092	0.000038
 426	4.2288e+01	4.2229	-0.279030	0.000348	3.480082	0.589542	0.000035
 427	4.2387e+01	4.2370	-0.245220	0.000340	3.398198	0.575670	0.000034
 428	4.2486e+01	4.2419	-0.206523	0.000389	3.889504	0.658900	0.000039
 429	4.2586e+01	4.2539	-0.172713	0.000340	3.398198	0.575670	0.000034
 430	4.2685e+01	4.2668	-0.137274	0.000356	3.561966	0.603413	0.000036
 431	4.2785e+01	4.2748	-0.101836	0.000356	3.561966	0.603413	0.000036
 432	4.2885e+01	4.2861	-0.066804	0.000352	3.521024	0.596478	0.000035
 433	4.2984e+01	4.2956	-0.027292	0.000397	3.971388	0.672771	0.000040
 434	4.3084e+01	4.3041	0.004888	0.000323	3.234429	0.547927	0.000032
 435	4.3183e+01	4.3150	0.040734	0.000360	3.602909	0.610349	0.000036
 436	4.3282e+01	4.3260	0.080654	0.000401	4.012330	0.679707	0.000040
 437	4.3382e+01	4.3357	0.116907	0.000364	3.643851	0.617285	0.000036
 438	4.3481e+01	4.3450	0.149087	0.000323	3.234429	0.547927	0.000032
 439	4.3581e+01	4.3554	0.183711	0.000348	3.480082	0.589542	0.000035
 440	4.3681e+01	4.3655	0.221594	0.000381	3.807619	0.645028	0.000038
 441	4.3780e+01	4.3725	0.258255	0.000368	3.684793	0.624221	0.000037
 442	4.3880e+01	4.3855	0.294509	0.000364	3.643851	0.617285	0.000036
 443	4.3979e+01	4.3955	0.328725	0.000344	3.439140	0.582606	0.000034
 444	4.4078e+01	4.4033	0.364164	0.000356	3.561966	0.603413	0.000036
 445	4.4178e+01	4.4159	0.402454	0.000385	3.848561	0.651964	0.000038
 446	4.4278e+01	4.4236	0.438301	0.000360	3.602909	0.610349	0.000036
 447	4.4377e+01	4.4336	0.470888	0.000328	3.275371	0.554863	0.000033
 448	4.4477e+01	4.4419	0.509586	0.000389	3.889504	0.658900	0.000039
 449	4.4576e+01	4.4539	0.549098	0.000397	3.971388	0.672771	0.000040
 450	4.4675e+01	4.4631	0.584944	0.000360	3.602909	0.610349	0.000036
 451	4.4775e+01	4.4738	0.624863	0.000401	4.012330	0.679707	0.000040
 452	4.4874e+01	4.4863	0.663968	0.000393	3.930446	0.665836	0.000039
 453	4.4974e+01	4.4919	0.697778	0.000340	3.398198	0.575670	0.000034
 454	4.5074e+01	4.5041	0.738512	0.000409	4.094214	0.693579	0.000041
 455	4.5173e+01	4.5166	0.773136	0.000348	3.480082	0.589542	0.000035
 456	4.5273e+01	4.5232	0.813056	0.000401	4.012330	0.679707	0.000040
 457	4.5372e+01	4.5317	0.846865	0.000340	3.398198	0.575670	0.000034
 458	4.5471e+01	4.5427	0.885155	0.000385	3.848561	0.651964	0.000038
 459	4.5571e+01	4.5525	0.923853	0.000389	3.889504	0.658900	0.000039
 460	4.5670e+01	4.5675	0.959699	0.000360	3.602909	0.610349	0.000036
 461	4.5770e+01	4.5738	1.000026	0.000405	4.053272	0.686643	0.000041
 462	4.5870e+01	4.5824	1.040353	0.000405	4.053272	0.686643	0.000041
 463	4.5969e+01	4.5921	1.075384	0.000352	3.521024	0.596478	0.000035
 464	4.6069e+01	4.6056	1.109601	0.000344	3.439140	0.582606	0.000034
 465	4.6168e+01	4.6116	1.147891	0.000385	3.848561	0.651964	0.000038
 466	4.6267e+01	4.6210	1.183737	0.000360	3.602909	0.610349	0.000036
 467	4.6367e+01	4.6349	1.221620	0.000381	3.807619	0.645028	0.000038
 468	4.6467e+01	4.6415	1.255430	0.000340	3.398198	0.575670	0.000034
 469	4.6566e+01	4.6529	1.292905	0.000377	3.766677	0.638092	0.000038
 470	4.6666e+01	4.6618	1.328344	0.000356	3.561966	0.603413	0.000036
 471	4.6765e+01	4.6729	1.364190	0.000360	3.602909	0.610349	0.000036
 472	4.6864e+01	4.6825	1.398407	0.000344	3.439140	0.582606	0.000034
 473	4.6964e+01	4.6931	1.432216	0.000340	3.398198	0.575670	0.000034
 474	4.7063e+01	4.7018	1.468877	0.000368	3.684793	0.624221	0.000037
 475	4.7163e+01	4.7120	1.501465	0.000328	3.275371	0.554863	0.000033
 476	4.7263e+01	4.7228	1.538533	0.000373	3.725735	0.631157	0.000037
 477	4.7362e+01	4.7329	1.569898	0.000315	3.152545	0.534056	0.000032
 478	4.7462e+01	4.7402	1.605744	0.000360	3.602909	0.610349	0.000036
 479	4.7561e+01	4.7541	1.642813	0.000373	3.725735	0.631157	0.000037
 480	4.7660e+01	4.7608	1.674585	0.000319	3.193487	0.540991	0.000032
 481	4.7760e+01	4.7729	1.710431	0.000360	3.602909	0.610349	0.000036
 482	4.7859e+01	4.7823	1.744648	0.000344	3.439140	0.582606	0.000034
 483	4.7959e+01	4.7955	1.783753	0.000393	3.930446	0.665836	0.000039
 484	4.8059e+01	4.7997	1.817155	0.000336	3.357256	0.568735	0.000034
 485	4.8158e+01	4.8104	1.855445	0.000385	3.848561	0.651964	0.000038
 486	4.8258e+01	4.8222	1.890884	0.000356	3.561966	0.603413	0.000036
 487	4.8357e+01	4.8305	1.926730	0.000360	3.602909	0.610349	0.000036
 488	4.8456e+01	4.8418	1.961762	0.000352	3.521024	0.596478	0.000035
 489	4.8556e+01	4.8509	2.000867	0.000393	3.930446	0.665836	0.000039
 490	4.8656e+01	4.8637	2.032232	0.000315	3.152545	0.534056	0.000032
 491	4.8755e+01	4.8723	2.068485	0.000364	3.643851	0.617285	0.000036
 492	4.8855e+01	4.8829	2.106368	0.000381	3.807619	0.645028	0.000038
 493	4.8954e+01	4.8927	2.140992	0.000348	3.480082	0.589542	0.000035
 494	4.9053e+01	4.9033	2.175209	0.000344	3.439140	0.582606	0.000034
 495	4.9153e+01	4.9121	2.210241	0.000352	3.521024	0.596478	0.000035
 496	4.9252e+01	4.9225	2.250160	0.000401	4.012330	0.679707	0.000040
 497	4.9352e+01	4.9299	2.283970	0.000340	3.398198	0.575670	0.000034
 498	4.9452e+01	4.9415	2.319408	0.000356	3.561966	0.603413	0.000036
 499	4.9551e+01	4.9516	2.354847	0.000356	3.561966	0.603413	0.000036
 500	4.9651e+01	4.9615	2.386620	0.000319	3.193487	0.540991	0.000032
 501	4.9750e+01	4.9737	2.421244	0.000348	3.480082	0.589542	0.000035
 502	4.9849e+01	4.9822	2.456683	0.000356	3.561966	0.603413	0.000036
 503	4.9949e+01	4.9929	2.489678	0.000332	3.316314	0.561799	0.000033
 504	5.0048e+01	5.0021	2.522265	0.000328	3.275371	0.554863	0.000033
 505	5.0148e+01	5.0112	2.553630	0.000315	3.152545	0.534056	0.000032
 506	5.0248e+01	5.0231	2.589884	0.000364	3.643851	0.617285	0.000036
 507	5.0347e+01	5.0300	2.620435	0.000307	3.070661	0.520184	0.000031
 508	5.0447e+01	5.0411	2.650985	0.000307	3.070661	0.520184	0.000031
 509	5.0546e+01	5.0497	2.685202	0.000344	3.439140	0.582606	0.000034
 510	5.0645e+01	5.0613	2.716975	0.000319	3.193487	0.540991	0.000032
 511	5.0745e+01	5.0703	2.749155	0.000323	3.234429	0.547927	0.000032
 512	5.0844e+01	5.0817	2.782150	0.000332	3.316314	0.561799	0.000033
 513	5.0944e+01	5.0912	2.815552	0.000336	3.357256	0.568735	0.000034
 514	5.1044e+01	5.1055	2.846510	0.000311	3.111603	0.527120	0.000031
 515	5.1143e+01	5.1119	2.879912	0.000336	3.357256	0.568735	0.000034
 516	5.1242e+01	5.1189	2.913314	0.000336	3.357256	0.568735	0.000034
 517	5.1342e+01	5.1289	2.943457	0.000303	3.029719	0.513248	0.000030
 518	5.1441e+01	5.1392	2.976859	0.000336	3.357256	0.568735	0.000034
 519	5.1541e+01	5.1516	3.005781	0.000291	2.906892	0.492441	0.000029
 520	5.1641e+01	5.1601	3.038368	0.000328	3.275371	0.554863	0.000033
 521	5.1740e+01	5.1714	3.070141	0.000319	3.193487	0.540991	0.000032
 522	5.1840e+01	5.1812	3.102321	0.000323	3.234429	0.547927	0.000032
 523	5.1939e+01	5.1896	3.134908	0.000328	3.275371	0.554863	0.000033
 524	5.2038e+01	5.2010	3.168718	0.000340	3.398198	0.575670	0.000034
 525	5.2138e+01	5.2071	3.197232	0.000287	2.865950	0.485505	0.000029
 526	5.2237e+01	5.2187	3.231041	0.000340	3.398198	0.575670	0.000034
 527	5.2337e+01	5.2285	3.266480	0.000356	3.561966	0.603413	0.000036
 528	5.2437e+01	5.2393	3.295401	0.000291	2.906892	0.492441	0.000029
 529	5.2536e+01	5.2494	3.327174	0.000319	3.193487	0.540991	0.000032
 530	5.2636e+01	5.2599	3.354059	0.000270	2.702181	0.457762	0.000027
 531	5.2735e+01	5.2715	3.387053	0.000332	3.316314	0.561799	0.000033
 532	5.2834e+01	5.2813	3.417604	0.000307	3.070661	0.520184	0.000031
 533	5.2934e+01	5.2894	3.447747	0.000303	3.029719	0.513248	0.000030
 534	5.3033e+01	5.3008	3.478298	0.000307	3.070661	0.520184	0.000031
 535	5.3133e+01	5.3101	3.505997	0.000278	2.784066	0.471634	0.000028
 536	5.3233e+01	5.3156	3.537363	0.000315	3.152545	0.534056	0.000032
 537	5.3332e+01	5.3274	3.566284	0.000291	2.906892	0.492441	0.000029
 538	5.3431e+01	5.3388	3.596020	0.000299	2.988776	0.506312	0.000030
 539	5.3531e+01	5.3500	3.623719	0.000278	2.784066	0.471634	0.000028
 540	5.3630e+01	5.3610	3.653863	0.000303	3.029719	0.513248	0.000030
 541	5.3730e+01	5.3680	3.686450	0.000328	3.275371	0.554863	0.000033
 542	5.3830e+01	5.3831	3.711298	0.000250	2.497471	0.423083	0.000025
 543	5.3929e+01	5.3893	3.741441	0.000303	3.029719	0.513248	0.000030
 544	5.4029e+01	5.3983	3.771992	0.000307	3.070661	0.520184	0.000031
 545	5.4128e+01	5.4092	3.802543	0.000307	3.070661	0.520184	0.000031
 546	5.4227e+01	5.4208	3.830649	0.000283	2.825008	0.478569	0.000028
 547	5.4327e+01	5.4297	3.858756	0.000283	2.825008	0.478569	0.000028
 548	5.4426e+01	5.4366	3.888085	0.000295	2.947834	0.499377	0.000029
 549	5.4526e+01	5.4479	3.919450	0.000315	3.152545	0.534056	0.000032
 550	5.4626e+01	5.4575	3.947964	0.000287	2.865950	0.485505	0.000029
 551	5.4725e+01	5.4670	3.982181	0.000344	3.439140	0.582606	0.000034
 552	5.4825e+01	5.4803	4.009880	0.000278	2.784066	0.471634	0.000028
 553	5.4924e+01	5.4865	4.039616	0.000299	2.988776	0.506312	0.000030
 554	5.5023e+01	5.4974	4.070574	0.000311	3.111603	0.527120	0.000031
 555	5.5123e+01	5.5079	4.103162	0.000328	3.275371	0.554863	0.000033
 556	5.5222e+01	5.5152	4.133305	0.000303	3.029719	0.513248	0.000030
 557	5.5322e+01	5.5288	4.164263	0.000311	3.111603	0.527120	0.000031
 558	5.5422e+01	5.5392	4.197258	0.000332	3.316314	0.561799	0.000033
 559	5.5521e+01	5.5479	4.227401	0.000303	3.029719	0.513248	0.000030
 560	5.5620e+01	5.5583	4.258359	0.000311	3.111603	0.527120	0.000031
 561	5.5720e+01	5.5688	4.291354	0.000332	3.316314	0.561799	0.000033
 562	5.5819e+01	5.5773	4.320682	0.000295	2.947834	0.499377	0.000029
 563	5.5919e+01	5.5898	4.354085	0.000336	3.357256	0.568735	0.000034
 564	5.6019e+01	5.5978	4.384228	0.000303	3.029719	0.513248	0.000030
 565	5.6118e+01	5.6077	4.411927	0.000278	2.784066	0.471634	0.000028
 566	5.6218e+01	5.6188	4.444107	0.000323	3.234429	0.547927	0.000032
 567	5.6317e+01	5.6278	4.473843	0.000299	2.988776	0.506312	0.000030
 568	5.6416e+01	5.6376	4.503579	0.000299	2.988776	0.506312	0.000030
 569	5.6516e+01	5.6481	4.532501	0.000291	2.906892	0.492441	0.000029
 570	5.6615e+01	5.6579	4.561829	0.000295	2.947834	0.499377	0.000029
 571	5.6715e+01	5.6699	4.590343	0.000287	2.865950	0.485505	0.000029
 572	5.6815e+01	5.6777	4.622931	0.000328	3.275371	0.554863	0.000033
 573	5.6914e+01	5.6856	4.651445	0.000287	2.865950	0.485505	0.000029
 574	5.7014e+01	5.6982	4.679959	0.000287	2.865950	0.485505	0.000029
 575	5.7113e+01	5.7078	4.714175	0.000344	3.439140	0.582606	0.000034
 576	5.7212e+01	5.7163	4.742282	0.000283	2.825008	0.478569	0.000028
 577	5.7312e+01	5.7261	4.772018	0.000299	2.988776	0.506312	0.000030
 578	5.7411e+01	5.7397	4.798495	0.000266	2.661239	0.450826	0.000027
 579	5.7511e+01	5.7491	4.829046	0.000307	3.070661	0.520184	0.000031
 580	5.7611e+01	5.7569	4.856745	0.000278	2.784066	0.471634	0.000028
 581	5.7710e+01	5.7668	4.889333	0.000328	3.275371	0.554863	0.000033
 582	5.7809e+01	5.7742	4.919476	0.000303	3.029719	0.513248	0.000030
 583	5.7909e+01	5.7830	4.949619	0.000303	3.029719	0.513248	0.000030
 584	5.8008e+01	5.7964	4.977726	0.000283	2.825008	0.478569	0.000028
 585	5.8108e+01	5.8065	5.009091	0.000315	3.152545	0.534056	0.000032
 586	5.8208e+01	5.8169	5.039642	0.000307	3.070661	0.520184	0.000031
 587	5.8307e+01	5.8289	5.074266	0.000348	3.480082	0.589542	0.000035
 588	5.8407e+01	5.8353	5.105224	0.000311	3.111603	0.527120	0.000031
 589	5.8506e+01	5.8451	5.141478	0.000364	3.643851	0.617285	0.000036
 590	5.8605e+01	5.8574	5.169992	0.000287	2.865950	0.485505	0.000029
 591	5.8705e+01	5.8663	5.201357	0.000315	3.152545	0.534056	0.000032
 592	5.8804e+01	5.8793	5.234759	0.000336	3.357256	0.568735	0.000034
 593	5.8904e+01	5.8897	5.262458	0.000278	2.784066	0.471634	0.000028
 594	5.9004e+01	5.8950	5.293824	0.000315	3.152545	0.534056	0.000032
 595	5.9103e+01	5.9058	5.329670	0.000360	3.602909	0.610349	0.000036
 596	5.9203e+01	5.9190	5.357777	0.000283	2.825008	0.478569	0.000028
 597	5.9302e+01	5.9264	5.390771	0.000332	3.316314	0.561799	0.000033
 598	5.9401e+01	5.9365	5.425395	0.000348	3.480082	0.589542	0.000035
 599	5.9501e+01	5.9480	5.456761	0.000315	3.152545	0.534056	0.000032
 600	5.9600e+01	5.9570	5.488534	0.000319	3.193487	0.540991	0.000032
 601	5.9700e+01	5.9687	5.518677	0.000303	3.029719	0.513248	0.000030
 602	5.9800e+01	5.9719	5.552079	0.000336	3.357256	0.568735	0.000034
 603	5.9899e+01	5.9872	5.583852	0.000319	3.193487	0.540991	0.000032
 604	5.9998e+01	5.9968	5.614810	0.000311	3.111603	0.527120	0.000031
 605	6.0098e+01	6.0093	5.644953	0.000303	3.029719	0.513248	0.000030
 606	6.0197e+01	6.0163	5.678763	0.000340	3.398198	0.575670	0.000034
 607	6.0297e+01	6.0257	5.710943	0.000323	3.234429	0.547927	0.000032
 608	6.0397e+01	6.0345	5.741086	0.000303	3.029719	0.513248	0.000030
 609	6.0496e+01	6.0467	5.774488	0.000336	3.357256	0.568735	0.000034
 610	6.0596e+01	6.0577	5.806668	0.000323	3.234429	0.547927	0.000032
 611	6.0695e+01	6.0656	5.835997	0.000295	2.947834	0.499377	0.000029
 612	6.0794e+01	6.0769	5.868177	0.000323	3.234429	0.547927	0.000032
 613	6.0894e+01	6.0845	5.904023	0.000360	3.602909	0.610349	0.000036
 614	6.0993e+01	6.0955	5.936203	0.000323	3.234429	0.547927	0.000032
 615	6.1093e+01	6.1047	5.967976	0.000319	3.193487	0.540991	0.000032
 616	6.1193e+01	6.1134	6.002192	0.000344	3.439140	0.582606	0.000034
 617	6.1292e+01	6.1233	6.038853	0.000368	3.684793	0.624221	0.000037
 618	6.1392e+01	6.1355	6.071033	0.000323	3.234429	0.547927	0.000032
 619	6.1491e+01	6.1457	6.102806	0.000319	3.193487	0.540991	0.000032
 620	6.1590e+01	6.1565	6.140689	0.000381	3.807619	0.645028	0.000038
 621	6.1690e+01	6.1657	6.173276	0.000328	3.275371	0.554863	0.000033
 622	6.1789e+01	6.1743	6.210752	0.000377	3.766677	0.638092	0.000038
 623	6.1889e+01	6.1846	6.242117	0.000315	3.152545	0.534056	0.000032
 624	6.1989e+01	6.1941	6.275112	0.000332	3.316314	0.561799	0.000033
 625	6.2088e+01	6.2051	6.307699	0.000328	3.275371	0.554863	0.000033
 626	6.2188e+01	6.2160	6.342731	0.000352	3.521024	0.596478	0.000035
 627	6.2287e+01	6.2276	6.375318	0.000328	3.275371	0.554863	0.000033
 628	6.2386e+01	6.2305	6.407906	0.000328	3.275371	0.554863	0.000033
 629	6.2486e+01	6.2451	6.446603	0.000389	3.889504	0.658900	0.000039
 630	6.2586e+01	6.2551	6.473895	0.000274	2.743124	0.464698	0.000027
 631	6.2685e+01	6.2641	6.508519	0.000348	3.480082	0.589542	0.000035
 632	6.2785e+01	6.2746	6.540699	0.000323	3.234429	0.547927	0.000032
 633	6.2884e+01	6.2855	6.572472	0.000319	3.193487	0.540991	0.000032
 634	6.2983e+01	6.2970	6.607096	0.000348	3.480082	0.589542	0.000035
 635	6.3083e+01	6.3044	6.633981	0.000270	2.702181	0.457762	0.000027
 636	6.3182e+01	6.3131	6.670234	0.000364	3.643851	0.617285	0.000036
 637	6.3282e+01	6.3239	6.704451	0.000344	3.439140	0.582606	0.000034
 638	6.3382e+01	6.3332	6.733780	0.000295	2.947834	0.499377	0.000029
 639	6.3481e+01	6.3430	6.765145	0.000315	3.152545	0.534056	0.000032
 640	6.3581e+01	6.3535	6.795288	0.000303	3.029719	0.513248	0.000030
 641	6.3680e+01	6.3641	6.825432	0.000303	3.029719	0.513248	0.000030
 642	6.3779e+01	6.3721	6.858834	0.000336	3.357256	0.568735	0.000034
 643	6.3879e+01	6.3845	6.888977	0.000303	3.029719	0.513248	0.000030
 644	6.3978e+01	6.3933	6.919935	0.000311	3.111603	0.527120	0.000031
 645	6.4078e+01	6.4034	6.949264	0.000295	2.947834	0.499377	0.000029
 646	6.4177e+01	6.4138	6.981851	0.000328	3.275371	0.554863	0.000033
 647	6.4277e+01	6.4249	7.015661	0.000340	3.398198	0.575670	0.000034
 648	6.4376e+01	6.4349	7.045397	0.000299	2.988776	0.506312	0.000030
 649	6.4476e+01	6.4405	7.079206	0.000340	3.398198	0.575670	0.000034
 650	6.4576e+01	6.4544	7.107313	0.000283	2.825008	0.478569	0.000028
 651	6.4675e+01	6.4638	7.139493	0.000323	3.234429	0.547927	0.000032
 652	6.4775e+01	6.4738	7.172895	0.000336	3.357256	0.568735	0.000034
 653	6.4874e+01	6.4828	7.207112	0.000344	3.439140	0.582606	0.000034
 654	6.4974e+01	6.4950	7.238884	0.000319	3.193487	0.540991	0.000032
 655	6.5073e+01	6.5000	7.271879	0.000332	3.316314	0.561799	0.000033
 656	6.5172e+01	6.5127	7.302023	0.000303	3.029719	0.513248	0.000030
 657	6.5272e+01	6.5226	7.336647	0.000348	3.480082	0.589542	0.000035
 658	6.5371e+01	6.5343	7.365161	0.000287	2.865950	0.485505	0.000029
 659	6.5471e+01	6.5453	7.396526	0.000315	3.152545	0.534056	0.000032
 660	6.5570e+01	6.5510	7.429928	0.000336	3.357256	0.568735	0.000034
 661	6.5670e+01	6.5641	7.464145	0.000344	3.439140	0.582606	0.000034
 662	6.5769e+01	6.5723	7.495918	0.000319	3.193487	0.540991	0.000032
 663	6.5869e+01	6.5804	7.523210	0.000274	2.743124	0.464698	0.000027
 664	6.5969e+01	6.5908	7.563536	0.000405	4.053272	0.686643	0.000041
 665	6.6068e+01	6.6036	7.589199	0.000258	2.579355	0.436955	0.000026
 666	6.6168e+01	6.6128	7.620564	0.000315	3.152545	0.534056	0.000032
 667	6.6267e+01	6.6232	7.647856	0.000274	2.743124	0.464698	0.000027
 668	6.6367e+01	6.6317	7.683703	0.000360	3.602909	0.610349	0.000036
 669	6.6466e+01	6.6451	7.717105	0.000336	3.357256	0.568735	0.000034
 670	6.6566e+01	6.6531	7.744397	0.000274	2.743124	0.464698	0.000027
 671	6.6665e+01	6.6636	7.772503	0.000283	2.825008	0.478569	0.000028
 672	6.6764e+01	6.6738	7.804683	0.000323	3.234429	0.547927	0.000032
 673	6.6864e+01	6.6831	7.831975	0.000274	2.743124	0.464698	0.000027
 674	6.6963e+01	6.6911	7.861711	0.000299	2.988776	0.506312	0.000030
 675	6.7063e+01	6.7013	7.891447	0.000299	2.988776	0.506312	0.000030
 676	6.7162e+01	6.7139	7.920369	0.000291	2.906892	0.492441	0.000029
 677	6.7262e+01	6.7227	7.952141	0.000319	3.193487	0.540991	0.000032
 678	6.7362e+01	6.7336	7.981470	0.000295	2.947834	0.499377	0.000029
 679	6.7461e+01	6.7417	8.006318	0.000250	2.497471	0.423083	0.000025
 680	6.7561e+01	6.7509	8.036869	0.000307	3.070661	0.520184	0.000031
 681	6.7660e+01	6.7609	8.064568	0.000278	2.784066	0.471634	0.000028
 682	6.7760e+01	6.7711	8.094711	0.000303	3.029719	0.513248	0.000030
 683	6.7859e+01	6.7803	8.123225	0.000287	2.865950	0.485505	0.000029
 684	6.7959e+01	6.7924	8.150517	0.000274	2.743124	0.464698	0.000027
 685	6.8058e+01	6.8012	8.179846	0.000295	2.947834	0.499377	0.000029
 686	6.8157e+01	6.8116	8.208360	0.000287	2.865950	0.485505	0.000029
 687	6.8257e+01	6.8238	8.236874	0.000287	2.865950	0.485505	0.000029
 688	6.8356e+01	6.8288	8.265388	0.000287	2.865950	0.485505	0.000029
 689	6.8456e+01	6.8423	8.296346	0.000311	3.111603	0.527120	0.000031
 690	6.8555e+01	6.8532	8.324045	0.000278	2.784066	0.471634	0.000028
 691	6.8655e+01	6.8584	8.350522	0.000266	2.661239	0.450826	0.000027
 692	6.8754e+01	6.8711	8.383110	0.000328	3.275371	0.554863	0.000033
 693	6.8854e+01	6.8799	8.412031	0.000291	2.906892	0.492441	0.000029
 694	6.8954e+01	6.8899	8.438101	0.000262	2.620297	0.443890	0.000026
 695	6.9053e+01	6.9012	8.466615	0.000287	2.865950	0.485505	0.000029
 696	6.9153e+01	6.9122	8.494314	0.000278	2.784066	0.471634	0.000028
 697	6.9252e+01	6.9219	8.522828	0.000287	2.865950	0.485505	0.000029
 698	6.9352e+01	6.9289	8.546861	0.000242	2.415586	0.409211	0.000024
 699	6.9451e+01	6.9428	8.578227	0.000315	3.152545	0.534056	0.000032
 700	6.9550e+01	6.9530	8.603889	0.000258	2.579355	0.436955	0.000026
 701	6.9650e+01	6.9613	8.630367	0.000266	2.661239	0.450826	0.000027
 702	6.9749e+01	6.9714	8.656437	0.000262	2.620297	0.443890	0.000026
 703	6.9849e+01	6.9819	8.677211	0.000209	2.088049	0.353725	0.000021
 704	6.9948e+01	6.9883	8.706540	0.000295	2.947834	0.499377	0.000029
 705	7.0048e+01	7.0036	8.728129	0.000217	2.169934	0.367597	0.000022
 706	7.0147e+01	7.0110	8.756643	0.000287	2.865950	0.485505	0.000029
 707	7.0247e+01	7.0207	8.784342	0.000278	2.784066	0.471634	0.000028
 708	7.0347e+01	7.0314	8.815300	0.000311	3.111603	0.527120	0.000031
 709	7.0446e+01	7.0411	8.837297	0.000221	2.210876	0.374532	0.000022
 710	7.0546e+01	7.0491	8.864996	0.000278	2.784066	0.471634	0.000028
 711	7.0645e+01	7.0581	8.888622	0.000237	2.374644	0.402276	0.000024
 712	7.0745e+01	7.0703	8.913062	0.000246	2.456529	0.416147	0.000025
 713	7.0844e+01	7.0838	8.941576	0.000287	2.865950	0.485505	0.000029
 714	7.0944e+01	7.0924	8.967646	0.000262	2.620297	0.443890	0.000026
 715	7.1043e+01	7.1010	8.992494	0.000250	2.497471	0.423083	0.000025
 716	7.1142e+01	7.1089	9.017749	0.000254	2.538413	0.430019	0.000025
 717	7.1242e+01	7.1200	9.047485	0.000299	2.988776	0.506312	0.000030
 718	7.1341e+01	7.1285	9.073555	0.000262	2.620297	0.443890	0.000026
 719	7.1441e+01	7.1420	9.096367	0.000229	2.292760	0.388404	0.000023
 720	7.1540e+01	7.1504	9.130583	0.000344	3.439140	0.582606	0.000034
 721	7.1640e+01	7.1605	9.155431	0.000250	2.497471	0.423083	0.000025
 722	7.1740e+01	7.1697	9.187204	0.000319	3.193487	0.540991	0.000032
 723	7.1839e+01	7.1785	9.212459	0.000254	2.538413	0.430019	0.000025
 724	7.1939e+01	7.1912	9.238936	0.000266	2.661239	0.450826	0.000027
 725	7.2038e+01	7.2012	9.265414	0.000266	2.661239	0.450826	0.000027
 726	7.2138e+01	7.2092	9.294742	0.000295	2.947834	0.499377	0.000029
 727	7.2237e+01	7.2192	9.324071	0.000295	2.947834	0.499377	0.000029
 728	7.2337e+01	7.2276	9.352178	0.000283	2.825008	0.478569	0.000028
 729	7.2436e+01	7.2402	9.381099	0.000291	2.906892	0.492441	0.000029
 730	7.2535e+01	7.2480	9.406762	0.000258	2.579355	0.436955	0.000026
 731	7.2635e+01	7.2592	9.436090	0.000295	2.947834	0.499377	0.000029
 732	7.2734e+01	7.2704	9.459716	0.000237	2.374644	0.402276	0.000024
 733	7.2834e+01	7.2800	9.489045	0.000295	2.947834	0.499377	0.000029
 734	7.2933e+01	7.2887	9.521632	0.000328	3.275371	0.554863	0.000033
 735	7.3033e+01	7.3007	9.542814	0.000213	2.128991	0.360661	0.000021
 736	7.3132e+01	7.3080	9.569291	0.000266	2.661239	0.450826	0.000027
 737	7.3232e+01	7.3193	9.596176	0.000270	2.702181	0.457762	0.000027
 738	7.3332e+01	7.3272	9.620616	0.000246	2.456529	0.416147	0.000025
 739	7.3431e+01	7.3399	9.649945	0.000295	2.947834	0.499377	0.000029
 740	7.3531e+01	7.3486	9.674386	0.000246	2.456529	0.416147	0.000025
 741	7.3630e+01	7.3587	9.704529	0.000303	3.029719	0.513248	0.000030
 742	7.3730e+01	7.3669	9.728969	0.000246	2.456529	0.416147	0.000025
 743	7.3829e+01	7.3801	9.757483	0.000287	2.865950	0.485505	0.000029
 744	7.3928e+01	7.3908	9.783146	0.000258	2.579355	0.436955	0.000026
 745	7.4028e+01	7.3976	9.810438	0.000274	2.743124	0.464698	0.000027
 746	7.4127e+01	7.4097	9.835286	0.000250	2.497471	0.423083	0.000025
 747	7.4227e+01	7.4181	9.861356	0.000262	2.620297	0.443890	0.000026
 748	7.4326e+01	7.4276	9.890684	0.000295	2.947834	0.499377	0.000029
 749	7.4426e+01	7.4379	9.915125	0.000246	2.456529	0.416147	0.000025
 750	7.4525e+01	7.4498	9.942824	0.000278	2.784066	0.471634	0.000028
 751	7.4625e+01	7.4587	9.968487	0.000258	2.579355	0.436955	0.000026
 752	7.4725e+01	7.4685	9.996186	0.000278	2.784066	0.471634	0.000028
 753	7.4824e+01	7.4786	10.023478	0.000274	2.743124	0.464698	0.000027
 754	7.4924e+01	7.4873	10.054436	0.000311	3.111603	0.527120	0.000031
 755	7.5023e+01	7.4971	10.079691	0.000254	2.538413	0.430019	0.000025
 756	7.5123e+01	7.5091	10.110242	0.000307	3.070661	0.520184	0.000031
 757	7.5222e+01	7.5180	10.141200	0.000311	3.111603	0.527120	0.000031
 758	7.5322e+01	7.5272	10.170121	0.000291	2.906892	0.492441	0.000029
 759	7.5421e+01	7.5385	10.197413	0.000274	2.743124	0.464698	0.000027
 760	7.5520e+01	7.5488	10.227557	0.000303	3.029719	0.513248	0.000030
 761	7.5620e+01	7.5591	10.254441	0.000270	2.702181	0.457762	0.000027
 762	7.5719e+01	7.5687	10.285807	0.000315	3.152545	0.534056	0.000032
 763	7.5819e+01	7.5771	10.310247	0.000246	2.456529	0.416147	0.000025
 764	7.5918e+01	7.5870	10.341205	0.000311	3.111603	0.527120	0.000031
 765	7.6018e+01	7.5974	10.368090	0.000270	2.702181	0.457762	0.000027
 766	7.6118e+01	7.6080	10.395382	0.000274	2.743124	0.464698	0.000027
 767	7.6217e+01	7.6177	10.427562	0.000323	3.234429	0.547927	0.000032
 768	7.6317e+01	7.6286	10.455669	0.000283	2.825008	0.478569	0.000028
 769	7.6416e+01	7.6376	10.485405	0.000299	2.988776	0.506312	0.000030
 770	7.6516e+01	7.6469	10.515141	0.000299	2.988776	0.506312	0.000030
 771	7.6615e+01	7.6582	10.545284	0.000303	3.029719	0.513248	0.000030
 772	7.6715e+01	7.6669	10.574613	0.000295	2.947834	0.499377	0.000029
 773	7.6814e+01	7.6781	10.599053	0.000246	2.456529	0.416147	0.000025
 774	7.6913e+01	7.6870	10.629604	0.000307	3.070661	0.520184	0.000031
 775	7.7013e+01	7.6973	10.658933	0.000295	2.947834	0.499377	0.000029
 776	7.7112e+01	7.7033	10.687447	0.000287	2.865950	0.485505	0.000029
 777	7.7212e+01	7.7154	10.717590	0.000303	3.029719	0.513248	0.000030
 778	7.7311e+01	7.7254	10.745697	0.000283	2.825008	0.478569	0.000028
 779	7.7411e+01	7.7356	10.776247	0.000307	3.070661	0.520184	0.000031
 780	7.7510e+01	7.7499	10.802317	0.000262	2.620297	0.443890	0.000026
 781	7.7610e+01	7.7581	10.834905	0.000328	3.275371	0.554863	0.000033
 782	7.7710e+01	7.7676	10.864641	0.000299	2.988776	0.506312	0.000030
 783	7.7809e+01	7.7794	10.897635	0.000332	3.316314	0.561799	0.000033
 784	7.7909e+01	7.7881	10.926149	0.000287	2.865950	0.485505	0.000029
 785	7.8008e+01	7.7971	10.957515	0.000315	3.152545	0.534056	0.000032
 786	7.8108e+01	7.8056	10.989695	0.000323	3.234429	0.547927	0.000032
 787	7.8207e+01	7.8159	11.019838	0.000303	3.029719	0.513248	0.000030
 788	7.8306e+01	7.8252	11.053647	0.000340	3.398198	0.575670	0.000034
 789	7.8406e+01	7.8371	11.085013	0.000315	3.152545	0.534056	0.000032
 790	7.8505e+01	7.8455	11.114749	0.000299	2.988776	0.506312	0.000030
 791	7.8605e+01	7.8558	11.146929	0.000323	3.234429	0.547927	0.000032
 792	7.8704e+01	7.8681	11.174628	0.000278	2.784066	0.471634	0.000028
 793	7.8804e+01	7.8767	11.204772	0.000303	3.029719	0.513248	0.000030
 794	7.8903e+01	7.8864	11.237359	0.000328	3.275371	0.554863	0.000033
 795	7.9003e+01	7.8979	11.272390	0.000352	3.521024	0.596478	0.000035
 796	7.9103e+01	7.9060	11.304163	0.000319	3.193487	0.540991	0.000032
 797	7.9202e+01	7.9171	11.333084	0.000291	2.906892	0.492441	0.000029
 798	7.9302e+01	7.9241	11.361598	0.000287	2.865950	0.485505	0.000029
 799	7.9401e+01	7.9363	11.392964	0.000315	3.152545	0.534056	0.000032
 800	7.9501e+01	7.9487	11.424329	0.000315	3.152545	0.534056	0.000032
 801	7.9600e+01	7.9556	11.451214	0.000270	2.702181	0.457762	0.000027
 802	7.9700e+01	7.9659	11.484616	0.000336	3.357256	0.568735	0.000034
 803	7.9799e+01	7.9765	11.514352	0.000299	2.988776	0.506312	0.000030
 804	7.9898e+01	7.9849	11.543273	0.000291	2.906892	0.492441	0.000029
 805	7.9998e+01	7.9957	11.569343	0.000262	2.620297	0.443890	0.000026
 806	8.0097e+01	8.0063	11.598672	0.000295	2.947834	0.499377	0.000029
 807	8.0197e+01	8.0167	11.628408	0.000299	2.988776	0.506312	0.000030
 808	8.0296e+01	8.0251	11.658959	0.000307	3.070661	0.520184	0.000031
 809	8.0396e+01	8.0357	11.689509	0.000307	3.070661	0.520184	0.000031
 810	8.0496e+01	8.0486	11.715579	0.000262	2.620297	0.443890	0.000026
 811	8.0595e+01	8.0546	11.746537	0.000311	3.111603	0.527120	0.000031
 812	8.0695e+01	8.0653	11.771385	0.000250	2.497471	0.423083	0.000025
 813	8.0794e+01	8.0755	11.798677	0.000274	2.743124	0.464698	0.000027
 814	8.0894e+01	8.0855	11.827191	0.000287	2.865950	0.485505	0.000029
 815	8.0993e+01	8.0954	11.855705	0.000287	2.865950	0.485505	0.000029
 816	8.1093e+01	8.1022	11.886663	0.000311	3.111603	0.527120	0.000031
 817	8.1192e+01	8.1133	11.916399	0.000299	2.988776	0.506312	0.000030
 818	8.1291e+01	8.1250	11.947764	0.000315	3.152545	0.534056	0.000032
 819	8.1391e+01	8.1344	11.979537	0.000319	3.193487	0.540991	0.000032
 820	8.1490e+01	8.1423	12.006422	0.000270	2.702181	0.457762	0.000027
 821	8.1590e+01	8.1556	12.034528	0.000283	2.825008	0.478569	0.000028
 822	8.1689e+01	8.1624	12.070374	0.000360	3.602909	0.610349	0.000036
 823	8.1789e+01	8.1783	12.098888	0.000287	2.865950	0.485505	0.000029
 824	8.1888e+01	8.1850	12.125366	0.000266	2.661239	0.450826	0.000027
 825	8.1988e+01	8.1963	12.155509	0.000303	3.029719	0.513248	0.000030
 826	8.2088e+01	8.2029	12.183208	0.000278	2.784066	0.471634	0.000028
 827	8.2187e+01	8.2148	12.217018	0.000340	3.398198	0.575670	0.000034
 828	8.2287e+01	8.2245	12.244310	0.000274	2.743124	0.464698	0.000027
 829	8.2386e+01	8.2349	12.273231	0.000291	2.906892	0.492441	0.000029
 830	8.2486e+01	8.2462	12.306226	0.000332	3.316314	0.561799	0.000033
 831	8.2585e+01	8.2533	12.335147	0.000291	2.906892	0.492441	0.000029
 832	8.2684e+01	8.2642	12.365290	0.000303	3.029719	0.513248	0.000030
 833	8.2784e+01	8.2739	12.396656	0.000315	3.152545	0.534056	0.000032
 834	8.2883e+01	8.2822	12.424355	0.000278	2.784066	0.471634	0.000028
 835	8.2983e+01	8.2954	12.452462	0.000283	2.825008	0.478569	0.000028
 836	8.3082e+01	8.3034	12.479754	0.000274	2.743124	0.464698	0.000027
 837	8.3182e+01	8.3127	12.509490	0.000299	2.988776	0.506312	0.000030
 838	8.3281e+01	8.3234	12.534745	0.000254	2.538413	0.430019	0.000025
 839	8.3381e+01	8.3317	12.562444	0.000278	2.784066	0.471634	0.000028
 840	8.3481e+01	8.3437	12.592180	0.000299	2.988776	0.506312	0.000030
 841	8.3580e+01	8.3534	12.618250	0.000262	2.620297	0.443890	0.000026
 842	8.3680e+01	8.3634	12.646357	0.000283	2.825008	0.478569	0.000028
 843	8.3779e+01	8.3717	12.669983	0.000237	2.374644	0.402276	0.000024
 844	8.3879e+01	8.3810	12.702977	0.000332	3.316314	0.561799	0.000033
 845	8.3978e+01	8.3920	12.727418	0.000246	2.456529	0.416147	0.000025
 846	8.4078e+01	8.4034	12.754303	0.000270	2.702181	0.457762	0.000027
 847	8.4177e+01	8.4103	12.781187	0.000270	2.702181	0.457762	0.000027
 848	8.4276e+01	8.4243	12.808072	0.000270	2.702181	0.457762	0.000027
 849	8.4376e+01	8.4344	12.835364	0.000274	2.743124	0.464698	0.000027
 850	8.4475e+01	8.4441	12.860212	0.000250	2.497471	0.423083	0.000025
 851	8.4575e+01	8.4546	12.889948	0.000299	2.988776	0.506312	0.000030
 852	8.4674e+01	8.4624	12.913166	0.000233	2.333702	0.395340	0.000023
 853	8.4774e+01	8.4756	12.939643	0.000266	2.661239	0.450826	0.000027
 854	8.4874e+01	8.4851	12.970194	0.000307	3.070661	0.520184	0.000031
 855	8.4973e+01	8.4935	12.995449	0.000254	2.538413	0.430019	0.000025
 856	8.5073e+01	8.5039	13.023556	0.000283	2.825008	0.478569	0.000028
 857	8.5172e+01	8.5149	13.047997	0.000246	2.456529	0.416147	0.000025
 858	8.5272e+01	8.5235	13.073252	0.000254	2.538413	0.430019	0.000025
 859	8.5371e+01	8.5362	13.100136	0.000270	2.702181	0.457762	0.000027
 860	8.5471e+01	8.5435	13.127836	0.000278	2.784066	0.471634	0.000028
 861	8.5570e+01	8.5528	13.155942	0.000283	2.825008	0.478569	0.000028
 862	8.5669e+01	8.5627	13.182420	0.000266	2.661239	0.450826	0.000027
 863	8.5769e+01	8.5718	13.210119	0.000278	2.784066	0.471634	0.000028
 864	8.5868e+01	8.5812	13.236189	0.000262	2.620297	0.443890	0.000026
 865	8.5968e+01	8.5932	13.261851	0.000258	2.579355	0.436955	0.000026
 866	8.6067e+01	8.6028	13.285477	0.000237	2.374644	0.402276	0.000024
 867	8.6167e+01	8.6125	13.311547	0.000262	2.620297	0.443890	0.000026
 868	8.6266e+01	8.6212	13.340061	0.000287	2.865950	0.485505	0.000029
 869	8.6366e+01	8.6322	13.360428	0.000205	2.047107	0.346789	0.000020
 870	8.6466e+01	8.6410	13.383647	0.000233	2.333702	0.395340	0.000023
 871	8.6565e+01	8.6524	13.409717	0.000262	2.620297	0.443890	0.000026
 872	8.6665e+01	8.6628	13.435787	0.000262	2.620297	0.443890	0.000026
 873	8.6764e+01	8.6738	13.459005	0.000233	2.333702	0.395340	0.000023
 874	8.6864e+01	8.6819	13.483038	0.000242	2.415586	0.409211	0.000024
 875	8.6963e+01	8.6921	13.511145	0.000283	2.825008	0.478569	0.000028
 876	8.7063e+01	8.7028	13.534771	0.000237	2.374644	0.402276	0.000024
 877	8.7162e+01	8.7139	13.555953	0.000213	2.128991	0.360661	0.000021
 878	8.7261e+01	8.7222	13.581208	0.000254	2.538413	0.430019	0.000025
 879	8.7361e+01	8.7315	13.606463	0.000254	2.538413	0.430019	0.000025
 880	8.7460e+01	8.7429	13.627238	0.000209	2.088049	0.353725	0.000021
 881	8.7560e+01	8.7490	13.654530	0.000274	2.743124	0.464698	0.000027
 882	8.7659e+01	8.7631	13.680600	0.000262	2.620297	0.443890	0.000026
 883	8.7759e+01	8.7714	13.702596	0.000221	2.210876	0.374532	0.000022
 884	8.7859e+01	8.7830	13.730295	0.000278	2.784066	0.471634	0.000028
 885	8.7958e+01	8.7903	13.757180	0.000270	2.702181	0.457762	0.000027
 886	8.8058e+01	8.8023	13.783250	0.000262	2.620297	0.443890	0.000026
 887	8.8157e+01	8.8129	13.806468	0.000233	2.333702	0.395340	0.000023
 888	8.8257e+01	8.8213	13.836612	0.000303	3.029719	0.513248	0.000030
 889	8.8356e+01	8.8306	13.856572	0.000201	2.006165	0.339854	0.000020
 890	8.8456e+01	8.8400	13.885900	0.000295	2.947834	0.499377	0.000029
 891	8.8555e+01	8.8504	13.911970	0.000262	2.620297	0.443890	0.000026
 892	8.8654e+01	8.8589	13.939669	0.000278	2.784066	0.471634	0.000028
 893	8.8754e+01	8.8688	13.965739	0.000262	2.620297	0.443890	0.000026
 894	8.8853e+01	8.8800	13.992624	0.000270	2.702181	0.457762	0.000027
 895	8.8953e+01	8.8940	14.019916	0.000274	2.743124	0.464698	0.000027
 896	8.9052e+01	8.9006	14.046393	0.000266	2.661239	0.450826	0.000027
 897	8.9152e+01	8.9114	14.075315	0.000291	2.906892	0.492441	0.000029
 898	8.9251e+01	8.9231	14.099755	0.000246	2.456529	0.416147	0.000025
 899	8.9351e+01	8.9319	14.126232	0.000266	2.661239	0.450826	0.000027
 900	8.9451e+01	8.9417	14.152710	0.000266	2.661239	0.450826	0.000027
 901	8.9550e+01	8.9466	14.178372	0.000258	2.579355	0.436955	0.000026
 902	8.9650e+01	8.9619	14.205664	0.000274	2.743124	0.464698	0.000027
 903	8.9749e+01	8.9673	14.230512	0.000250	2.497471	0.423083	0.000025
 904	8.9849e+01	8.9779	14.255360	0.000250	2.497471	0.423083	0.000025
 905	8.9948e+01	8.9893	14.282652	0.000274	2.743124	0.464698	0.000027
 906	9.0047e+01	9.0026	14.305463	0.000229	2.292760	0.388404	0.000023
 907	9.0147e+01	9.0101	14.331940	0.000266	2.661239	0.450826	0.000027
 908	9.0246e+01	9.0189	14.357603	0.000258	2.579355	0.436955	0.000026
 909	9.0346e+01	9.0286	14.383673	0.000262	2.620297	0.443890	0.000026
 910	9.0445e+01	9.0382	14.416668	0.000332	3.316314	0.561799	0.000033
 911	9.0545e+01	9.0527	14.439479	0.000229	2.292760	0.388404	0.000023
 912	9.0644e+01	9.0607	14.464734	0.000254	2.538413	0.430019	0.000025
 913	9.0744e+01	9.0699	14.489175	0.000246	2.456529	0.416147	0.000025
 914	9.0844e+01	9.0786	14.516467	0.000274	2.743124	0.464698	0.000027
 915	9.0943e+01	9.0887	14.540907	0.000246	2.456529	0.416147	0.000025
 916	9.1043e+01	9.0991	14.568606	0.000278	2.784066	0.471634	0.000028
 917	9.1142e+01	9.1097	14.588566	0.000201	2.006165	0.339854	0.000020
 918	9.1242e+01	9.1166	14.617080	0.000287	2.865950	0.485505	0.000029
 919	9.1341e+01	9.1309	14.646409	0.000295	2.947834	0.499377	0.000029
 920	9.1441e+01	9.1395	14.673293	0.000270	2.702181	0.457762	0.000027
 921	9.1540e+01	9.1468	14.699363	0.000262	2.620297	0.443890	0.000026
 922	9.1639e+01	9.1602	14.729099	0.000299	2.988776	0.506312	0.000030
 923	9.1739e+01	9.1699	14.758428	0.000295	2.947834	0.499377	0.000029
 924	9.1838e+01	9.1815	14.782869	0.000246	2.456529	0.416147	0.000025
 925	9.1938e+01	9.1872	14.813419	0.000307	3.070661	0.520184	0.000031
 926	9.2037e+01	9.1986	14.843563	0.000303	3.029719	0.513248	0.000030
 927	9.2137e+01	9.2074	14.873706	0.000303	3.029719	0.513248	0.000030
 928	9.2237e+01	9.2188	14.900998	0.000274	2.743124	0.464698	0.000027
 929	9.2336e+01	9.2313	14.929105	0.000283	2.825008	0.478569	0.000028
 930	9.2436e+01	9.2372	14.958841	0.000299	2.988776	0.506312	0.000030
 931	9.2535e+01	9.2512	14.984910	0.000262	2.620297	0.443890	0.000026
 932	9.2635e+01	9.2583	15.013424	0.000287	2.865950	0.485505	0.000029
 933	9.2734e+01	9.2670	15.039902	0.000266	2.661239	0.450826	0.000027
 934	9.2834e+01	9.2786	15.072896	0.000332	3.316314	0.561799	0.000033
 935	9.2933e+01	9.2889	15.101818	0.000291	2.906892	0.492441	0.000029
 936	9.3032e+01	9.3008	15.130332	0.000287	2.865950	0.485505	0.000029
 937	9.3132e+01	9.3091	15.161290	0.000311	3.111603	0.527120	0.000031
 938	9.3231e+01	9.3177	15.188582	0.000274	2.743124	0.464698	0.000027
 939	9.3331e+01	9.3276	15.217503	0.000291	2.906892	0.492441	0.000029
 940	9.3430e+01	9.3398	15.250090	0.000328	3.275371	0.554863	0.000033
 941	9.3530e+01	9.3472	15.277382	0.000274	2.743124	0.464698	0.000027
 942	9.3629e+01	9.3588	15.305896	0.000287	2.865950	0.485505	0.000029
 943	9.3729e+01	9.3684	15.334410	0.000287	2.865950	0.485505	0.000029
 944	9.3829e+01	9.3783	15.363739	0.000295	2.947834	0.499377	0.000029
 945	9.3928e+01	9.3888	15.394290	0.000307	3.070661	0.520184	0.000031
 946	9.4028e+01	9.3994	15.422804	0.000287	2.865950	0.485505	0.000029
 947	9.4127e+01	9.4067	15.454169	0.000315	3.152545	0.534056	0.000032
 948	9.4227e+01	9.4183	15.483498	0.000295	2.947834	0.499377	0.000029
 949	9.4326e+01	9.4283	15.514863	0.000315	3.152545	0.534056	0.000032
 950	9.4425e+01	9.4373	15.544192	0.000295	2.947834	0.499377	0.000029
 951	9.4525e+01	9.4485	15.574742	0.000307	3.070661	0.520184	0.000031
 952	9.4624e+01	9.4572	15.605293	0.000307	3.070661	0.520184	0.000031
 953	9.4724e+01	9.4662	15.635029	0.000299	2.988776	0.506312	0.000030
 954	9.4823e+01	9.4755	15.667617	0.000328	3.275371	0.554863	0.000033
 955	9.4923e+01	9.4888	15.703463	0.000360	3.602909	0.610349	0.000036
 956	9.5022e+01	9.4997	15.735643	0.000323	3.234429	0.547927	0.000032
 957	9.5122e+01	9.5117	15.767008	0.000315	3.152545	0.534056	0.000032
 958	9.5222e+01	9.5166	15.796337	0.000295	2.947834	0.499377	0.000029
 959	9.5321e+01	9.5237	15.827702	0.000315	3.152545	0.534056	0.000032
 960	9.5421e+01	9.5365	15.861919	0.000344	3.439140	0.582606	0.000034
 961	9.5520e+01	9.5465	15.890433	0.000287	2.865950	0.485505	0.000029
 962	9.5620e+01	9.5532	15.924242	0.000340	3.398198	0.575670	0.000034
 963	9.5719e+01	9.5654	15.956015	0.000319	3.193487	0.540991	0.000032
 964	9.5819e+01	9.5773	15.986973	0.000311	3.111603	0.527120	0.000031
 965	9.5918e+01	9.5898	16.020783	0.000340	3.398198	0.575670	0.000034
 966	9.6017e+01	9.5960	16.049704	0.000291	2.906892	0.492441	0.000029
 967	9.6117e+01	9.6088	16.079847	0.000303	3.029719	0.513248	0.000030
 968	9.6216e+01	9.6187	16.111213	0.000315	3.152545	0.534056	0.000032
 969	9.6316e+01	9.6265	16.142171	0.000311	3.111603	0.527120	0.000031
 970	9.6415e+01	9.6356	16.176795	0.000348	3.480082	0.589542	0.000035
 971	9.6515e+01	9.6484	16.201643	0.000250	2.497471	0.423083	0.000025
 972	9.6615e+01	9.6558	16.234637	0.000332	3.316314	0.561799	0.000033
 973	9.6714e+01	9.6674	16.263151	0.000287	2.865950	0.485505	0.000029
 974	9.6814e+01	9.6767	16.295331	0.000323	3.234429	0.547927	0.000032
 975	9.6913e+01	9.6875	16.326289	0.000311	3.111603	0.527120	0.000031
 976	9.7013e+01	9.6985	16.358062	0.000319	3.193487	0.540991	0.000032
 977	9.7112e+01	9.7079	16.384539	0.000266	2.661239	0.450826	0.000027
 978	9.7212e+01	9.7150	16.414683	0.000303	3.029719	0.513248	0.000030
 979	9.7311e+01	9.7260	16.446863	0.000323	3.234429	0.547927	0.000032
 980	9.7410e+01	9.7355	16.472933	0.000262	2.620297	0.443890	0.000026
 981	9.7510e+01	9.7451	16.504298	0.000315	3.152545	0.534056	0.000032
 982	9.7609e+01	9.7559	16.532405	0.000283	2.825008	0.478569	0.000028
 983	9.7709e+01	9.7671	16.562548	0.000303	3.029719	0.513248	0.000030
 984	9.7808e+01	9.7774	16.595950	0.000336	3.357256	0.568735	0.000034
 985	9.7908e+01	9.7883	16.622835	0.000270	2.702181	0.457762	0.000027
 986	9.8007e+01	9.7974	16.659903	0.000373	3.725735	0.631157	0.000037
 987	9.8107e+01	9.8059	16.689639	0.000299	2.988776	0.506312	0.000030
 988	9.8207e+01	9.8154	16.723856	0.000344	3.439140	0.582606	0.000034
 989	9.8306e+01	9.8269	16.754406	0.000307	3.070661	0.520184	0.000031
 990	9.8406e+01	9.8340	16.784142	0.000299	2.988776	0.506312	0.000030
 991	9.8505e+01	9.8465	16.820396	0.000364	3.643851	0.617285	0.000036
 992	9.8605e+01	9.8563	16.849725	0.000295	2.947834	0.499377	0.000029
 993	9.8704e+01	9.8636	16.881090	0.000315	3.152545	0.534056	0.000032
 994	9.8803e+01	9.8755	16.912048	0.000311	3.111603	0.527120	0.000031
 995	9.8903e+01	9.8848	16.942599	0.000307	3.070661	0.520184	0.000031
 996	9.9002e+01	9.8956	16.970298	0.000278	2.784066	0.471634	0.000028
 997	9.9102e+01	9.9055	17.006552	0.000364	3.643851	0.617285	0.000036
 998	9.9201e+01	9.9146	17.037102	0.000307	3.070661	0.520184	0.000031
 999	9.9301e+01	9.9238	17.068060	0.000311	3.111603	0.527120	0.000031
1000	9.9400e+01	9.9349	17.100648	0.000328	3.275371	0.554863	0.000033
1001	9.9500e+01	9.9464	17.132420	0.000319	3.193487	0.540991	0.000032
1002	9.9600e+01	9.9551	17.165415	0.000332	3.316314	0.561799	0.000033
1003	9.9699e+01	9.9658	17.195966	0.000307	3.070661	0.520184	0.000031
1004	9.9799e+01	9.9738	17.224072	0.000283	2.825008	0.478569	0.000028
1005	9.9898e+01	9.9821	17.253808	0.000299	2.988776	0.506312	0.000030
1006	9.9998e+01	9.9953	17.287211	0.000336	3.357256	0.568735	0.000034
1007	1.0010e+02	9.9854	17.268065	0.000192	1.924281	0.325982	-0.000019
1008	1.0020e+02	9.9738	17.251364	0.000168	1.678628	0.284367	-0.000017
1009	1.0030e+02	9.9636	17.239551	0.000119	1.187322	0.201138	-0.000012
1010	1.0040e+02	9.9537	17.225294	0.000143	1.432975	0.242753	-0.000014
1011	1.0050e+02	9.9451	17.208186	0.000172	1.719570	0.291303	-0.000017
1012	1.0059e+02	9.9355	17.188634	0.000197	1.965223	0.332918	-0.000020
1013	1.0069e+02	9.9249	17.174784	0.000139	1.392033	0.235817	-0.000014
1014	1.0079e+02	9.9146	17.159305	0.000156	1.555801	0.263560	-0.000016
1015	1.0089e+02	9.9058	17.136901	0.000225	2.251818	0.381468	-0.000023
1016	1.0099e+02	9.8975	17.124681	0.000123	1.228264	0.208074	-0.000012
1017	1.0109e+02	9.8877	17.105943	0.000188	1.883339	0.319046	-0.000019
1018	1.0119e+02	9.8737	17.087613	0.000184	1.842396	0.312110	-0.000018
1019	1.0129e+02	9.8633	17.067246	0.000205	2.047107	0.346789	-0.000020
1020	1.0139e+02	9.8560	17.051359	0.000160	1.596744	0.270496	-0.000016
1021	1.0149e+02	9.8454	17.033029	0.000184	1.842396	0.312110	-0.000018
1022	1.0159e+02	9.8348	17.013884	0.000192	1.924281	0.325982	-0.000019
1023	1.0169e+02	9.8267	16.995961	0.000180	1.801454	0.305175	-0.000018
1024	1.0179e+02	9.8176	16.976816	0.000192	1.924281	0.325982	-0.000019
1025	1.0189e+02	9.8051	16.954819	0.000221	2.210876	0.374532	-0.000022
1026	1.0199e+02	9.7970	16.937711	0.000172	1.719570	0.291303	-0.000017
1027	1.0209e+02	9.7852	16.921417	0.000164	1.637686	0.277431	-0.000016
1028	1.0219e+02	9.7754	16.899828	0.000217	2.169934	0.367597	-0.000022
1029	1.0229e+02	9.7663	16.881905	0.000180	1.801454	0.305175	-0.000018
1030	1.0239e+02	9.7552	16.861130	0.000209	2.088049	0.353725	-0.000021
1031	1.0248e+02	9.7466	16.841985	0.000192	1.924281	0.325982	-0.000019
1032	1.0258e+02	9.7364	16.823655	0.000184	1.842396	0.312110	-0.000018
1033	1.0268e+02	9.7274	16.802880	0.000209	2.088049	0.353725	-0.000021
1034	1.0278e+02	9.7168	16.784142	0.000188	1.883339	0.319046	-0.000019
1035	1.0288e+02	9.7108	16.762553	0.000217	2.169934	0.367597	-0.000022
1036	1.0298e+02	9.6965	16.739742	0.000229	2.292760	0.388404	-0.000023
1037	1.0308e+02	9.6851	16.713265	0.000266	2.661239	0.450826	-0.000027
1038	1.0318e+02	9.6777	16.692898	0.000205	2.047107	0.346789	-0.000020
1039	1.0328e+02	9.6663	16.667643	0.000254	2.538413	0.430019	-0.000025
1040	1.0338e+02	9.6583	16.647275	0.000205	2.047107	0.346789	-0.000020
1041	1.0348e+02	9.6487	16.624872	0.000225	2.251818	0.381468	-0.000023
1042	1.0358e+02	9.6357	16.601246	0.000237	2.374644	0.402276	-0.000024
1043	1.0368e+02	9.6273	16.580879	0.000205	2.047107	0.346789	-0.000020
1044	1.0378e+02	9.6143	16.558067	0.000229	2.292760	0.388404	-0.000023
1045	1.0388e+02	9.6063	16.535256	0.000229	2.292760	0.388404	-0.000023
1046	1.0398e+02	9.5980	16.513260	0.000221	2.210876	0.374532	-0.000022
1047	1.0408e+02	9.5869	16.487597	0.000258	2.579355	0.436955	-0.000026
1048	1.0418e+02	9.5782	16.466415	0.000213	2.128991	0.360661	-0.000021
1049	1.0428e+02	9.5655	16.442789	0.000237	2.374644	0.402276	-0.000024
1050	1.0438e+02	9.5557	16.418349	0.000246	2.456529	0.416147	-0.000025
1051	1.0447e+02	9.5477	16.396760	0.000217	2.169934	0.367597	-0.000022
1052	1.0457e+02	9.5369	16.373134	0.000237	2.374644	0.402276	-0.000024
1053	1.0467e+02	9.5290	16.353581	0.000197	1.965223	0.332918	-0.000020
1054	1.0477e+02	9.5190	16.326289	0.000274	2.743124	0.464698	-0.000027
1055	1.0487e+02	9.5068	16.307959	0.000184	1.842396	0.312110	-0.000018
1056	1.0497e+02	9.5007	16.283926	0.000242	2.415586	0.409211	-0.000024
1057	1.0507e+02	9.4908	16.267225	0.000168	1.678628	0.284367	-0.000017
1058	1.0517e+02	9.4763	16.241155	0.000262	2.620297	0.443890	-0.000026
1059	1.0527e+02	9.4727	16.222010	0.000192	1.924281	0.325982	-0.000019
1060	1.0537e+02	9.4552	16.198791	0.000233	2.333702	0.395340	-0.000023
1061	1.0547e+02	9.4503	16.176387	0.000225	2.251818	0.381468	-0.000023
1062	1.0557e+02	9.4373	16.160501	0.000160	1.596744	0.270496	-0.000016
1063	1.0567e+02	9.4257	16.137283	0.000233	2.333702	0.395340	-0.000023
1064	1.0577e+02	9.4178	16.111213	0.000262	2.620297	0.443890	-0.000026
1065	1.0587e+02	9.4082	16.092882	0.000184	1.842396	0.312110	-0.000018
1066	1.0597e+02	9.3972	16.070071	0.000229	2.292760	0.388404	-0.000023
1067	1.0607e+02	9.3887	16.046038	0.000242	2.415586	0.409211	-0.000024
1068	1.0617e+02	9.3784	16.025671	0.000205	2.047107	0.346789	-0.000020
1069	1.0627e+02	9.3701	16.002859	0.000229	2.292760	0.388404	-0.000023
1070	1.0637e+02	9.3561	15.982492	0.000205	2.047107	0.346789	-0.000020
1071	1.0647e+02	9.3481	15.956422	0.000262	2.620297	0.443890	-0.000026
1072	1.0656e+02	9.3411	15.932797	0.000237	2.374644	0.402276	-0.000024
1073	1.0666e+02	9.3286	15.905505	0.000274	2.743124	0.464698	-0.000027
1074	1.0676e+02	9.3172	15.884323	0.000213	2.128991	0.360661	-0.000021
1075	1.0686e+02	9.3079	15.860697	0.000237	2.374644	0.402276	-0.000024
1076	1.0696e+02	9.2969	15.839108	0.000217	2.169934	0.367597	-0.000022
1077	1.0706e+02	9.2874	15.818333	0.000209	2.088049	0.353725	-0.000021
1078	1.0716e+02	9.2804	15.791449	0.000270	2.702181	0.457762	-0.000027
1079	1.0726e+02	9.2664	15.767415	0.000242	2.415586	0.409211	-0.000024
1080	1.0736e+02	9.2606	15.746234	0.000213	2.128991	0.360661	-0.000021
1081	1.0746e+02	9.2487	15.720571	0.000258	2.579355	0.436955	-0.000026
1082	1.0756e+02	9.2393	15.696538	0.000242	2.415586	0.409211	-0.000024
1083	1.0766e+02	9.2287	15.671690	0.000250	2.497471	0.423083	-0.000025
1084	1.0776e+02	9.2181	15.650508	0.000213	2.128991	0.360661	-0.000021
1085	1.0786e+02	9.2091	15.622402	0.000283	2.825008	0.478569	-0.000028
1086	1.0796e+02	9.1980	15.600405	0.000221	2.210876	0.374532	-0.000022
1087	1.0806e+02	9.1890	15.578409	0.000221	2.210876	0.374532	-0.000022
1088	1.0816e+02	9.1797	15.559671	0.000188	1.883339	0.319046	-0.000019
1089	1.0826e+02	9.1669	15.538489	0.000213	2.128991	0.360661	-0.000021
1090	1.0836e+02	9.1602	15.513234	0.000254	2.538413	0.430019	-0.000025
1091	1.0845e+02	9.1479	15.494903	0.000184	1.842396	0.312110	-0.000018
1092	1.0855e+02	9.1418	15.470870	0.000242	2.415586	0.409211	-0.000024
1093	1.0865e+02	9.1276	15.449688	0.000213	2.128991	0.360661	-0.000021
1094	1.0875e+02	9.1201	15.428914	0.000209	2.088049	0.353725	-0.000021
1095	1.0885e+02	9.1089	15.406917	0.000221	2.210876	0.374532	-0.000022
1096	1.0895e+02	9.0955	15.387772	0.000192	1.924281	0.325982	-0.000019
1097	1.0905e+02	9.0882	15.363739	0.000242	2.415586	0.409211	-0.000024
1098	1.0915e+02	9.0813	15.342965	0.000209	2.088049	0.353725	-0.000021
1099	1.0925e+02	9.0716	15.319339	0.000237	2.374644	0.402276	-0.000024
1100	1.0935e+02	9.0598	15.297342	0.000221	2.210876	0.374532	-0.000022
1101	1.0945e+02	9.0503	15.275753	0.000217	2.169934	0.367597	-0.000022
1102	1.0955e+02	9.0400	15.254571	0.000213	2.128991	0.360661	-0.000021
1103	1.0965e+02	9.0310	15.232575	0.000221	2.210876	0.374532	-0.000022
1104	1.0975e+02	9.0193	15.209356	0.000233	2.333702	0.395340	-0.000023
1105	1.0985e+02	9.0115	15.187767	0.000217	2.169934	0.367597	-0.000022
1106	1.0995e+02	9.0015	15.167807	0.000201	2.006165	0.339854	-0.000020
1107	1.1005e+02	8.9883	15.147440	0.000205	2.047107	0.346789	-0.000020
1108	1.1015e+02	8.9805	15.123407	0.000242	2.415586	0.409211	-0.000024
1109	1.1025e+02	8.9688	15.103447	0.000201	2.006165	0.339854	-0.000020
1110	1.1035e+02	8.9614	15.081451	0.000221	2.210876	0.374532	-0.000022
1111	1.1044e+02	8.9505	15.059861	0.000217	2.169934	0.367597	-0.000022
1112	1.1054e+02	8.9392	15.037050	0.000229	2.292760	0.388404	-0.000023
1113	1.1064e+02	8.9313	15.017498	0.000197	1.965223	0.332918	-0.000020
1114	1.1074e+02	8.9209	14.995094	0.000225	2.251818	0.381468	-0.000023
1115	1.1084e+02	8.9094	14.975134	0.000201	2.006165	0.339854	-0.000020
1116	1.1094e+02	8.8989	14.956396	0.000188	1.883339	0.319046	-0.000019
1117	1.1104e+02	8.8900	14.931956	0.000246	2.456529	0.416147	-0.000025
1118	1.1114e+02	8.8818	14.910367	0.000217	2.169934	0.367597	-0.000022
1119	1.1124e+02	8.8691	14.887556	0.000229	2.292760	0.388404	-0.000023
1120	1.1134e+02	8.8630	14.872077	0.000156	1.555801	0.263560	-0.000016
1121	1.1144e+02	8.8490	14.847636	0.000246	2.456529	0.416147	-0.000025
1122	1.1154e+02	8.8414	14.832564	0.000151	1.514859	0.256624	-0.000015
1123	1.1164e+02	8.8313	14.810975	0.000217	2.169934	0.367597	-0.000022
1124	1.1174e+02	8.8232	14.795496	0.000156	1.555801	0.263560	-0.000016
1125	1.1184e+02	8.8114	14.772278	0.000233	2.333702	0.395340	-0.000023
1126	1.1194e+02	8.8021	14.753947	0.000184	1.842396	0.312110	-0.000018
1127	1.1204e+02	8.7910	14.731951	0.000221	2.210876	0.374532	-0.000022
1128	1.1214e+02	8.7817	14.713213	0.000188	1.883339	0.319046	-0.000019
1129	1.1224e+02	8.7757	14.690402	0.000229	2.292760	0.388404	-0.000023
1130	1.1234e+02	8.7624	14.674515	0.000160	1.596744	0.270496	-0.000016
1131	1.1244e+02	8.7521	14.653334	0.000213	2.128991	0.360661	-0.000021
1132	1.1253e+02	8.7415	14.633374	0.000201	2.006165	0.339854	-0.000020
1133	1.1263e+02	8.7334	14.610155	0.000233	2.333702	0.395340	-0.000023
1134	1.1273e+02	8.7238	14.588973	0.000213	2.128991	0.360661	-0.000021
1135	1.1283e+02	8.7137	14.569828	0.000192	1.924281	0.325982	-0.000019
1136	1.1293e+02	8.7017	14.546610	0.000233	2.333702	0.395340	-0.000023
1137	1.1303e+02	8.6932	14.525428	0.000213	2.128991	0.360661	-0.000021
1138	1.1313e+02	8.6823	14.507912	0.000176	1.760512	0.298239	-0.000018
1139	1.1323e+02	8.6683	14.481435	0.000266	2.661239	0.450826	-0.000027
1140	1.1333e+02	8.6621	14.461475	0.000201	2.006165	0.339854	-0.000020
1141	1.1343e+02	8.6503	14.437849	0.000237	2.374644	0.402276	-0.000024
1142	1.1353e+02	8.6468	14.417482	0.000205	2.047107	0.346789	-0.000020
1143	1.1363e+02	8.6338	14.392634	0.000250	2.497471	0.423083	-0.000025
1144	1.1373e+02	8.6221	14.371045	0.000217	2.169934	0.367597	-0.000022
1145	1.1383e+02	8.6098	14.349456	0.000217	2.169934	0.367597	-0.000022
1146	1.1393e+02	8.6017	14.322979	0.000266	2.661239	0.450826	-0.000027
1147	1.1403e+02	8.5930	14.303834	0.000192	1.924281	0.325982	-0.000019
1148	1.1413e+02	8.5821	14.279393	0.000246	2.456529	0.416147	-0.000025
1149	1.1423e+02	8.5735	14.254138	0.000254	2.538413	0.430019	-0.000025
1150	1.1433e+02	8.5624	14.231327	0.000229	2.292760	0.388404	-0.000023
1151	1.1442e+02	8.5526	14.211367	0.000201	2.006165	0.339854	-0.000020
1152	1.1452e+02	8.5413	14.186926	0.000246	2.456529	0.416147	-0.000025
1153	1.1462e+02	8.5352	14.166152	0.000209	2.088049	0.353725	-0.000021
1154	1.1472e+02	8.5247	14.144155	0.000221	2.210876	0.374532	-0.000022
1155	1.1482e+02	8.5137	14.122566	0.000217	2.169934	0.367597	-0.000022
1156	1.1492e+02	8.5016	14.101792	0.000209	2.088049	0.353725	-0.000021
1157	1.1502e+02	8.4919	14.082239	0.000197	1.965223	0.332918	-0.000020
1158	1.1512e+02	8.4835	14.063094	0.000192	1.924281	0.325982	-0.000019
1159	1.1522e+02	8.4729	14.037024	0.000262	2.620297	0.443890	-0.000026
1160	1.1532e+02	8.4633	14.015843	0.000213	2.128991	0.360661	-0.000021
1161	1.1542e+02	8.4522	13.991809	0.000242	2.415586	0.409211	-0.000024
1162	1.1552e+02	8.4452	13.972664	0.000192	1.924281	0.325982	-0.000019
1163	1.1562e+02	8.4320	13.946187	0.000266	2.661239	0.450826	-0.000027
1164	1.1572e+02	8.4256	13.924190	0.000221	2.210876	0.374532	-0.000022
1165	1.1582e+02	8.4131	13.903416	0.000209	2.088049	0.353725	-0.000021
1166	1.1592e+02	8.4025	13.880197	0.000233	2.333702	0.395340	-0.000023
1167	1.1602e+02	8.3926	13.862274	0.000180	1.801454	0.305175	-0.000018
1168	1.1612e+02	8.3855	13.837019	0.000254	2.538413	0.430019	-0.000025
1169	1.1622e+02	8.3724	13.815837	0.000213	2.128991	0.360661	-0.000021
1170	1.1632e+02	8.3627	13.791804	0.000242	2.415586	0.409211	-0.000024
1171	1.1642e+02	8.3570	13.768993	0.000229	2.292760	0.388404	-0.000023
1172	1.1651e+02	8.3453	13.740479	0.000287	2.865950	0.485505	-0.000029
1173	1.1661e+02	8.3346	13.720112	0.000205	2.047107	0.346789	-0.000020
1174	1.1671e+02	8.3249	13.694857	0.000254	2.538413	0.430019	-0.000025
1175	1.1681e+02	8.3157	13.672045	0.000229	2.292760	0.388404	-0.000023
1176	1.1691e+02	8.3060	13.645161	0.000270	2.702181	0.457762	-0.000027
1177	1.1701e+02	8.2942	13.622350	0.000229	2.292760	0.388404	-0.000023
1178	1.1711e+02	8.2841	13.597094	0.000254	2.538413	0.430019	-0.000025
1179	1.1721e+02	8.2771	13.574283	0.000229	2.292760	0.388404	-0.000023
1180	1.1731e+02	8.2656	13.546991	0.000274	2.743124	0.464698	-0.000027
1181	1.1741e+02	8.2568	13.521329	0.000258	2.579355	0.436955	-0.000026
1182	1.1751e+02	8.2438	13.497295	0.000242	2.415586	0.409211	-0.000024
1183	1.1761e+02	8.2349	13.470818	0.000266	2.661239	0.450826	-0.000027
1184	1.1771e+02	8.2264	13.444748	0.000262	2.620297	0.443890	-0.000026
1185	1.1781e+02	8.2153	13.417864	0.000270	2.702181	0.457762	-0.000027
1186	1.1791e+02	8.2028	13.395460	0.000225	2.251818	0.381468	-0.000023
1187	1.1801e+02	8.1948	13.371019	0.000246	2.456529	0.416147	-0.000025
1188	1.1811e+02	8.1858	13.345357	0.000258	2.579355	0.436955	-0.000026
1189	1.1821e+02	8.1745	13.317250	0.000283	2.825008	0.478569	-0.000028
1190	1.1831e+02	8.1644	13.294846	0.000225	2.251818	0.381468	-0.000023
1191	1.1841e+02	8.1556	13.269591	0.000254	2.538413	0.430019	-0.000025
1192	1.1850e+02	8.1437	13.241892	0.000278	2.784066	0.471634	-0.000028
1193	1.1860e+02	8.1345	13.216636	0.000254	2.538413	0.430019	-0.000025
1194	1.1870e+02	8.1241	13.189752	0.000270	2.702181	0.457762	-0.000027
1195	1.1880e+02	8.1168	13.167755	0.000221	2.210876	0.374532	-0.000022
1196	1.1890e+02	8.1064	13.141278	0.000266	2.661239	0.450826	-0.000027
1197	1.1900e+02	8.0962	13.114393	0.000270	2.702181	0.457762	-0.000027
1198	1.1910e+02	8.0860	13.088324	0.000262	2.620297	0.443890	-0.000026
1199	1.1920e+02	8.0801	13.059402	0.000291	2.906892	0.492441	-0.000029
1200	1.1930e+02	8.0652	13.035369	0.000242	2.415586	0.409211	-0.000024
1201	1.1940e+02	8.0556	13.006448	0.000291	2.906892	0.492441	-0.000029
1202	1.1950e+02	8.0448	12.977526	0.000291	2.906892	0.492441	-0.000029
1203	1.1960e+02	8.0322	12.953900	0.000237	2.374644	0.402276	-0.000024
1204	1.1970e+02	8.0241	12.922535	0.000315	3.152545	0.534056	-0.000032
1205	1.1980e+02	8.0166	12.893614	0.000291	2.906892	0.492441	-0.000029
1206	1.1990e+02	8.0051	12.869581	0.000242	2.415586	0.409211	-0.000024
1207	1.2000e+02	7.9958	12.837401	0.000323	3.234429	0.547927	-0.000032
1208	1.2010e+02	7.9898	12.813367	0.000242	2.415586	0.409211	-0.000024
1209	1.2020e+02	7.9783	12.782409	0.000311	3.111603	0.527120	-0.000031
1210	1.2030e+02	7.9651	12.756339	0.000262	2.620297	0.443890	-0.000026
1211	1.2039e+02	7.9559	12.726603	0.000299	2.988776	0.506312	-0.000030
1212	1.2049e+02	7.9470	12.699311	0.000274	2.743124	0.464698	-0.000027
1213	1.2059e+02	7.9374	12.672019	0.000274	2.743124	0.464698	-0.000027
1214	1.2069e+02	7.9237	12.643098	0.000291	2.906892	0.492441	-0.000029
1215	1.2079e+02	7.9144	12.613362	0.000299	2.988776	0.506312	-0.000030
1216	1.2089e+02	7.9072	12.586070	0.000274	2.743124	0.464698	-0.000027
1217	1.2099e+02	7.8950	12.554705	0.000315	3.152545	0.534056	-0.000032
1218	1.2109e+02	7.8880	12.534338	0.000205	2.047107	0.346789	-0.000020
1219	1.2119e+02	7.8794	12.501343	0.000332	3.316314	0.561799	-0.000033
1220	1.2129e+02	7.8659	12.475273	0.000262	2.620297	0.443890	-0.000026
1221	1.2139e+02	7.8551	12.448388	0.000270	2.702181	0.457762	-0.000027
1222	1.2149e+02	7.8458	12.420282	0.000283	2.825008	0.478569	-0.000028
1223	1.2159e+02	7.8369	12.394212	0.000262	2.620297	0.443890	-0.000026
1224	1.2169e+02	7.8262	12.368142	0.000262	2.620297	0.443890	-0.000026
1225	1.2179e+02	7.8174	12.340850	0.000274	2.743124	0.464698	-0.000027
1226	1.2189e+02	7.8078	12.310707	0.000303	3.029719	0.513248	-0.000030
1227	1.2199e+02	7.7981	12.286266	0.000246	2.456529	0.416147	-0.000025
1228	1.2209e+02	7.7888	12.259381	0.000270	2.702181	0.457762	-0.000027
1229	1.2219e+02	7.7772	12.232497	0.000270	2.702181	0.457762	-0.000027
1230	1.2229e+02	7.7677	12.207649	0.000250	2.497471	0.423083	-0.000025
1231	1.2239e+02	7.7579	12.185652	0.000221	2.210876	0.374532	-0.000022
1232	1.2248e+02	7.7487	12.154287	0.000315	3.152545	0.534056	-0.000032
1233	1.2258e+02	7.7358	12.130661	0.000237	2.374644	0.402276	-0.000024
1234	1.2268e+02	7.7261	12.103369	0.000274	2.743124	0.464698	-0.000027
1235	1.2278e+02	7.7169	12.075263	0.000283	2.825008	0.478569	-0.000028
1236	1.2288e+02	7.7058	12.046749	0.000287	2.865950	0.485505	-0.000029
1237	1.2298e+02	7.6997	12.019864	0.000270	2.702181	0.457762	-0.000027
1238	1.2308e+02	7.6884	11.990943	0.000291	2.906892	0.492441	-0.000029
1239	1.2318e+02	7.6759	11.964058	0.000270	2.702181	0.457762	-0.000027
1240	1.2328e+02	7.6653	11.935951	0.000283	2.825008	0.478569	-0.000028
1241	1.2338e+02	7.6550	11.904586	0.000315	3.152545	0.534056	-0.000032
1242	1.2348e+02	7.6485	11.878923	0.000258	2.579355	0.436955	-0.000026
1243	1.2358e+02	7.6369	11.848780	0.000303	3.029719	0.513248	-0.000030
1244	1.2368e+02	7.6292	11.824340	0.000246	2.456529	0.416147	-0.000025
1245	1.2378e+02	7.6179	11.799899	0.000246	2.456529	0.416147	-0.000025
1246	1.2388e+02	7.6044	11.770978	0.000291	2.906892	0.492441	-0.000029
1247	1.2398e+02	7.5991	11.742056	0.000291	2.906892	0.492441	-0.000029
1248	1.2408e+02	7.5871	11.712728	0.000295	2.947834	0.499377	-0.000029
1249	1.2418e+02	7.5782	11.683806	0.000291	2.906892	0.492441	-0.000029
1250	1.2428e+02	7.5684	11.658144	0.000258	2.579355	0.436955	-0.000026
1251	1.2438e+02	7.5589	11.634518	0.000237	2.374644	0.402276	-0.000024
1252	1.2447e+02	7.5460	11.597450	0.000373	3.725735	0.631157	-0.000037
1253	1.2457e+02	7.5423	11.572602	0.000250	2.497471	0.423083	-0.000025
1254	1.2467e+02	7.5259	11.546125	0.000266	2.661239	0.450826	-0.000027
1255	1.2477e+02	7.5169	11.519240	0.000270	2.702181	0.457762	-0.000027
1256	1.2487e+02	7.5059	11.491133	0.000283	2.825008	0.478569	-0.000028
1257	1.2497e+02	7.4951	11.466693	0.000246	2.456529	0.416147	-0.000025
1258	1.2507e+02	7.4877	11.443067	0.000237	2.374644	0.402276	-0.000024
1259	1.2517e+02	7.4783	11.416997	0.000262	2.620297	0.443890	-0.000026
1260	1.2527e+02	7.4677	11.390112	0.000270	2.702181	0.457762	-0.000027
1261	1.2537e+02	7.4587	11.367301	0.000229	2.292760	0.388404	-0.000023
1262	1.2547e+02	7.4493	11.338787	0.000287	2.865950	0.485505	-0.000029
1263	1.2557e+02	7.4407	11.315976	0.000229	2.292760	0.388404	-0.000023
1264	1.2567e+02	7.4290	11.294387	0.000217	2.169934	0.367597	-0.000022
1265	1.2577e+02	7.4191	11.265058	0.000295	2.947834	0.499377	-0.000029
1266	1.2587e+02	7.4106	11.238988	0.000262	2.620297	0.443890	-0.000026
1267	1.2597e+02	7.3985	11.209660	0.000295	2.947834	0.499377	-0.000029
1268	1.2607e+02	7.3885	11.186034	0.000237	2.374644	0.402276	-0.000024
1269	1.2617e+02	7.3786	11.156705	0.000295	2.947834	0.499377	-0.000029
1270	1.2627e+02	7.3682	11.130228	0.000266	2.661239	0.450826	-0.000027
1271	1.2636e+02	7.3605	11.107417	0.000229	2.292760	0.388404	-0.000023
1272	1.2646e+02	7.3486	11.082161	0.000254	2.538413	0.430019	-0.000025
1273	1.2656e+02	7.3386	11.056499	0.000258	2.579355	0.436955	-0.000026
1274	1.2666e+02	7.3265	11.030836	0.000258	2.579355	0.436955	-0.000026
1275	1.2676e+02	7.3187	11.005581	0.000254	2.538413	0.430019	-0.000025
1276	1.2686e+02	7.3109	10.981548	0.000242	2.415586	0.409211	-0.000024
1277	1.2696e+02	7.2984	10.955885	0.000258	2.579355	0.436955	-0.000026
1278	1.2706e+02	7.2903	10.931852	0.000242	2.415586	0.409211	-0.000024
1279	1.2716e+02	7.2787	10.903745	0.000283	2.825008	0.478569	-0.000028
1280	1.2726e+02	7.2689	10.880120	0.000237	2.374644	0.402276	-0.000024
1281	1.2736e+02	7.2570	10.854457	0.000258	2.579355	0.436955	-0.000026
1282	1.2746e+02	7.2474	10.827980	0.000266	2.661239	0.450826	-0.000027
1283	1.2756e+02	7.2388	10.802724	0.000254	2.538413	0.430019	-0.000025
1284	1.2766e+02	7.2266	10.779506	0.000233	2.333702	0.395340	-0.000023
1285	1.2776e+02	7.2190	10.752621	0.000270	2.702181	0.457762	-0.000027
1286	1.2786e+02	7.2095	10.730217	0.000225	2.251818	0.381468	-0.000023
1287	1.2796e+02	7.1989	10.708221	0.000221	2.210876	0.374532	-0.000022
1288	1.2806e+02	7.1905	10.680522	0.000278	2.784066	0.471634	-0.000028
1289	1.2816e+02	7.1794	10.660562	0.000201	2.006165	0.339854	-0.000020
1290	1.2826e+02	7.1701	10.635714	0.000250	2.497471	0.423083	-0.000025
1291	1.2835e+02	7.1589	10.610459	0.000254	2.538413	0.430019	-0.000025
1292	1.2845e+02	7.1484	10.589277	0.000213	2.128991	0.360661	-0.000021
1293	1.2855e+02	7.1418	10.565244	0.000242	2.415586	0.409211	-0.000024
1294	1.2865e+02	7.1291	10.540396	0.000250	2.497471	0.423083	-0.000025
1295	1.2875e+02	7.1215	10.518399	0.000221	2.210876	0.374532	-0.000022
1296	1.2885e+02	7.1101	10.491922	0.000266	2.661239	0.450826	-0.000027
1297	1.2895e+02	7.1001	10.468296	0.000237	2.374644	0.402276	-0.000024
1298	1.2905e+02	7.0914	10.444670	0.000237	2.374644	0.402276	-0.000024
1299	1.2915e+02	7.0790	10.425525	0.000192	1.924281	0.325982	-0.000019
1300	1.2925e+02	7.0713	10.395382	0.000303	3.029719	0.513248	-0.000030
1301	1.2935e+02	7.0585	10.371756	0.000237	2.374644	0.402276	-0.000024
1302	1.2945e+02	7.0509	10.344464	0.000274	2.743124	0.464698	-0.000027
1303	1.2955e+02	7.0391	10.320431	0.000242	2.415586	0.409211	-0.000024
1304	1.2965e+02	7.0305	10.298434	0.000221	2.210876	0.374532	-0.000022
1305	1.2975e+02	7.0203	10.271142	0.000274	2.743124	0.464698	-0.000027
1306	1.2985e+02	7.0100	10.245887	0.000254	2.538413	0.430019	-0.000025
1307	1.2995e+02	6.9991	10.221447	0.000246	2.456529	0.416147	-0.000025
1308	1.3005e+02	6.9881	10.198228	0.000233	2.333702	0.395340	-0.000023
1309	1.3015e+02	6.9836	10.170121	0.000283	2.825008	0.478569	-0.000028
1310	1.3025e+02	6.9697	10.142830	0.000274	2.743124	0.464698	-0.000027
1311	1.3034e+02	6.9603	10.115945	0.000270	2.702181	0.457762	-0.000027
1312	1.3044e+02	6.9515	10.091097	0.000250	2.497471	0.423083	-0.000025
1313	1.3054e+02	6.9402	10.063398	0.000278	2.784066	0.471634	-0.000028
1314	1.3064e+02	6.9308	10.040994	0.000225	2.251818	0.381468	-0.000023
1315	1.3074e+02	6.9226	10.013702	0.000274	2.743124	0.464698	-0.000027
1316	1.3084e+02	6.9141	9.983151	0.000307	3.070661	0.520184	-0.000031
1317	1.3094e+02	6.9038	9.955859	0.000274	2.743124	0.464698	-0.000027
1318	1.3104e+02	6.8917	9.931826	0.000242	2.415586	0.409211	-0.000024
1319	1.3114e+02	6.8815	9.905349	0.000266	2.661239	0.450826	-0.000027
1320	1.3124e+02	6.8713	9.880501	0.000250	2.497471	0.423083	-0.000025
1321	1.3134e+02	6.8595	9.852802	0.000278	2.784066	0.471634	-0.000028
1322	1.3144e+02	6.8506	9.830398	0.000225	2.251818	0.381468	-0.000023
1323	1.3154e+02	6.8417	9.807994	0.000225	2.251818	0.381468	-0.000023
1324	1.3164e+02	6.8312	9.782739	0.000254	2.538413	0.430019	-0.000025
1325	1.3174e+02	6.8205	9.755039	0.000278	2.784066	0.471634	-0.000028
1326	1.3184e+02	6.8124	9.731006	0.000242	2.415586	0.409211	-0.000024
1327	1.3194e+02	6.8033	9.705344	0.000258	2.579355	0.436955	-0.000026
1328	1.3204e+02	6.7941	9.677644	0.000278	2.784066	0.471634	-0.000028
1329	1.3214e+02	6.7831	9.651574	0.000262	2.620297	0.443890	-0.000026
1330	1.3224e+02	6.7727	9.626727	0.000250	2.497471	0.423083	-0.000025
1331	1.3234e+02	6.7623	9.600249	0.000266	2.661239	0.450826	-0.000027
1332	1.3243e+02	6.7519	9.576216	0.000242	2.415586	0.409211	-0.000024
1333	1.3253e+02	6.7415	9.548924	0.000274	2.743124	0.464698	-0.000027
1334	1.3263e+02	6.7355	9.525298	0.000237	2.374644	0.402276	-0.000024
1335	1.3273e+02	6.7229	9.500858	0.000246	2.456529	0.416147	-0.000025
1336	1.3283e+02	6.7107	9.471936	0.000291	2.906892	0.492441	-0.000029
1337	1.3293e+02	6.7026	9.448718	0.000233	2.333702	0.395340	-0.000023
1338	1.3303e+02	6.6903	9.425092	0.000237	2.374644	0.402276	-0.000024
1339	1.3313e+02	6.6821	9.395356	0.000299	2.988776	0.506312	-0.000030
1340	1.3323e+02	6.6726	9.366027	0.000295	2.947834	0.499377	-0.000029
1341	1.3333e+02	6.6616	9.339550	0.000266	2.661239	0.450826	-0.000027
1342	1.3343e+02	6.6547	9.310221	0.000295	2.947834	0.499377	-0.000029
1343	1.3353e+02	6.6431	9.281300	0.000291	2.906892	0.492441	-0.000029
1344	1.3363e+02	6.6326	9.255230	0.000262	2.620297	0.443890	-0.000026
1345	1.3373e+02	6.6203	9.227531	0.000278	2.784066	0.471634	-0.000028
1346	1.3383e+02	6.6142	9.197795	0.000299	2.988776	0.506312	-0.000030
1347	1.3393e+02	6.6018	9.168466	0.000295	2.947834	0.499377	-0.000029
1348	1.3403e+02	6.5926	9.142396	0.000262	2.620297	0.443890	-0.000026
1349	1.3413e+02	6.5838	9.111438	0.000311	3.111603	0.527120	-0.000031
1350	1.3423e+02	6.5705	9.082517	0.000291	2.906892	0.492441	-0.000029
1351	1.3432e+02	6.5611	9.054818	0.000278	2.784066	0.471634	-0.000028
1352	1.3442e+02	6.5538	9.025896	0.000291	2.906892	0.492441	-0.000029
1353	1.3452e+02	6.5443	8.995753	0.000303	3.029719	0.513248	-0.000030
1354	1.3462e+02	6.5337	8.966424	0.000295	2.947834	0.499377	-0.000029
1355	1.3472e+02	6.5226	8.939947	0.000266	2.661239	0.450826	-0.000027
1356	1.3482e+02	6.5137	8.908582	0.000315	3.152545	0.534056	-0.000032
1357	1.3492e+02	6.5034	8.882104	0.000266	2.661239	0.450826	-0.000027
1358	1.3502e+02	6.4926	8.853183	0.000291	2.906892	0.492441	-0.000029
1359	1.3512e+02	6.4830	8.823040	0.000303	3.029719	0.513248	-0.000030
1360	1.3522e+02	6.4718	8.794933	0.000283	2.825008	0.478569	-0.000028
1361	1.3532e+02	6.4642	8.766826	0.000283	2.825008	0.478569	-0.000028
1362	1.3542e+02	6.4544	8.735868	0.000311	3.111603	0.527120	-0.000031
1363	1.3552e+02	6.4442	8.705725	0.000303	3.029719	0.513248	-0.000030
1364	1.3562e+02	6.4324	8.677211	0.000287	2.865950	0.485505	-0.000029
1365	1.3572e+02	6.4239	8.650734	0.000266	2.661239	0.450826	-0.000027
1366	1.3582e+02	6.4135	8.618554	0.000323	3.234429	0.547927	-0.000032
1367	1.3592e+02	6.4040	8.589225	0.000295	2.947834	0.499377	-0.000029
1368	1.3602e+02	6.3966	8.560711	0.000287	2.865950	0.485505	-0.000029
1369	1.3612e+02	6.3824	8.528531	0.000323	3.234429	0.547927	-0.000032
1370	1.3622e+02	6.3721	8.495536	0.000332	3.316314	0.561799	-0.000033
1371	1.3631e+02	6.3648	8.465393	0.000303	3.029719	0.513248	-0.000030
1372	1.3641e+02	6.3506	8.430361	0.000352	3.521024	0.596478	-0.000035
1373	1.3651e+02	6.3426	8.403477	0.000270	2.702181	0.457762	-0.000027
1374	1.3661e+02	6.3330	8.372111	0.000315	3.152545	0.534056	-0.000032
1375	1.3671e+02	6.3250	8.338302	0.000340	3.398198	0.575670	-0.000034
1376	1.3681e+02	6.3160	8.305715	0.000328	3.275371	0.554863	-0.000033
1377	1.3691e+02	6.3050	8.274757	0.000311	3.111603	0.527120	-0.000031
1378	1.3701e+02	6.2963	8.248279	0.000266	2.661239	0.450826	-0.000027
1379	1.3711e+02	6.2873	8.215692	0.000328	3.275371	0.554863	-0.000033
1380	1.3721e+02	6.2719	8.183919	0.000319	3.193487	0.540991	-0.000032
1381	1.3731e+02	6.2646	8.150110	0.000340	3.398198	0.575670	-0.000034
1382	1.3741e+02	6.2560	8.120374	0.000299	2.988776	0.506312	-0.000030
1383	1.3751e+02	6.2460	8.088601	0.000319	3.193487	0.540991	-0.000032
1384	1.3761e+02	6.2325	8.056014	0.000328	3.275371	0.554863	-0.000033
1385	1.3771e+02	6.2276	8.020575	0.000356	3.561966	0.603413	-0.000036
1386	1.3781e+02	6.2154	7.992061	0.000287	2.865950	0.485505	-0.000029
1387	1.3791e+02	6.2058	7.961918	0.000303	3.029719	0.513248	-0.000030
1388	1.3801e+02	6.1963	7.929330	0.000328	3.275371	0.554863	-0.000033
1389	1.3811e+02	6.1858	7.898372	0.000311	3.111603	0.527120	-0.000031
1390	1.3821e+02	6.1732	7.867007	0.000315	3.152545	0.534056	-0.000032
1391	1.3831e+02	6.1645	7.838900	0.000283	2.825008	0.478569	-0.000028
1392	1.3840e+02	6.1561	7.810386	0.000287	2.865950	0.485505	-0.000029
1393	1.3850e+02	6.1440	7.781057	0.000295	2.947834	0.499377	-0.000029
1394	1.3860e+02	6.1340	7.748877	0.000323	3.234429	0.547927	-0.000032
1395	1.3870e+02	6.1251	7.720363	0.000287	2.865950	0.485505	-0.000029
1396	1.3880e+02	6.1133	7.685739	0.000348	3.480082	0.589542	-0.000035
1397	1.3890e+02	6.1044	7.659262	0.000266	2.661239	0.450826	-0.000027
1398	1.3900e+02	6.0952	7.628711	0.000307	3.070661	0.520184	-0.000031
1399	1.3910e+02	6.0867	7.599790	0.000291	2.906892	0.492441	-0.000029
1400	1.3920e+02	6.0769	7.570869	0.000291	2.906892	0.492441	-0.000029
1401	1.3930e+02	6.0664	7.540318	0.000307	3.070661	0.520184	-0.000031
1402	1.3940e+02	6.0552	7.509360	0.000311	3.111603	0.527120	-0.000031
1403	1.3950e+02	6.0474	7.478809	0.000307	3.070661	0.520184	-0.000031
1404	1.3960e+02	6.0352	7.446222	0.000328	3.275371	0.554863	-0.000033
1405	1.3970e+02	6.0255	7.416078	0.000303	3.029719	0.513248	-0.000030
1406	1.3980e+02	6.0162	7.384306	0.000319	3.193487	0.540991	-0.000032
1407	1.3990e+02	6.0070	7.351311	0.000332	3.316314	0.561799	-0.000033
1408	1.4000e+02	5.9952	7.322390	0.000291	2.906892	0.492441	-0.000029
1409	1.4010e+02	5.9893	7.288173	0.000344	3.439140	0.582606	-0.000034
1410	1.4020e+02	5.9770	7.258437	0.000299	2.988776	0.506312	-0.000030
1411	1.4029e+02	5.9663	7.228294	0.000303	3.029719	0.513248	-0.000030
1412	1.4039e+02	5.9548	7.197743	0.000307	3.070661	0.520184	-0.000031
1413	1.4049e+02	5.9466	7.168822	0.000291	2.906892	0.492441	-0.000029
1414	1.4059e+02	5.9347	7.135419	0.000336	3.357256	0.568735	-0.000034
1415	1.4069e+02	5.9240	7.106091	0.000295	2.947834	0.499377	-0.000029
1416	1.4079e+02	5.9205	7.070652	0.000356	3.561966	0.603413	-0.000036
1417	1.4089e+02	5.9105	7.039694	0.000311	3.111603	0.527120	-0.000031
1418	1.4099e+02	5.8971	7.008736	0.000311	3.111603	0.527120	-0.000031
1419	1.4109e+02	5.8857	6.977371	0.000315	3.152545	0.534056	-0.000032
1420	1.4119e+02	5.8775	6.946413	0.000311	3.111603	0.527120	-0.000031
1421	1.4129e+02	5.8665	6.915454	0.000311	3.111603	0.527120	-0.000031
1422	1.4139e+02	5.8561	6.884904	0.000307	3.070661	0.520184	-0.000031
1423	1.4149e+02	5.8472	6.854353	0.000307	3.070661	0.520184	-0.000031
1424	1.4159e+02	5.8385	6.825432	0.000291	2.906892	0.492441	-0.000029
1425	1.4169e+02	5.8263	6.797325	0.000283	2.825008	0.478569	-0.000028
1426	1.4179e+02	5.8184	6.767589	0.000299	2.988776	0.506312	-0.000030
1427	1.4189e+02	5.8072	6.737853	0.000299	2.988776	0.506312	-0.000030
1428	1.4199e+02	5.7993	6.708117	0.000299	2.988776	0.506312	-0.000030
1429	1.4209e+02	5.7864	6.677566	0.000307	3.070661	0.520184	-0.000031
1430	1.4219e+02	5.7775	6.652311	0.000254	2.538413	0.430019	-0.000025
1431	1.4228e+02	5.7677	6.621353	0.000311	3.111603	0.527120	-0.000031
1432	1.4238e+02	5.7592	6.588766	0.000328	3.275371	0.554863	-0.000033
1433	1.4248e+02	5.7446	6.562289	0.000266	2.661239	0.450826	-0.000027
1434	1.4258e+02	5.7372	6.530108	0.000323	3.234429	0.547927	-0.000032
1435	1.4268e+02	5.7275	6.505668	0.000246	2.456529	0.416147	-0.000025
1436	1.4278e+02	5.7186	6.476747	0.000291	2.906892	0.492441	-0.000029
1437	1.4288e+02	5.7078	6.441308	0.000356	3.561966	0.603413	-0.000036
1438	1.4298e+02	5.6974	6.414016	0.000274	2.743124	0.464698	-0.000027
1439	1.4308e+02	5.6869	6.385502	0.000287	2.865950	0.485505	-0.000029
1440	1.4318e+02	5.6774	6.357395	0.000283	2.825008	0.478569	-0.000028
1441	1.4328e+02	5.6684	6.329696	0.000278	2.784066	0.471634	-0.000028
1442	1.4338e+02	5.6554	6.299145	0.000307	3.070661	0.520184	-0.000031
1443	1.4348e+02	5.6496	6.270631	0.000287	2.865950	0.485505	-0.000029
1444	1.4358e+02	5.6368	6.241710	0.000291	2.906892	0.492441	-0.000029
1445	1.4368e+02	5.6269	6.209937	0.000319	3.193487	0.540991	-0.000032
1446	1.4378e+02	5.6178	6.180201	0.000299	2.988776	0.506312	-0.000030
1447	1.4388e+02	5.6133	6.154131	0.000262	2.620297	0.443890	-0.000026
1448	1.4398e+02	5.5962	6.125210	0.000291	2.906892	0.492441	-0.000029
1449	1.4408e+02	5.5863	6.094659	0.000307	3.070661	0.520184	-0.000031
1450	1.4418e+02	5.5764	6.067775	0.000270	2.702181	0.457762	-0.000027
1451	1.4428e+02	5.5676	6.038039	0.000299	2.988776	0.506312	-0.000030
1452	1.4437e+02	5.5563	6.008710	0.000295	2.947834	0.499377	-0.000029
1453	1.4447e+02	5.5486	5.982233	0.000266	2.661239	0.450826	-0.000027
1454	1.4457e+02	5.5399	5.953311	0.000291	2.906892	0.492441	-0.000029
1455	1.4467e+02	5.5280	5.927649	0.000258	2.579355	0.436955	-0.000026
1456	1.4477e+02	5.5181	5.899542	0.000283	2.825008	0.478569	-0.000028
1457	1.4487e+02	5.5080	5.873065	0.000266	2.661239	0.450826	-0.000027
1458	1.4497e+02	5.4977	5.850254	0.000229	2.292760	0.388404	-0.000023
1459	1.4507e+02	5.4875	5.818481	0.000319	3.193487	0.540991	-0.000032
1460	1.4517e+02	5.4781	5.791189	0.000274	2.743124	0.464698	-0.000027
1461	1.4527e+02	5.4691	5.765526	0.000258	2.579355	0.436955	-0.000026
1462	1.4537e+02	5.4591	5.735790	0.000299	2.988776	0.506312	-0.000030
1463	1.4547e+02	5.4482	5.709721	0.000262	2.620297	0.443890	-0.000026
1464	1.4557e+02	5.4362	5.679577	0.000303	3.029719	0.513248	-0.000030
1465	1.4567e+02	5.4275	5.655544	0.000242	2.415586	0.409211	-0.000024
1466	1.4577e+02	5.4185	5.630696	0.000250	2.497471	0.423083	-0.000025
1467	1.4587e+02	5.4092	5.596072	0.000348	3.480082	0.589542	-0.000035
1468	1.4597e+02	5.3963	5.567965	0.000283	2.825008	0.478569	-0.000028
1469	1.4607e+02	5.3879	5.543525	0.000246	2.456529	0.416147	-0.000025
1470	1.4617e+02	5.3805	5.515011	0.000287	2.865950	0.485505	-0.000029
1471	1.4626e+02	5.3686	5.487719	0.000274	2.743124	0.464698	-0.000027
1472	1.4636e+02	5.3593	5.456353	0.000315	3.152545	0.534056	-0.000032
1473	1.4646e+02	5.3522	5.427432	0.000291	2.906892	0.492441	-0.000029
1474	1.4656e+02	5.3399	5.399326	0.000283	2.825008	0.478569	-0.000028
1475	1.4666e+02	5.3312	5.373663	0.000258	2.579355	0.436955	-0.000026
1476	1.4676e+02	5.3225	5.340261	0.000336	3.357256	0.568735	-0.000034
1477	1.4686e+02	5.3082	5.308895	0.000315	3.152545	0.534056	-0.000032
1478	1.4696e+02	5.2983	5.282011	0.000270	2.702181	0.457762	-0.000027
1479	1.4706e+02	5.2898	5.255126	0.000270	2.702181	0.457762	-0.000027
1480	1.4716e+02	5.2814	5.219280	0.000360	3.602909	0.610349	-0.000036
1481	1.4726e+02	5.2688	5.196062	0.000233	2.333702	0.395340	-0.000023
1482	1.4736e+02	5.2586	5.159808	0.000364	3.643851	0.617285	-0.000036
1483	1.4746e+02	5.2483	5.129665	0.000303	3.029719	0.513248	-0.000030
1484	1.4756e+02	5.2410	5.101151	0.000287	2.865950	0.485505	-0.000029
1485	1.4766e+02	5.2306	5.068563	0.000328	3.275371	0.554863	-0.000033
1486	1.4776e+02	5.2187	5.038013	0.000307	3.070661	0.520184	-0.000031
1487	1.4786e+02	5.2099	5.008277	0.000299	2.988776	0.506312	-0.000030
1488	1.4796e+02	5.1998	4.979355	0.000291	2.906892	0.492441	-0.000029
1489	1.4806e+02	5.1891	4.951656	0.000278	2.784066	0.471634	-0.000028
1490	1.4816e+02	5.1829	4.922327	0.000295	2.947834	0.499377	-0.000029
1491	1.4825e+02	5.1711	4.897887	0.000246	2.456529	0.416147	-0.000025
1492	1.4835e+02	5.1586	4.866521	0.000315	3.152545	0.534056	-0.000032
1493	1.4845e+02	5.1511	4.837600	0.000291	2.906892	0.492441	-0.000029
1494	1.4855e+02	5.1397	4.808679	0.000291	2.906892	0.492441	-0.000029
1495	1.4865e+02	5.1283	4.778128	0.000307	3.070661	0.520184	-0.000031
1496	1.4875e+02	5.1202	4.747577	0.000307	3.070661	0.520184	-0.000031
1497	1.4885e+02	5.1109	4.718249	0.000295	2.947834	0.499377	-0.000029
1498	1.4895e+02	5.0994	4.684847	0.000336	3.357256	0.568735	-0.000034
1499	1.4905e+02	5.0904	4.660813	0.000242	2.415586	0.409211	-0.000024
1500	1.4915e+02	5.0808	4.631077	0.000299	2.988776	0.506312	-0.000030
1501	1.4925e+02	5.0724	4.605415	0.000258	2.579355	0.436955	-0.000026
1502	1.4935e+02	5.0622	4.574457	0.000311	3.111603	0.527120	-0.000031
1503	1.4945e+02	5.0508	4.547572	0.000270	2.702181	0.457762	-0.000027
1504	1.4955e+02	5.0414	4.516207	0.000315	3.152545	0.534056	-0.000032
1505	1.4965e+02	5.0307	4.487693	0.000287	2.865950	0.485505	-0.000029
1506	1.4975e+02	5.0224	4.455920	0.000319	3.193487	0.540991	-0.000032
1507	1.4985e+02	5.0130	4.422518	0.000336	3.357256	0.568735	-0.000034
1508	1.4995e+02	5.0021	4.393597	0.000291	2.906892	0.492441	-0.000029
1509	1.5005e+02	4.9918	4.358973	0.000348	3.480082	0.589542	-0.000035
1510	1.5015e+02	4.9817	4.326385	0.000328	3.275371	0.554863	-0.000033
1511	1.5025e+02	4.9715	4.294613	0.000319	3.193487	0.540991	-0.000032
1512	1.5034e+02	4.9609	4.264877	0.000299	2.988776	0.506312	-0.000030
1513	1.5044e+02	4.9505	4.232289	0.000328	3.275371	0.554863	-0.000033
1514	1.5054e+02	4.9407	4.198480	0.000340	3.398198	0.575670	-0.000034
1515	1.5064e+02	4.9311	4.166300	0.000323	3.234429	0.547927	-0.000032
1516	1.5074e+02	4.9210	4.136564	0.000299	2.988776	0.506312	-0.000030
1517	1.5084e+02	4.9126	4.102754	0.000340	3.398198	0.575670	-0.000034
1518	1.5094e+02	4.9032	4.070167	0.000328	3.275371	0.554863	-0.000033
1519	1.5104e+02	4.8933	4.037172	0.000332	3.316314	0.561799	-0.000033
1520	1.5114e+02	4.8798	4.005399	0.000319	3.193487	0.540991	-0.000032
1521	1.5124e+02	4.8719	3.971183	0.000344	3.439140	0.582606	-0.000034
1522	1.5134e+02	4.8637	3.940632	0.000307	3.070661	0.520184	-0.000031
1523	1.5144e+02	4.8519	3.906415	0.000344	3.439140	0.582606	-0.000034
1524	1.5154e+02	4.8431	3.872606	0.000340	3.398198	0.575670	-0.000034
1525	1.5164e+02	4.8309	3.838796	0.000340	3.398198	0.575670	-0.000034
1526	1.5174e+02	4.8231	3.809060	0.000299	2.988776	0.506312	-0.000030
1527	1.5184e+02	4.8121	3.772807	0.000364	3.643851	0.617285	-0.000036
1528	1.5194e+02	4.8016	3.744293	0.000287	2.865950	0.485505	-0.000029
1529	1.5204e+02	4.7930	3.708854	0.000356	3.561966	0.603413	-0.000036
1530	1.5214e+02	4.7793	3.676674	0.000323	3.234429	0.547927	-0.000032
1531	1.5224e+02	4.7738	3.644086	0.000328	3.275371	0.554863	-0.000033
1532	1.5233e+02	4.7604	3.608648	0.000356	3.561966	0.603413	-0.000036
1533	1.5243e+02	4.7522	3.574431	0.000344	3.439140	0.582606	-0.000034
1534	1.5253e+02	4.7424	3.543066	0.000315	3.152545	0.534056	-0.000032
1535	1.5263e+02	4.7349	3.510071	0.000332	3.316314	0.561799	-0.000033
1536	1.5273e+02	4.7246	3.480335	0.000299	2.988776	0.506312	-0.000030
1537	1.5283e+02	4.7134	3.440008	0.000405	4.053272	0.686643	-0.000041
1538	1.5293e+02	4.7046	3.407013	0.000332	3.316314	0.561799	-0.000033
1539	1.5303e+02	4.6946	3.371167	0.000360	3.602909	0.610349	-0.000036
1540	1.5313e+02	4.6848	3.336950	0.000344	3.439140	0.582606	-0.000034
1541	1.5323e+02	4.6725	3.297031	0.000401	4.012330	0.679707	-0.000040
1542	1.5333e+02	4.6622	3.264036	0.000332	3.316314	0.561799	-0.000033
1543	1.5343e+02	4.6541	3.227782	0.000364	3.643851	0.617285	-0.000036
1544	1.5353e+02	4.6429	3.191122	0.000368	3.684793	0.624221	-0.000037
1545	1.5363e+02	4.6309	3.155683	0.000356	3.561966	0.603413	-0.000036
1546	1.5373e+02	4.6222	3.117393	0.000385	3.848561	0.651964	-0.000038
1547	1.5383e+02	4.6120	3.085620	0.000319	3.193487	0.540991	-0.000032
1548	1.5393e+02	4.6024	3.053032	0.000328	3.275371	0.554863	-0.000033
1549	1.5403e+02	4.5931	3.012706	0.000405	4.053272	0.686643	-0.000041
1550	1.5413e+02	4.5817	2.976859	0.000360	3.602909	0.610349	-0.000036
1551	1.5422e+02	4.5724	2.944272	0.000328	3.275371	0.554863	-0.000033
1552	1.5432e+02	4.5652	2.905574	0.000389	3.889504	0.658900	-0.000039
1553	1.5442e+02	4.5535	2.868914	0.000368	3.684793	0.624221	-0.000037
1554	1.5452e+02	4.5414	2.836326	0.000328	3.275371	0.554863	-0.000033
1555	1.5462e+02	4.5338	2.800887	0.000356	3.561966	0.603413	-0.000036
1556	1.5472e+02	4.5255	2.765041	0.000360	3.602909	0.610349	-0.000036
1557	1.5482e+02	4.5139	2.732861	0.000323	3.234429	0.547927	-0.000032
1558	1.5492e+02	4.5054	2.696200	0.000368	3.684793	0.624221	-0.000037
1559	1.5502e+02	4.4946	2.663613	0.000328	3.275371	0.554863	-0.000033
1560	1.5512e+02	4.4860	2.628174	0.000356	3.561966	0.603413	-0.000036
1561	1.5522e+02	4.4739	2.595994	0.000323	3.234429	0.547927	-0.000032
1562	1.5532e+02	4.4646	2.560555	0.000356	3.561966	0.603413	-0.000036
1563	1.5542e+02	4.4553	2.525524	0.000352	3.521024	0.596478	-0.000035
1564	1.5552e+02	4.4456	2.496195	0.000295	2.947834	0.499377	-0.000029
1565	1.5562e+02	4.4373	2.458720	0.000377	3.766677	0.638092	-0.000038
1566	1.5572e+02	4.4253	2.424503	0.000344	3.439140	0.582606	-0.000034
1567	1.5582e+02	4.4125	2.393545	0.000311	3.111603	0.527120	-0.000031
1568	1.5592e+02	4.4044	2.364216	0.000295	2.947834	0.499377	-0.000029
1569	1.5602e+02	4.3926	2.324297	0.000401	4.012330	0.679707	-0.000040
1570	1.5612e+02	4.3838	2.287228	0.000373	3.725735	0.631157	-0.000037
1571	1.5622e+02	4.3760	2.255456	0.000319	3.193487	0.540991	-0.000032
1572	1.5631e+02	4.3697	2.220424	0.000352	3.521024	0.596478	-0.000035
1573	1.5641e+02	4.3569	2.185800	0.000348	3.480082	0.589542	-0.000035
1574	1.5651e+02	4.3451	2.151583	0.000344	3.439140	0.582606	-0.000034
1575	1.5661e+02	4.3346	2.113293	0.000385	3.848561	0.651964	-0.000038
1576	1.5671e+02	4.3227	2.076632	0.000368	3.684793	0.624221	-0.000037
1577	1.5681e+02	4.3099	2.042823	0.000340	3.398198	0.575670	-0.000034
1578	1.5691e+02	4.3075	2.008606	0.000344	3.439140	0.582606	-0.000034
1579	1.5701e+02	4.3007	1.971945	0.000368	3.684793	0.624221	-0.000037
1580	1.5711e+02	4.2831	1.934877	0.000373	3.725735	0.631157	-0.000037
1581	1.5721e+02	4.2777	1.902290	0.000328	3.275371	0.554863	-0.000033
1582	1.5731e+02	4.2638	1.865222	0.000373	3.725735	0.631157	-0.000037
1583	1.5741e+02	4.2541	1.833041	0.000323	3.234429	0.547927	-0.000032
1584	1.5751e+02	4.2437	1.793122	0.000401	4.012330	0.679707	-0.000040
1585	1.5761e+02	4.2349	1.757683	0.000356	3.561966	0.603413	-0.000036
1586	1.5771e+02	4.2251	1.723059	0.000348	3.480082	0.589542	-0.000035
1587	1.5781e+02	4.2142	1.686398	0.000368	3.684793	0.624221	-0.000037
1588	1.5791e+02	4.2056	1.655847	0.000307	3.070661	0.520184	-0.000031
1589	1.5801e+02	4.1909	1.616335	0.000397	3.971388	0.672771	-0.000040
1590	1.5811e+02	4.1868	1.580896	0.000356	3.561966	0.603413	-0.000036
1591	1.5821e+02	4.1746	1.549938	0.000311	3.111603	0.527120	-0.000031
1592	1.5830e+02	4.1653	1.518166	0.000319	3.193487	0.540991	-0.000032
1593	1.5840e+02	4.1512	1.481505	0.000368	3.684793	0.624221	-0.000037
1594	1.5850e+02	4.1456	1.450139	0.000315	3.152545	0.534056	-0.000032
1595	1.5860e+02	4.1344	1.419996	0.000303	3.029719	0.513248	-0.000030
1596	1.5870e+02	4.1284	1.379669	0.000405	4.053272	0.686643	-0.000041
1597	1.5880e+02	4.1150	1.348711	0.000311	3.111603	0.527120	-0.000031
1598	1.5890e+02	4.1059	1.317346	0.000315	3.152545	0.534056	-0.000032
1599	1.5900e+02	4.0971	1.282314	0.000352	3.521024	0.596478	-0.000035
1600	1.5910e+02	4.0868	1.245246	0.000373	3.725735	0.631157	-0.000037
1601	1.5920e+02	4.0749	1.214288	0.000311	3.111603	0.527120	-0.000031
1602	1.5930e+02	4.0644	1.181293	0.000332	3.316314	0.561799	-0.000033
1603	1.5940e+02	4.0544	1.146669	0.000348	3.480082	0.589542	-0.000035
1604	1.5950e+02	4.0466	1.112860	0.000340	3.398198	0.575670	-0.000034
1605	1.5960e+02	4.0334	1.078236	0.000348	3.480082	0.589542	-0.000035
1606	1.5970e+02	4.0265	1.050536	0.000278	2.784066	0.471634	-0.000028
1607	1.5980e+02	4.0142	1.013468	0.000373	3.725735	0.631157	-0.000037
1608	1.5990e+02	4.0049	0.980474	0.000332	3.316314	0.561799	-0.000033
1609	1.6000e+02	3.9968	0.948701	0.000319	3.193487	0.540991	-0.000032
1610	1.6010e+02	3.9870	0.913669	0.000352	3.521024	0.596478	-0.000035
1611	1.6019e+02	3.9741	0.881897	0.000319	3.193487	0.540991	-0.000032
1612	1.6029e+02	3.9666	0.849309	0.000328	3.275371	0.554863	-0.000033
1613	1.6039e+02	3.9562	0.815092	0.000344	3.439140	0.582606	-0.000034
1614	1.6049e+02	3.9482	0.779246	0.000360	3.602909	0.610349	-0.000036
1615	1.6059e+02	3.9385	0.746659	0.000328	3.275371	0.554863	-0.000033
1616	1.6069e+02	3.9266	0.711220	0.000356	3.561966	0.603413	-0.000036
1617	1.6079e+02	3.9150	0.683521	0.000278	2.784066	0.471634	-0.000028
1618	1.6089e+02	3.9072	0.649304	0.000344	3.439140	0.582606	-0.000034
1619	1.6099e+02	3.8969	0.615902	0.000336	3.357256	0.568735	-0.000034
1620	1.6109e+02	3.8860	0.582907	0.000332	3.316314	0.561799	-0.000033
1621	1.6119e+02	3.8733	0.546654	0.000364	3.643851	0.617285	-0.000036
1622	1.6129e+02	3.8681	0.518954	0.000278	2.784066	0.471634	-0.000028
1623	1.6139e+02	3.8558	0.484738	0.000344	3.439140	0.582606	-0.000034
1624	1.6149e+02	3.8464	0.455816	0.000291	2.906892	0.492441	-0.000029
1625	1.6159e+02	3.8355	0.423229	0.000328	3.275371	0.554863	-0.000033
1626	1.6169e+02	3.8274	0.394715	0.000287	2.865950	0.485505	-0.000029
1627	1.6179e+02	3.8187	0.359276	0.000356	3.561966	0.603413	-0.000036
1628	1.6189e+02	3.8085	0.328318	0.000311	3.111603	0.527120	-0.000031
1629	1.6199e+02	3.7954	0.298989	0.000295	2.947834	0.499377	-0.000029
1630	1.6209e+02	3.7881	0.266809	0.000323	3.234429	0.547927	-0.000032
1631	1.6219e+02	3.7740	0.233407	0.000336	3.357256	0.568735	-0.000034
1632	1.6228e+02	3.7670	0.199598	0.000340	3.398198	0.575670	-0.000034
1633	1.6238e+02	3.7617	0.173528	0.000262	2.620297	0.443890	-0.000026
1634	1.6248e+02	3.7476	0.139718	0.000340	3.398198	0.575670	-0.000034
1635	1.6258e+02	3.7365	0.106724	0.000332	3.316314	0.561799	-0.000033
1636	1.6268e+02	3.7299	0.074136	0.000328	3.275371	0.554863	-0.000033
1637	1.6278e+02	3.7187	0.041956	0.000323	3.234429	0.547927	-0.000032
1638	1.6288e+02	3.7077	0.008554	0.000336	3.357256	0.568735	-0.000034
1639	1.6298e+02	3.6990	-0.021996	0.000307	3.070661	0.520184	-0.000031
1640	1.6308e+02	3.6880	-0.055399	0.000336	3.357256	0.568735	-0.000034
1641	1.6318e+02	3.6764	-0.090023	0.000348	3.480082	0.589542	-0.000035
1642	1.6328e+02	3.6678	-0.126684	0.000368	3.684793	0.624221	-0.000037
1643	1.6338e+02	3.6592	-0.154383	0.000278	2.784066	0.471634	-0.000028
1644	1.6348e+02	3.6512	-0.189414	0.000352	3.521024	0.596478	-0.000035
1645	1.6358e+02	3.6385	-0.221594	0.000323	3.234429	0.547927	-0.000032
1646	1.6368e+02	3.6271	-0.258255	0.000368	3.684793	0.624221	-0.000037
1647	1.6378e+02	3.6171	-0.292879	0.000348	3.480082	0.589542	-0.000035
1648	1.6388e+02	3.6089	-0.326281	0.000336	3.357256	0.568735	-0.000034
1649	1.6398e+02	3.5964	-0.361720	0.000356	3.561966	0.603413	-0.000036
1650	1.6408e+02	3.5881	-0.397974	0.000364	3.643851	0.617285	-0.000036
1651	1.6418e+02	3.5781	-0.432598	0.000348	3.480082	0.589542	-0.000035
1652	1.6427e+02	3.5702	-0.470481	0.000381	3.807619	0.645028	-0.000038
1653	1.6437e+02	3.5572	-0.502661	0.000323	3.234429	0.547927	-0.000032
1654	1.6447e+02	3.5500	-0.535655	0.000332	3.316314	0.561799	-0.000033
1655	1.6457e+02	3.5375	-0.570687	0.000352	3.521024	0.596478	-0.000035
1656	1.6467e+02	3.5270	-0.605718	0.000352	3.521024	0.596478	-0.000035
1657	1.6477e+02	3.5196	-0.636269	0.000307	3.070661	0.520184	-0.000031
1658	1.6487e+02	3.5081	-0.672930	0.000368	3.684793	0.624221	-0.000037
1659	1.6497e+02	3.4969	-0.702666	0.000299	2.988776	0.506312	-0.000030
1660	1.6507e+02	3.4888	-0.738919	0.000364	3.643851	0.617285	-0.000036
1661	1.6517e+02	3.4795	-0.770692	0.000319	3.193487	0.540991	-0.000032
1662	1.6527e+02	3.4700	-0.804094	0.000336	3.357256	0.568735	-0.000034
1663	1.6537e+02	3.4619	-0.837089	0.000332	3.316314	0.561799	-0.000033
1664	1.6547e+02	3.4479	-0.875786	0.000389	3.889504	0.658900	-0.000039
1665	1.6557e+02	3.4383	-0.909596	0.000340	3.398198	0.575670	-0.000034
1666	1.6567e+02	3.4316	-0.943405	0.000340	3.398198	0.575670	-0.000034
1667	1.6577e+02	3.4184	-0.975585	0.000323	3.234429	0.547927	-0.000032
1668	1.6587e+02	3.4100	-1.008173	0.000328	3.275371	0.554863	-0.000033
1669	1.6597e+02	3.3976	-1.041168	0.000332	3.316314	0.561799	-0.000033
1670	1.6607e+02	3.3904	-1.080272	0.000393	3.930446	0.665836	-0.000039
1671	1.6616e+02	3.3765	-1.109601	0.000295	2.947834	0.499377	-0.000029
1672	1.6626e+02	3.3714	-1.145040	0.000356	3.561966	0.603413	-0.000036
1673	1.6636e+02	3.3604	-1.178442	0.000336	3.357256	0.568735	-0.000034
1674	1.6646e+02	3.3472	-1.214288	0.000360	3.602909	0.610349	-0.000036
1675	1.6656e+02	3.3407	-1.251764	0.000377	3.766677	0.638092	-0.000038
1676	1.6666e+02	3.3292	-1.288017	0.000364	3.643851	0.617285	-0.000036
1677	1.6676e+02	3.3193	-1.324678	0.000368	3.684793	0.624221	-0.000037
1678	1.6686e+02	3.3113	-1.361746	0.000373	3.725735	0.631157	-0.000037
1679	1.6696e+02	3.3000	-1.400444	0.000389	3.889504	0.658900	-0.000039
1680	1.6706e+02	3.2922	-1.434660	0.000344	3.439140	0.582606	-0.000034
1681	1.6716e+02	3.2784	-1.469692	0.000352	3.521024	0.596478	-0.000035
1682	1.6726e+02	3.2677	-1.507575	0.000381	3.807619	0.645028	-0.000038
1683	1.6736e+02	3.2592	-1.544643	0.000373	3.725735	0.631157	-0.000037
1684	1.6746e+02	3.2475	-1.580896	0.000364	3.643851	0.617285	-0.000036
1685	1.6756e+02	3.2397	-1.621223	0.000405	4.053272	0.686643	-0.000041
1686	1.6766e+02	3.2301	-1.653403	0.000323	3.234429	0.547927	-0.000032
1687	1.6776e+02	3.2210	-1.693730	0.000405	4.053272	0.686643	-0.000041
1688	1.6786e+02	3.2106	-1.727540	0.000340	3.398198	0.575670	-0.000034
1689	1.6796e+02	3.1988	-1.767052	0.000397	3.971388	0.672771	-0.000040
1690	1.6806e+02	3.1893	-1.805750	0.000389	3.889504	0.658900	-0.000039
1691	1.6816e+02	3.1792	-1.845669	0.000401	4.012330	0.679707	-0.000040
1692	1.6825e+02	3.1694	-1.880293	0.000348	3.480082	0.589542	-0.000035
1693	1.6835e+02	3.1610	-1.915732	0.000356	3.561966	0.603413	-0.000036
1694	1.6845e+02	3.1536	-1.957688	0.000422	4.217041	0.714386	-0.000042
1695	1.6855e+02	3.1403	-1.991905	0.000344	3.439140	0.582606	-0.000034
1696	1.6865e+02	3.1299	-2.033454	0.000418	4.176099	0.707450	-0.000042
1697	1.6875e+02	3.1214	-2.064819	0.000315	3.152545	0.534056	-0.000032
1698	1.6885e+02	3.1122	-2.106776	0.000422	4.217041	0.714386	-0.000042
1699	1.6895e+02	3.0993	-2.143844	0.000373	3.725735	0.631157	-0.000037
1700	1.6905e+02	3.0901	-2.182541	0.000389	3.889504	0.658900	-0.000039
1701	1.6915e+02	3.0781	-2.222461	0.000401	4.012330	0.679707	-0.000040
1702	1.6925e+02	3.0725	-2.258714	0.000364	3.643851	0.617285	-0.000036
1703	1.6935e+02	3.0599	-2.296190	0.000377	3.766677	0.638092	-0.000038
1704	1.6945e+02	3.0502	-2.336517	0.000405	4.053272	0.686643	-0.000041
1705	1.6955e+02	3.0433	-2.375214	0.000389	3.889504	0.658900	-0.000039
1706	1.6965e+02	3.0283	-2.417985	0.000430	4.298925	0.728258	-0.000043
1707	1.6975e+02	3.0247	-2.455868	0.000381	3.807619	0.645028	-0.000038
1708	1.6985e+02	3.0116	-2.494973	0.000393	3.930446	0.665836	-0.000039
1709	1.6995e+02	3.0006	-2.536522	0.000418	4.176099	0.707450	-0.000042
1710	1.7005e+02	2.9916	-2.582144	0.000459	4.585520	0.776808	-0.000046
1711	1.7015e+02	2.9834	-2.618805	0.000368	3.684793	0.624221	-0.000037
1712	1.7024e+02	2.9697	-2.656688	0.000381	3.807619	0.645028	-0.000038
1713	1.7034e+02	2.9617	-2.697830	0.000414	4.135156	0.700514	-0.000041
1714	1.7044e+02	2.9511	-2.740601	0.000430	4.298925	0.728258	-0.000043
1715	1.7054e+02	2.9406	-2.776447	0.000360	3.602909	0.610349	-0.000036
1716	1.7064e+02	2.9321	-2.818810	0.000426	4.257983	0.721322	-0.000043
1717	1.7074e+02	2.9238	-2.860767	0.000422	4.217041	0.714386	-0.000042
1718	1.7084e+02	2.9129	-2.903130	0.000426	4.257983	0.721322	-0.000043
1719	1.7094e+02	2.9038	-2.938569	0.000356	3.561966	0.603413	-0.000036
1720	1.7104e+02	2.8909	-2.985006	0.000467	4.667404	0.790680	-0.000047
1721	1.7114e+02	2.8800	-3.025333	0.000405	4.053272	0.686643	-0.000041
1722	1.7124e+02	2.8709	-3.064438	0.000393	3.930446	0.665836	-0.000039
1723	1.7134e+02	2.8608	-3.098655	0.000344	3.439140	0.582606	-0.000034
1724	1.7144e+02	2.8514	-3.140204	0.000418	4.176099	0.707450	-0.000042
1725	1.7154e+02	2.8411	-3.181753	0.000418	4.176099	0.707450	-0.000042
1726	1.7164e+02	2.8324	-3.220858	0.000393	3.930446	0.665836	-0.000039
1727	1.7174e+02	2.8207	-3.260370	0.000397	3.971388	0.672771	-0.000040
1728	1.7184e+02	2.8091	-3.298253	0.000381	3.807619	0.645028	-0.000038
1729	1.7194e+02	2.8036	-3.340616	0.000426	4.257983	0.721322	-0.000043
1730	1.7204e+02	2.7928	-3.373611	0.000332	3.316314	0.561799	-0.000033
1731	1.7213e+02	2.7846	-3.413123	0.000397	3.971388	0.672771	-0.000040
1732	1.7223e+02	2.7721	-3.454672	0.000418	4.176099	0.707450	-0.000042
1733	1.7233e+02	2.7628	-3.491333	0.000368	3.684793	0.624221	-0.000037
1734	1.7243e+02	2.7517	-3.531253	0.000401	4.012330	0.679707	-0.000040
1735	1.7253e+02	2.7433	-3.571172	0.000401	4.012330	0.679707	-0.000040
1736	1.7263e+02	2.7314	-3.608240	0.000373	3.725735	0.631157	-0.000037
1737	1.7273e+02	2.7206	-3.649382	0.000414	4.135156	0.700514	-0.000041
1738	1.7283e+02	2.7132	-3.689301	0.000401	4.012330	0.679707	-0.000040
1739	1.7293e+02	2.7013	-3.727592	0.000385	3.848561	0.651964	-0.000038
1740	1.7303e+02	2.6927	-3.767104	0.000397	3.971388	0.672771	-0.000040
1741	1.7313e+02	2.6846	-3.807838	0.000409	4.094214	0.693579	-0.000041
1742	1.7323e+02	2.6759	-3.853461	0.000459	4.585520	0.776808	-0.000046
1743	1.7333e+02	2.6630	-3.891751	0.000385	3.848561	0.651964	-0.000038
1744	1.7343e+02	2.6533	-3.930856	0.000393	3.930446	0.665836	-0.000039
1745	1.7353e+02	2.6418	-3.973219	0.000426	4.257983	0.721322	-0.000043
1746	1.7363e+02	2.6322	-4.010695	0.000377	3.766677	0.638092	-0.000038
1747	1.7373e+02	2.6205	-4.051429	0.000409	4.094214	0.693579	-0.000041
1748	1.7383e+02	2.6134	-4.092571	0.000414	4.135156	0.700514	-0.000041
1749	1.7393e+02	2.6009	-4.133305	0.000409	4.094214	0.693579	-0.000041
1750	1.7403e+02	2.5925	-4.172002	0.000389	3.889504	0.658900	-0.000039
1751	1.7413e+02	2.5820	-4.211107	0.000393	3.930446	0.665836	-0.000039
1752	1.7422e+02	2.5719	-4.258359	0.000475	4.749289	0.804551	-0.000047
1753	1.7432e+02	2.5622	-4.295020	0.000368	3.684793	0.624221	-0.000037
1754	1.7442e+02	2.5546	-4.336976	0.000422	4.217041	0.714386	-0.000042
1755	1.7452e+02	2.5420	-4.376488	0.000397	3.971388	0.672771	-0.000040
1756	1.7462e+02	2.5350	-4.420074	0.000438	4.380809	0.742129	-0.000044
1757	1.7472e+02	2.5216	-4.454291	0.000344	3.439140	0.582606	-0.000034
1758	1.7482e+02	2.5137	-4.494210	0.000401	4.012330	0.679707	-0.000040
1759	1.7492e+02	2.5011	-4.533723	0.000397	3.971388	0.672771	-0.000040
1760	1.7502e+02	2.4937	-4.569569	0.000360	3.602909	0.610349	-0.000036
1761	1.7512e+02	2.4829	-4.608674	0.000393	3.930446	0.665836	-0.000039
1762	1.7522e+02	2.4744	-4.648593	0.000401	4.012330	0.679707	-0.000040
1763	1.7532e+02	2.4654	-4.687291	0.000389	3.889504	0.658900	-0.000039
1764	1.7542e+02	2.4538	-4.727618	0.000405	4.053272	0.686643	-0.000041
1765	1.7552e+02	2.4438	-4.764278	0.000368	3.684793	0.624221	-0.000037
1766	1.7562e+02	2.4331	-4.804605	0.000405	4.053272	0.686643	-0.000041
1767	1.7572e+02	2.4216	-4.838415	0.000340	3.398198	0.575670	-0.000034
1768	1.7582e+02	2.4146	-4.881593	0.000434	4.339867	0.735193	-0.000043
1769	1.7592e+02	2.4061	-4.920291	0.000389	3.889504	0.658900	-0.000039
1770	1.7602e+02	2.3968	-4.957766	0.000377	3.766677	0.638092	-0.000038
1771	1.7612e+02	2.3859	-4.995649	0.000381	3.807619	0.645028	-0.000038
1772	1.7621e+02	2.3757	-5.035569	0.000401	4.012330	0.679707	-0.000040
1773	1.7631e+02	2.3632	-5.073451	0.000381	3.807619	0.645028	-0.000038
1774	1.7641e+02	2.3553	-5.109298	0.000360	3.602909	0.610349	-0.000036
1775	1.7651e+02	2.3460	-5.150439	0.000414	4.135156	0.700514	-0.000041
1776	1.7661e+02	2.3369	-5.188322	0.000381	3.807619	0.645028	-0.000038
1777	1.7671e+02	2.3261	-5.229464	0.000414	4.135156	0.700514	-0.000041
1778	1.7681e+02	2.3143	-5.268569	0.000393	3.930446	0.665836	-0.000039
1779	1.7691e+02	2.3049	-5.304007	0.000356	3.561966	0.603413	-0.000036
1780	1.7701e+02	2.2922	-5.342705	0.000389	3.889504	0.658900	-0.000039
1781	1.7711e+02	2.2865	-5.380180	0.000377	3.766677	0.638092	-0.000038
1782	1.7721e+02	2.2746	-5.419285	0.000393	3.930446	0.665836	-0.000039
1783	1.7731e+02	2.2628	-5.457576	0.000385	3.848561	0.651964	-0.000038
1784	1.7741e+02	2.2533	-5.493829	0.000364	3.643851	0.617285	-0.000036
1785	1.7751e+02	2.2430	-5.536193	0.000426	4.257983	0.721322	-0.000043
1786	1.7761e+02	2.2352	-5.574890	0.000389	3.889504	0.658900	-0.000039
1787	1.7771e+02	2.2225	-5.610329	0.000356	3.561966	0.603413	-0.000036
1788	1.7781e+02	2.2150	-5.651471	0.000414	4.135156	0.700514	-0.000041
1789	1.7791e+02	2.2068	-5.687724	0.000364	3.643851	0.617285	-0.000036
1790	1.7801e+02	2.1937	-5.723570	0.000360	3.602909	0.610349	-0.000036
1791	1.7810e+02	2.1830	-5.760638	0.000373	3.725735	0.631157	-0.000037
1792	1.7820e+02	2.1741	-5.798114	0.000377	3.766677	0.638092	-0.000038
1793	1.7830e+02	2.1648	-5.834775	0.000368	3.684793	0.624221	-0.000037
1794	1.7840e+02	2.1532	-5.871436	0.000368	3.684793	0.624221	-0.000037
1795	1.7850e+02	2.1459	-5.908504	0.000373	3.725735	0.631157	-0.000037
1796	1.7860e+02	2.1368	-5.945979	0.000377	3.766677	0.638092	-0.000038
1797	1.7870e+02	2.1259	-5.982233	0.000364	3.643851	0.617285	-0.000036
1798	1.7880e+02	2.1150	-6.021338	0.000393	3.930446	0.665836	-0.000039
1799	1.7890e+02	2.1066	-6.056369	0.000352	3.521024	0.596478	-0.000035
1800	1.7900e+02	2.0936	-6.095881	0.000397	3.971388	0.672771	-0.000040
1801	1.7910e+02	2.0840	-6.130505	0.000348	3.480082	0.589542	-0.000035
1802	1.7920e+02	2.0734	-6.165130	0.000348	3.480082	0.589542	-0.000035
1803	1.7930e+02	2.0642	-6.205864	0.000409	4.094214	0.693579	-0.000041
1804	1.7940e+02	2.0551	-6.241303	0.000356	3.561966	0.603413	-0.000036
1805	1.7950e+02	2.0452	-6.280815	0.000397	3.971388	0.672771	-0.000040
1806	1.7960e+02	2.0342	-6.321142	0.000405	4.053272	0.686643	-0.000041
1807	1.7970e+02	2.0250	-6.357803	0.000368	3.684793	0.624221	-0.000037
1808	1.7980e+02	2.0156	-6.396907	0.000393	3.930446	0.665836	-0.000039
1809	1.7990e+02	2.0038	-6.434383	0.000377	3.766677	0.638092	-0.000038
1810	1.8000e+02	1.9967	-6.478376	0.000442	4.421751	0.749065	-0.000044
1811	1.8009e+02	1.9878	-6.514629	0.000364	3.643851	0.617285	-0.000036
1812	1.8019e+02	1.9754	-6.551290	0.000368	3.684793	0.624221	-0.000037
1813	1.8029e+02	1.9654	-6.593247	0.000422	4.217041	0.714386	-0.000042
1814	1.8039e+02	1.9541	-6.634795	0.000418	4.176099	0.707450	-0.000042
1815	1.8049e+02	1.9451	-6.673900	0.000393	3.930446	0.665836	-0.000039
1816	1.8059e+02	1.9367	-6.713820	0.000401	4.012330	0.679707	-0.000040
1817	1.8069e+02	1.9255	-6.749259	0.000356	3.561966	0.603413	-0.000036
1818	1.8079e+02	1.9157	-6.797325	0.000483	4.831173	0.818423	-0.000048
1819	1.8089e+02	1.9061	-6.833579	0.000364	3.643851	0.617285	-0.000036
1820	1.8099e+02	1.8944	-6.874720	0.000414	4.135156	0.700514	-0.000041
1821	1.8109e+02	1.8851	-6.913418	0.000389	3.889504	0.658900	-0.000039
1822	1.8119e+02	1.8775	-6.950079	0.000368	3.684793	0.624221	-0.000037
1823	1.8129e+02	1.8657	-6.993664	0.000438	4.380809	0.742129	-0.000044
1824	1.8139e+02	1.8566	-7.028288	0.000348	3.480082	0.589542	-0.000035
1825	1.8149e+02	1.8476	-7.070245	0.000422	4.217041	0.714386	-0.000042
1826	1.8159e+02	1.8362	-7.106905	0.000368	3.684793	0.624221	-0.000037
1827	1.8169e+02	1.8269	-7.146825	0.000401	4.012330	0.679707	-0.000040
1828	1.8179e+02	1.8173	-7.186337	0.000397	3.971388	0.672771	-0.000040
1829	1.8189e+02	1.8058	-7.220554	0.000344	3.439140	0.582606	-0.000034
1830	1.8199e+02	1.7944	-7.264140	0.000438	4.380809	0.742129	-0.000044
1831	1.8209e+02	1.7860	-7.304059	0.000401	4.012330	0.679707	-0.000040
1832	1.8218e+02	1.7760	-7.347238	0.000434	4.339867	0.735193	-0.000043
1833	1.8228e+02	1.7669	-7.385528	0.000385	3.848561	0.651964	-0.000038
1834	1.8238e+02	1.7563	-7.423003	0.000377	3.766677	0.638092	-0.000038
1835	1.8248e+02	1.7477	-7.462108	0.000393	3.930446	0.665836	-0.000039
1836	1.8258e+02	1.7393	-7.498769	0.000368	3.684793	0.624221	-0.000037
1837	1.8268e+02	1.7284	-7.540318	0.000418	4.176099	0.707450	-0.000042
1838	1.8278e+02	1.7149	-7.582274	0.000422	4.217041	0.714386	-0.000042
1839	1.8288e+02	1.7066	-7.615676	0.000336	3.357256	0.568735	-0.000034
1840	1.8298e+02	1.6964	-7.657225	0.000418	4.176099	0.707450	-0.000042
1841	1.8308e+02	1.6846	-7.699996	0.000430	4.298925	0.728258	-0.000043
1842	1.8318e+02	1.6789	-7.744804	0.000450	4.503636	0.762937	-0.000045
1843	1.8328e+02	1.6683	-7.785946	0.000414	4.135156	0.700514	-0.000041
1844	1.8338e+02	1.6587	-7.829531	0.000438	4.380809	0.742129	-0.000044
1845	1.8348e+02	1.6486	-7.868229	0.000389	3.889504	0.658900	-0.000039
1846	1.8358e+02	1.6372	-7.906112	0.000381	3.807619	0.645028	-0.000038
1847	1.8368e+02	1.6270	-7.951734	0.000459	4.585520	0.776808	-0.000046
1848	1.8378e+02	1.6179	-7.994912	0.000434	4.339867	0.735193	-0.000043
1849	1.8388e+02	1.6082	-8.036054	0.000414	4.135156	0.700514	-0.000041
1850	1.8398e+02	1.5971	-8.081676	0.000459	4.585520	0.776808	-0.000046
1851	1.8407e+02	1.5881	-8.121596	0.000401	4.012330	0.679707	-0.000040
1852	1.8417e+02	1.5780	-8.165181	0.000438	4.380809	0.742129	-0.000044
1853	1.8427e+02	1.5659	-8.206323	0.000414	4.135156	0.700514	-0.000041
1854	1.8437e+02	1.5600	-8.249094	0.000430	4.298925	0.728258	-0.000043
1855	1.8447e+02	1.5468	-8.294716	0.000459	4.585520	0.776808	-0.000046
1856	1.8457e+02	1.5385	-8.337487	0.000430	4.298925	0.728258	-0.000043
1857	1.8467e+02	1.5295	-8.379036	0.000418	4.176099	0.707450	-0.000042
1858	1.8477e+02	1.5192	-8.420585	0.000418	4.176099	0.707450	-0.000042
1859	1.8487e+02	1.5059	-8.466615	0.000463	4.626462	0.783744	-0.000046
1860	1.8497e+02	1.4982	-8.508979	0.000426	4.257983	0.721322	-0.000043
1861	1.8507e+02	1.4875	-8.552157	0.000434	4.339867	0.735193	-0.000043
1862	1.8517e+02	1.4772	-8.594928	0.000430	4.298925	0.728258	-0.000043
1863	1.8527e+02	1.4679	-8.639328	0.000446	4.462694	0.756001	-0.000045
1864	1.8537e+02	1.4645	-8.681692	0.000426	4.257983	0.721322	-0.000043
1865	1.8547e+02	1.4478	-8.723241	0.000418	4.176099	0.707450	-0.000042
1866	1.8557e+02	1.4350	-8.768048	0.000450	4.503636	0.762937	-0.000045
1867	1.8567e+02	1.4281	-8.814078	0.000463	4.626462	0.783744	-0.000046
1868	1.8577e+02	1.4210	-8.855220	0.000414	4.135156	0.700514	-0.000041
1869	1.8587e+02	1.4063	-8.900842	0.000459	4.585520	0.776808	-0.000046
1870	1.8597e+02	1.4008	-8.943613	0.000430	4.298925	0.728258	-0.000043
1871	1.8606e+02	1.3884	-8.990050	0.000467	4.667404	0.790680	-0.000047
1872	1.8616e+02	1.3779	-9.031192	0.000414	4.135156	0.700514	-0.000041
1873	1.8626e+02	1.3683	-9.080888	0.000499	4.994941	0.846166	-0.000050
1874	1.8636e+02	1.3568	-9.126917	0.000463	4.626462	0.783744	-0.000046
1875	1.8646e+02	1.3500	-9.176206	0.000495	4.953999	0.839230	-0.000050
1876	1.8656e+02	1.3350	-9.219384	0.000434	4.339867	0.735193	-0.000043
1877	1.8666e+02	1.3271	-9.264599	0.000454	4.544578	0.769872	-0.000045
1878	1.8676e+02	1.3162	-9.311443	0.000471	4.708346	0.797615	-0.000047
1879	1.8686e+02	1.3082	-9.357066	0.000459	4.585520	0.776808	-0.000046
1880	1.8696e+02	1.2985	-9.405132	0.000483	4.831173	0.818423	-0.000048
1881	1.8706e+02	1.2918	-9.447496	0.000426	4.257983	0.721322	-0.000043
1882	1.8716e+02	1.2765	-9.493118	0.000459	4.585520	0.776808	-0.000046
1883	1.8726e+02	1.2695	-9.540777	0.000479	4.790231	0.811487	-0.000048
1884	1.8736e+02	1.2603	-9.583956	0.000434	4.339867	0.735193	-0.000043
1885	1.8746e+02	1.2504	-9.630800	0.000471	4.708346	0.797615	-0.000047
1886	1.8756e+02	1.2406	-9.678866	0.000483	4.831173	0.818423	-0.000048
1887	1.8766e+02	1.2281	-9.723267	0.000446	4.462694	0.756001	-0.000045
1888	1.8776e+02	1.2185	-9.770111	0.000471	4.708346	0.797615	-0.000047
1889	1.8786e+02	1.2093	-9.813697	0.000438	4.380809	0.742129	-0.000044
1890	1.8796e+02	1.1997	-9.860134	0.000467	4.667404	0.790680	-0.000047
1891	1.8806e+02	1.1895	-9.906978	0.000471	4.708346	0.797615	-0.000047
1892	1.8815e+02	1.1777	-9.949749	0.000430	4.298925	0.728258	-0.000043
1893	1.8825e+02	1.1737	-9.996186	0.000467	4.667404	0.790680	-0.000047
1894	1.8835e+02	1.1601	-10.040994	0.000450	4.503636	0.762937	-0.000045
1895	1.8845e+02	1.1485	-10.083765	0.000430	4.298925	0.728258	-0.000043
1896	1.8855e+02	1.1405	-10.129795	0.000463	4.626462	0.783744	-0.000046
1897	1.8865e+02	1.1301	-10.175010	0.000454	4.544578	0.769872	-0.000045
1898	1.8875e+02	1.1208	-10.221039	0.000463	4.626462	0.783744	-0.000046
1899	1.8885e+02	1.1109	-10.262996	0.000422	4.217041	0.714386	-0.000042
1900	1.8895e+02	1.0994	-10.307396	0.000446	4.462694	0.756001	-0.000045
1901	1.8905e+02	1.0916	-10.351389	0.000442	4.421751	0.749065	-0.000044
1902	1.8915e+02	1.0826	-10.394567	0.000434	4.339867	0.735193	-0.000043
1903	1.8925e+02	1.0695	-10.439782	0.000454	4.544578	0.769872	-0.000045
1904	1.8935e+02	1.0622	-10.486627	0.000471	4.708346	0.797615	-0.000047
1905	1.8945e+02	1.0534	-10.533064	0.000467	4.667404	0.790680	-0.000047
1906	1.8955e+02	1.0406	-10.578279	0.000454	4.544578	0.769872	-0.000045
1907	1.8965e+02	1.0311	-10.623901	0.000459	4.585520	0.776808	-0.000046
1908	1.8975e+02	1.0208	-10.673597	0.000499	4.994941	0.846166	-0.000050
1909	1.8985e+02	1.0114	-10.713924	0.000405	4.053272	0.686643	-0.000041
1910	1.8995e+02	1.0021	-10.764027	0.000504	5.035884	0.853102	-0.000050
1911	1.9004e+02	0.9913	-10.811279	0.000475	4.749289	0.804551	-0.000047
1912	1.9014e+02	0.9817	-10.857308	0.000463	4.626462	0.783744	-0.000046
1913	1.9024e+02	0.9758	-10.901709	0.000446	4.462694	0.756001	-0.000045
1914	1.9034e+02	0.9619	-10.946516	0.000450	4.503636	0.762937	-0.000045
1915	1.9044e+02	0.9483	-10.993361	0.000471	4.708346	0.797615	-0.000047
1916	1.9054e+02	0.9401	-11.038576	0.000454	4.544578	0.769872	-0.000045
1917	1.9064e+02	0.9308	-11.084198	0.000459	4.585520	0.776808	-0.000046
1918	1.9074e+02	0.9199	-11.135523	0.000516	5.158710	0.873909	-0.000052
1919	1.9084e+02	0.9129	-11.175850	0.000405	4.053272	0.686643	-0.000041
1920	1.9094e+02	0.9003	-11.223509	0.000479	4.790231	0.811487	-0.000048
1921	1.9104e+02	0.8947	-11.274427	0.000512	5.117768	0.866973	-0.000051
1922	1.9114e+02	0.8798	-11.320457	0.000463	4.626462	0.783744	-0.000046
1923	1.9124e+02	0.8746	-11.365265	0.000450	4.503636	0.762937	-0.000045
1924	1.9134e+02	0.8631	-11.411702	0.000467	4.667404	0.790680	-0.000047
1925	1.9144e+02	0.8516	-11.453658	0.000422	4.217041	0.714386	-0.000042
1926	1.9154e+02	0.8441	-11.500095	0.000467	4.667404	0.790680	-0.000047
1927	1.9164e+02	0.8312	-11.546125	0.000463	4.626462	0.783744	-0.000046
1928	1.9174e+02	0.8203	-11.591747	0.000459	4.585520	0.776808	-0.000046
1929	1.9184e+02	0.8109	-11.634925	0.000434	4.339867	0.735193	-0.000043
1930	1.9194e+02	0.8033	-11.679326	0.000446	4.462694	0.756001	-0.000045
1931	1.9203e+02	0.7933	-11.724133	0.000450	4.503636	0.762937	-0.000045
1932	1.9213e+02	0.7812	-11.769756	0.000459	4.585520	0.776808	-0.000046
1933	1.9223e+02	0.7745	-11.813749	0.000442	4.421751	0.749065	-0.000044
1934	1.9233e+02	0.7624	-11.858149	0.000446	4.462694	0.756001	-0.000045
1935	1.9243e+02	0.7522	-11.902142	0.000442	4.421751	0.749065	-0.000044
1936	1.9253e+02	0.7434	-11.944913	0.000430	4.298925	0.728258	-0.000043
1937	1.9263e+02	0.7339	-11.990943	0.000463	4.626462	0.783744	-0.000046
1938	1.9273e+02	0.7236	-12.039009	0.000483	4.831173	0.818423	-0.000048
1939	1.9283e+02	0.7127	-12.078114	0.000393	3.930446	0.665836	-0.000039
1940	1.9293e+02	0.7024	-12.126588	0.000487	4.872115	0.825359	-0.000049
1941	1.9303e+02	0.6917	-12.166507	0.000401	4.012330	0.679707	-0.000040
1942	1.9313e+02	0.6834	-12.211722	0.000454	4.544578	0.769872	-0.000045
1943	1.9323e+02	0.6741	-12.258567	0.000471	4.708346	0.797615	-0.000047
1944	1.9333e+02	0.6615	-12.301745	0.000434	4.339867	0.735193	-0.000043
1945	1.9343e+02	0.6521	-12.348589	0.000471	4.708346	0.797615	-0.000047
1946	1.9353e+02	0.6432	-12.388916	0.000405	4.053272	0.686643	-0.000041
1947	1.9363e+02	0.6324	-12.435761	0.000471	4.708346	0.797615	-0.000047
1948	1.9373e+02	0.6237	-12.482198	0.000467	4.667404	0.790680	-0.000047
1949	1.9383e+02	0.6149	-12.524969	0.000430	4.298925	0.728258	-0.000043
1950	1.9393e+02	0.6048	-12.570184	0.000454	4.544578	0.769872	-0.000045
1951	1.9403e+02	0.5897	-12.617436	0.000475	4.749289	0.804551	-0.000047
1952	1.9412e+02	0.5817	-12.656133	0.000389	3.889504	0.658900	-0.000039
1953	1.9422e+02	0.5727	-12.702977	0.000471	4.708346	0.797615	-0.000047
1954	1.9432e+02	0.5634	-12.746156	0.000434	4.339867	0.735193	-0.000043
1955	1.9442e+02	0.5543	-12.790556	0.000446	4.462694	0.756001	-0.000045
1956	1.9452e+02	0.5431	-12.833327	0.000430	4.298925	0.728258	-0.000043
1957	1.9462e+02	0.5318	-12.872025	0.000389	3.889504	0.658900	-0.000039
1958	1.9472e+02	0.5227	-12.916425	0.000446	4.462694	0.756001	-0.000045
1959	1.9482e+02	0.5132	-12.961233	0.000450	4.503636	0.762937	-0.000045
1960	1.9492e+02	0.5021	-13.002374	0.000414	4.135156	0.700514	-0.000041
1961	1.9502e+02	0.4948	-13.042294	0.000401	4.012330	0.679707	-0.000040
1962	1.9512e+02	0.4819	-13.088324	0.000463	4.626462	0.783744	-0.000046
1963	1.9522e+02	0.4753	-13.131094	0.000430	4.298925	0.728258	-0.000043
1964	1.9532e+02	0.4618	-13.175495	0.000446	4.462694	0.756001	-0.000045
1965	1.9542e+02	0.4564	-13.219488	0.000442	4.421751	0.749065	-0.000044
1966	1.9552e+02	0.4424	-13.261444	0.000422	4.217041	0.714386	-0.000042
1967	1.9562e+02	0.4350	-13.305030	0.000438	4.380809	0.742129	-0.000044
1968	1.9572e+02	0.4227	-13.349023	0.000442	4.421751	0.749065	-0.000044
1969	1.9582e+02	0.4174	-13.390572	0.000418	4.176099	0.707450	-0.000042
1970	1.9592e+02	0.4033	-13.433343	0.000430	4.298925	0.728258	-0.000043
1971	1.9601e+02	0.3934	-13.472448	0.000393	3.930446	0.665836	-0.000039
1972	1.9611e+02	0.3864	-13.518070	0.000459	4.585520	0.776808	-0.000046
1973	1.9621e+02	0.3716	-13.561248	0.000434	4.339867	0.735193	-0.000043
1974	1.9631e+02	0.3626	-13.603205	0.000422	4.217041	0.714386	-0.000042
1975	1.9641e+02	0.3540	-13.650049	0.000471	4.708346	0.797615	-0.000047
1976	1.9651e+02	0.3403	-13.698930	0.000491	4.913057	0.832294	-0.000049
1977	1.9661e+02	0.3347	-13.743330	0.000446	4.462694	0.756001	-0.000045
1978	1.9671e+02	0.3230	-13.786916	0.000438	4.380809	0.742129	-0.000044
1979	1.9681e+02	0.3157	-13.833353	0.000467	4.667404	0.790680	-0.000047
1980	1.9691e+02	0.3055	-13.874087	0.000409	4.094214	0.693579	-0.000041
1981	1.9701e+02	0.2924	-13.921339	0.000475	4.749289	0.804551	-0.000047
1982	1.9711e+02	0.2831	-13.971442	0.000504	5.035884	0.853102	-0.000050
1983	1.9721e+02	0.2750	-14.018287	0.000471	4.708346	0.797615	-0.000047
1984	1.9731e+02	0.2615	-14.062687	0.000446	4.462694	0.756001	-0.000045
1985	1.9741e+02	0.2551	-14.108717	0.000463	4.626462	0.783744	-0.000046
1986	1.9751e+02	0.2438	-14.156376	0.000479	4.790231	0.811487	-0.000048
1987	1.9761e+02	0.2381	-14.198739	0.000426	4.257983	0.721322	-0.000043
1988	1.9771e+02	0.2238	-14.244769	0.000463	4.626462	0.783744	-0.000046
1989	1.9781e+02	0.2129	-14.289984	0.000454	4.544578	0.769872	-0.000045
1990	1.9791e+02	0.2048	-14.335199	0.000454	4.544578	0.769872	-0.000045
1991	1.9800e+02	0.1949	-14.377970	0.000430	4.298925	0.728258	-0.000043
1992	1.9810e+02	0.1855	-14.423185	0.000454	4.544578	0.769872	-0.000045
1993	1.9820e+02	0.1771	-14.469622	0.000467	4.667404	0.790680	-0.000047
1994	1.9830e+02	0.1641	-14.513208	0.000438	4.380809	0.742129	-0.000044
1995	1.9840e+02	0.1546	-14.562496	0.000495	4.953999	0.839230	-0.000050
1996	1.9850e+02	0.1444	-14.601601	0.000393	3.930446	0.665836	-0.000039
1997	1.9860e+02	0.1349	-14.649668	0.000483	4.831173	0.818423	-0.000048
1998	1.9870e+02	0.1250	-14.692031	0.000426	4.257983	0.721322	-0.000043
1999	1.9880e+02	0.1141	-14.743356	0.000516	5.158710	0.873909	-0.000052
2000	1.9890e+02	0.1035	-14.786535	0.000434	4.339867	0.735193	-0.000043
2001	1.9900e+02	0.0945	-14.830120	0.000438	4.380809	0.742129	-0.000044
2002	1.9910e+02	0.0862	-14.874928	0.000450	4.503636	0.762937	-0.000045
2003	1.9920e+02	0.0744	-14.924216	0.000495	4.953999	0.839230	-0.000050
2004	1.9930e+02	0.0654	-14.966987	0.000430	4.298925	0.728258	-0.000043
2005	1.9940e+02	0.0552	-15.008129	0.000414	4.135156	0.700514	-0.000041
2006	1.9950e+02	0.0465	-15.056195	0.000483	4.831173	0.818423	-0.000048
2007	1.9960e+02	0.0355	-15.101003	0.000450	4.503636	0.762937	-0.000045
2008	1.9970e+02	0.0234	-15.148255	0.000475	4.749289	0.804551	-0.000047
2009	1.9980e+02	0.0140	-15.193877	0.000459	4.585520	0.776808	-0.000046
2010	1.9990e+02	0.0028	-15.241536	0.000479	4.790231	0.811487	-0.000048
2011	2.0000e+02	-0.0031	-15.290010	0.000479	4.790231	0.811487	-0.000049

PMax (uC/cm2):	3.46e+01
Pr (uC/cm2):	2.00e+00
-Pr (uC/cm2):	0.00e+00
PLoss (uC/cm2):	0.00e+00
C (Max-Eff) (nF):	3.46e-01
K (Eff):	5.86e+02
Vert. (+/-Pr) Shift (uC/cm2):	1.00e+00
Offset (uC/cm2):	1.73e+01

A (Loop Area - uC/cm2·Volts):	-1.95e-02



Hysteresis Version: 5.48.1 - Radiant Technologies, Inc., 1999 - 9/12/24

