»»»»»»»»»»»»»»»»»»»»»»»»»»»»»»»»»»»» Hysteresis ««««««««««««««««««««««««««««««««««««
»»»  Executed Version:	5.48.1
»»»  Vision Version:	5.48.4 (R)
»»»  Vision Compiled:	9/18/24
»»»  Driver Version:	5.47.0
»»»  Windows Version:	Windows 8 or 8.1
»»»  Processor Information:	x86 (AMD or Intel) - 32 Processors
»»»  Tester Name:	PMF21124-494 (100V)
»»»  Tester S/N:	PMF21124-494
»»»  Internal Amp Type:	100V RevK 270k
»»»  Internal Amp S/N:	iAB2-596/K     
»»»  Execution Count:	1
»»»»»»»»»»»»»»»»»»»»»»»»»»»»»»»»»»»»»»»»»»««««««««««««««««««««««««««««««««««««««««««

Stored:	6/30/2025 - 12:1:6
Configured:	06/30/25 10:19:58 AM
Executed:	06/30/25 12:00:37 PM

»»»»»»»»»»»»»»»»»»»»»»»»»»»»»»»»»»» Sample Info ««««««««««««««««««««««««««««««««««««
Sample Name:	
Lot Name:	
Wafer Name:	
Die Row/Column:	0/0
Capacitor Number:	0
Sample Area (cm2):	1.00e-04
Sample Thickness (microns):	1.50e-01

Amplifier:	Internal

»»»»»»»»»»»»»»»»»»»»»»»»»»»»»»»»»»» Tester Info «««««««««««««««««««««««««««««««««««
Tester Name:	PMF21124-494 (100V)
Tester Serial Number:	PMF21124-494
Return Signal Amp. Level:	1.9 [Index: 2]

»»»»»»»»»»»»»»»»»»»»»»»»»»»»»»»» Hysteresis Info ««««««««««««««««««««««««««««««««««
Task Name:	Hyst-1804
Volts:	10.00
Field:	666.67 (kV/cm)
DCBias:	0.00
DCField:	0.00 (kV/cm)
Hysteresis Period (ms):	2.00e+02
Preset:	Enabled
Preset Delay (ms):	1.00e+03
Profile:	Standard Monopolar

»»»»»»»»»»»»»»»»»»»»»»»»»»»»»»»»»»»»»» Data «««««««««««««««««««««««««««««««««««««««
Points:	2011

Valid Data

Point	Time (ms)	Drive Voltage	Measured Polarization (uC/cm2)	Capacitance (uF)	Normalized Capacitance (uF/cm2)	Dielectric Constant	Instantaneous Current (mA)
   1	0.0000e+00	-0.0051	-17.289655	0.000360	3.602730	0.610319	0.000036
   2	9.9500e-02	0.0048	-17.253808	0.000360	3.602730	0.610319	0.000036
   3	1.9900e-01	0.0159	-17.215926	0.000381	3.807430	0.644996	0.000038
   4	2.9850e-01	0.0277	-17.174377	0.000418	4.175892	0.707415	0.000042
   5	3.9800e-01	0.0348	-17.134457	0.000401	4.012131	0.679673	0.000040
   6	4.9750e-01	0.0429	-17.094130	0.000405	4.053071	0.686609	0.000041
   7	5.9700e-01	0.0581	-17.047693	0.000467	4.667173	0.790640	0.000047
   8	6.9650e-01	0.0669	-17.007366	0.000405	4.053071	0.686609	0.000041
   9	7.9600e-01	0.0743	-16.970705	0.000368	3.684610	0.624190	0.000037
  10	8.9550e-01	0.0858	-16.926712	0.000442	4.421532	0.749028	0.000044
  11	9.9500e-01	0.0949	-16.884756	0.000422	4.216832	0.714351	0.000042
  12	1.0945e+00	0.1064	-16.846059	0.000389	3.889311	0.658867	0.000039
  13	1.1940e+00	0.1149	-16.809398	0.000368	3.684610	0.624190	0.000037
  14	1.2935e+00	0.1266	-16.769478	0.000401	4.012131	0.679673	0.000040
  15	1.3930e+00	0.1358	-16.725485	0.000442	4.421532	0.749028	0.000044
  16	1.4925e+00	0.1465	-16.687195	0.000385	3.848371	0.651932	0.000038
  17	1.5920e+00	0.1556	-16.648090	0.000393	3.930251	0.665803	0.000039
  18	1.6915e+00	0.1659	-16.606541	0.000418	4.175892	0.707415	0.000042
  19	1.7910e+00	0.1788	-16.565400	0.000413	4.134951	0.700480	0.000041
  20	1.8905e+00	0.1843	-16.520592	0.000450	4.503412	0.762899	0.000045
  21	1.9900e+00	0.1945	-16.481894	0.000389	3.889311	0.658867	0.000039
  22	2.0895e+00	0.2029	-16.441567	0.000405	4.053071	0.686609	0.000041
  23	2.1890e+00	0.2142	-16.399204	0.000426	4.257772	0.721286	0.000043
  24	2.2885e+00	0.2232	-16.354803	0.000446	4.462472	0.755963	0.000045
  25	2.3880e+00	0.2363	-16.319772	0.000352	3.520850	0.596448	0.000035
  26	2.4875e+00	0.2445	-16.274150	0.000459	4.585293	0.776770	0.000046
  27	2.5870e+00	0.2531	-16.229749	0.000446	4.462472	0.755963	0.000045
  28	2.6865e+00	0.2666	-16.190237	0.000397	3.971191	0.672738	0.000040
  29	2.7860e+00	0.2753	-16.155206	0.000352	3.520850	0.596448	0.000035
  30	2.8855e+00	0.2846	-16.109176	0.000463	4.626233	0.783705	0.000046
  31	2.9850e+00	0.2943	-16.067220	0.000422	4.216832	0.714351	0.000042
  32	3.0845e+00	0.3029	-16.027300	0.000401	4.012131	0.679673	0.000040
  33	3.1840e+00	0.3131	-15.983307	0.000442	4.421532	0.749028	0.000044
  34	3.2835e+00	0.3254	-15.943795	0.000397	3.971191	0.672738	0.000040
  35	3.3830e+00	0.3363	-15.900209	0.000438	4.380592	0.742092	0.000044
  36	3.4825e+00	0.3438	-15.857031	0.000434	4.339652	0.735157	0.000043
  37	3.5820e+00	0.3527	-15.810186	0.000471	4.708113	0.797576	0.000047
  38	3.6815e+00	0.3645	-15.768230	0.000422	4.216832	0.714351	0.000042
  39	3.7810e+00	0.3738	-15.728311	0.000401	4.012131	0.679673	0.000040
  40	3.8805e+00	0.3829	-15.678207	0.000504	5.035634	0.853059	0.000050
  41	3.9800e+00	0.3942	-15.635029	0.000434	4.339652	0.735157	0.000043
  42	4.0795e+00	0.4018	-15.591851	0.000434	4.339652	0.735157	0.000043
  43	4.1790e+00	0.4139	-15.551117	0.000409	4.094011	0.693544	0.000041
  44	4.2785e+00	0.4233	-15.507938	0.000434	4.339652	0.735157	0.000043
  45	4.3780e+00	0.4327	-15.461094	0.000471	4.708113	0.797576	0.000047
  46	4.4775e+00	0.4437	-15.419138	0.000422	4.216832	0.714351	0.000042
  47	4.5770e+00	0.4505	-15.373923	0.000454	4.544353	0.769834	0.000045
  48	4.6765e+00	0.4618	-15.330744	0.000434	4.339652	0.735157	0.000043
  49	4.7760e+00	0.4738	-15.287973	0.000430	4.298712	0.728222	0.000043
  50	4.8755e+00	0.4836	-15.242351	0.000459	4.585293	0.776770	0.000046
  51	4.9750e+00	0.4913	-15.195099	0.000475	4.749053	0.804511	0.000047
  52	5.0745e+00	0.5053	-15.149884	0.000454	4.544353	0.769834	0.000045
  53	5.1740e+00	0.5138	-15.108335	0.000418	4.175892	0.707415	0.000042
  54	5.2735e+00	0.5231	-15.062713	0.000459	4.585293	0.776770	0.000046
  55	5.3730e+00	0.5334	-15.016683	0.000463	4.626233	0.783705	0.000046
  56	5.4725e+00	0.5457	-14.970246	0.000467	4.667173	0.790640	0.000047
  57	5.5720e+00	0.5511	-14.924624	0.000459	4.585293	0.776770	0.000046
  58	5.6715e+00	0.5637	-14.879001	0.000459	4.585293	0.776770	0.000046
  59	5.7710e+00	0.5743	-14.839896	0.000393	3.930251	0.665803	0.000039
  60	5.8705e+00	0.5836	-14.793459	0.000467	4.667173	0.790640	0.000047
  61	5.9700e+00	0.5932	-14.748652	0.000450	4.503412	0.762899	0.000045
  62	6.0695e+00	0.6004	-14.702215	0.000467	4.667173	0.790640	0.000047
  63	6.1690e+00	0.6129	-14.658629	0.000438	4.380592	0.742092	0.000044
  64	6.2685e+00	0.6226	-14.617895	0.000409	4.094011	0.693544	0.000041
  65	6.3680e+00	0.6328	-14.571050	0.000471	4.708113	0.797576	0.000047
  66	6.4675e+00	0.6424	-14.524613	0.000467	4.667173	0.790640	0.000047
  67	6.5670e+00	0.6547	-14.480213	0.000446	4.462472	0.755963	0.000045
  68	6.6665e+00	0.6617	-14.432554	0.000479	4.789993	0.811447	0.000048
  69	6.7660e+00	0.6716	-14.388561	0.000442	4.421532	0.749028	0.000044
  70	6.8655e+00	0.6837	-14.341309	0.000475	4.749053	0.804511	0.000047
  71	6.9650e+00	0.6924	-14.296909	0.000446	4.462472	0.755963	0.000045
  72	7.0645e+00	0.7042	-14.251694	0.000454	4.544353	0.769834	0.000045
  73	7.1640e+00	0.7121	-14.205664	0.000463	4.626233	0.783705	0.000046
  74	7.2635e+00	0.7208	-14.164930	0.000409	4.094011	0.693544	0.000041
  75	7.3630e+00	0.7329	-14.118085	0.000471	4.708113	0.797576	0.000047
  76	7.4625e+00	0.7400	-14.072056	0.000463	4.626233	0.783705	0.000046
  77	7.5620e+00	0.7502	-14.030914	0.000413	4.134951	0.700480	0.000041
  78	7.6615e+00	0.7628	-13.984070	0.000471	4.708113	0.797576	0.000047
  79	7.7610e+00	0.7718	-13.936818	0.000475	4.749053	0.804511	0.000047
  80	7.8605e+00	0.7832	-13.894862	0.000422	4.216832	0.714351	0.000042
  81	7.9600e+00	0.7909	-13.850054	0.000450	4.503412	0.762899	0.000045
  82	8.0595e+00	0.8016	-13.802802	0.000475	4.749053	0.804511	0.000047
  83	8.1590e+00	0.8128	-13.754329	0.000487	4.871873	0.825318	0.000049
  84	8.2585e+00	0.8205	-13.708299	0.000463	4.626233	0.783705	0.000046
  85	8.3580e+00	0.8332	-13.659010	0.000495	4.953754	0.839189	0.000050
  86	8.4575e+00	0.8409	-13.612166	0.000471	4.708113	0.797576	0.000047
  87	8.5570e+00	0.8551	-13.564100	0.000483	4.830933	0.818382	0.000048
  88	8.6565e+00	0.8610	-13.522143	0.000422	4.216832	0.714351	0.000042
  89	8.7560e+00	0.8709	-13.472448	0.000499	4.994694	0.846124	0.000050
  90	8.8555e+00	0.8826	-13.430491	0.000422	4.216832	0.714351	0.000042
  91	8.9550e+00	0.8922	-13.381610	0.000491	4.912814	0.832253	0.000049
  92	9.0545e+00	0.9015	-13.340876	0.000409	4.094011	0.693544	0.000041
  93	9.1540e+00	0.9100	-13.291587	0.000495	4.953754	0.839189	0.000050
  94	9.2535e+00	0.9209	-13.245150	0.000467	4.667173	0.790640	0.000047
  95	9.3530e+00	0.9301	-13.196677	0.000487	4.871873	0.825318	0.000049
  96	9.4525e+00	0.9404	-13.152684	0.000442	4.421532	0.749028	0.000044
  97	9.5520e+00	0.9503	-13.100544	0.000524	5.240334	0.887737	0.000052
  98	9.6515e+00	0.9621	-13.053699	0.000471	4.708113	0.797576	0.000047
  99	9.7510e+00	0.9704	-13.010114	0.000438	4.380592	0.742092	0.000044
 100	9.8505e+00	0.9809	-12.961640	0.000487	4.871873	0.825318	0.000049
 101	9.9500e+00	0.9943	-12.914388	0.000475	4.749053	0.804511	0.000047
 102	1.0050e+01	1.0015	-12.869988	0.000446	4.462472	0.755963	0.000045
 103	1.0149e+01	1.0113	-12.818255	0.000520	5.199394	0.880801	0.000052
 104	1.0248e+01	1.0220	-12.773448	0.000450	4.503412	0.762899	0.000045
 105	1.0348e+01	1.0320	-12.728640	0.000450	4.503412	0.762899	0.000045
 106	1.0447e+01	1.0423	-12.682610	0.000463	4.626233	0.783705	0.000046
 107	1.0547e+01	1.0527	-12.639025	0.000438	4.380592	0.742092	0.000044
 108	1.0646e+01	1.0627	-12.595439	0.000438	4.380592	0.742092	0.000044
 109	1.0746e+01	1.0697	-12.548595	0.000471	4.708113	0.797576	0.000047
 110	1.0845e+01	1.0810	-12.500936	0.000479	4.789993	0.811447	0.000048
 111	1.0945e+01	1.0928	-12.456535	0.000446	4.462472	0.755963	0.000045
 112	1.1044e+01	1.1002	-12.410506	0.000463	4.626233	0.783705	0.000046
 113	1.1144e+01	1.1095	-12.368142	0.000426	4.257772	0.721286	0.000043
 114	1.1243e+01	1.1231	-12.322927	0.000454	4.544353	0.769834	0.000045
 115	1.1343e+01	1.1292	-12.274860	0.000483	4.830933	0.818382	0.000048
 116	1.1443e+01	1.1395	-12.228831	0.000463	4.626233	0.783705	0.000046
 117	1.1542e+01	1.1521	-12.182801	0.000463	4.626233	0.783705	0.000046
 118	1.1642e+01	1.1600	-12.139215	0.000438	4.380592	0.742092	0.000044
 119	1.1741e+01	1.1726	-12.098481	0.000409	4.094011	0.693544	0.000041
 120	1.1841e+01	1.1784	-12.054081	0.000446	4.462472	0.755963	0.000045
 121	1.1940e+01	1.1891	-12.007236	0.000471	4.708113	0.797576	0.000047
 122	1.2040e+01	1.1981	-11.967724	0.000397	3.971191	0.672738	0.000040
 123	1.2139e+01	1.2115	-11.921287	0.000467	4.667173	0.790640	0.000047
 124	1.2239e+01	1.2189	-11.881368	0.000401	4.012131	0.679673	0.000040
 125	1.2338e+01	1.2296	-11.840226	0.000413	4.134951	0.700480	0.000041
 126	1.2438e+01	1.2430	-11.795011	0.000454	4.544353	0.769834	0.000045
 127	1.2537e+01	1.2511	-11.752240	0.000430	4.298712	0.728222	0.000043
 128	1.2636e+01	1.2588	-11.711506	0.000409	4.094011	0.693544	0.000041
 129	1.2736e+01	1.2669	-11.671586	0.000401	4.012131	0.679673	0.000040
 130	1.2835e+01	1.2782	-11.628408	0.000434	4.339652	0.735157	0.000043
 131	1.2935e+01	1.2906	-11.581971	0.000467	4.667173	0.790640	0.000047
 132	1.3034e+01	1.2996	-11.543273	0.000389	3.889311	0.658867	0.000039
 133	1.3134e+01	1.3107	-11.504576	0.000389	3.889311	0.658867	0.000039
 134	1.3233e+01	1.3205	-11.460175	0.000446	4.462472	0.755963	0.000045
 135	1.3333e+01	1.3313	-11.414553	0.000459	4.585293	0.776770	0.000046
 136	1.3432e+01	1.3405	-11.372189	0.000426	4.257772	0.721286	0.000043
 137	1.3532e+01	1.3486	-11.335529	0.000368	3.684610	0.624190	0.000037
 138	1.3632e+01	1.3593	-11.291536	0.000442	4.421532	0.749028	0.000044
 139	1.3731e+01	1.3716	-11.251209	0.000405	4.053071	0.686609	0.000041
 140	1.3831e+01	1.3792	-11.205994	0.000454	4.544353	0.769834	0.000045
 141	1.3930e+01	1.3853	-11.168925	0.000373	3.725550	0.631125	0.000037
 142	1.4030e+01	1.4003	-11.129821	0.000393	3.930251	0.665803	0.000039
 143	1.4129e+01	1.4101	-11.087457	0.000426	4.257772	0.721286	0.000043
 144	1.4229e+01	1.4172	-11.046723	0.000409	4.094011	0.693544	0.000041
 145	1.4328e+01	1.4300	-10.999878	0.000471	4.708113	0.797576	0.000047
 146	1.4428e+01	1.4416	-10.956293	0.000438	4.380592	0.742092	0.000044
 147	1.4527e+01	1.4487	-10.921261	0.000352	3.520850	0.596448	0.000035
 148	1.4627e+01	1.4605	-10.875639	0.000459	4.585293	0.776770	0.000046
 149	1.4726e+01	1.4689	-10.835719	0.000401	4.012131	0.679673	0.000040
 150	1.4825e+01	1.4796	-10.797429	0.000385	3.848371	0.651932	0.000038
 151	1.4925e+01	1.4870	-10.754658	0.000430	4.298712	0.728222	0.000043
 152	1.5024e+01	1.4983	-10.710665	0.000442	4.421532	0.749028	0.000044
 153	1.5124e+01	1.5070	-10.673597	0.000373	3.725550	0.631125	0.000037
 154	1.5223e+01	1.5165	-10.633270	0.000405	4.053071	0.686609	0.000041
 155	1.5323e+01	1.5281	-10.592943	0.000405	4.053071	0.686609	0.000041
 156	1.5422e+01	1.5395	-10.550172	0.000430	4.298712	0.728222	0.000043
 157	1.5522e+01	1.5491	-10.510660	0.000397	3.971191	0.672738	0.000040
 158	1.5621e+01	1.5585	-10.471148	0.000397	3.971191	0.672738	0.000040
 159	1.5721e+01	1.5749	-10.432450	0.000389	3.889311	0.658867	0.000039
 160	1.5820e+01	1.5766	-10.389272	0.000434	4.339652	0.735157	0.000043
 161	1.5920e+01	1.5884	-10.350167	0.000393	3.930251	0.665803	0.000039
 162	1.6020e+01	1.5974	-10.305767	0.000446	4.462472	0.755963	0.000045
 163	1.6119e+01	1.6051	-10.265847	0.000401	4.012131	0.679673	0.000040
 164	1.6218e+01	1.6208	-10.227149	0.000389	3.889311	0.658867	0.000039
 165	1.6318e+01	1.6279	-10.188452	0.000389	3.889311	0.658867	0.000039
 166	1.6418e+01	1.6387	-10.146903	0.000418	4.175892	0.707415	0.000042
 167	1.6517e+01	1.6460	-10.111464	0.000356	3.561790	0.603384	0.000036
 168	1.6616e+01	1.6598	-10.069101	0.000426	4.257772	0.721286	0.000043
 169	1.6716e+01	1.6685	-10.030810	0.000385	3.848371	0.651932	0.000038
 170	1.6816e+01	1.6784	-9.993335	0.000377	3.766490	0.638061	0.000038
 171	1.6915e+01	1.6840	-9.952601	0.000409	4.094011	0.693544	0.000041
 172	1.7015e+01	1.6959	-9.917976	0.000348	3.479910	0.589513	0.000035
 173	1.7114e+01	1.7071	-9.876428	0.000418	4.175892	0.707415	0.000042
 174	1.7213e+01	1.7181	-9.837730	0.000389	3.889311	0.658867	0.000039
 175	1.7313e+01	1.7292	-9.798625	0.000393	3.930251	0.665803	0.000039
 176	1.7413e+01	1.7365	-9.760742	0.000381	3.807430	0.644996	0.000038
 177	1.7512e+01	1.7467	-9.721637	0.000393	3.930251	0.665803	0.000039
 178	1.7611e+01	1.7566	-9.682532	0.000393	3.930251	0.665803	0.000039
 179	1.7711e+01	1.7699	-9.644650	0.000381	3.807430	0.644996	0.000038
 180	1.7811e+01	1.7759	-9.605952	0.000389	3.889311	0.658867	0.000039
 181	1.7910e+01	1.7876	-9.565218	0.000409	4.094011	0.693544	0.000041
 182	1.8009e+01	1.7957	-9.529779	0.000356	3.561790	0.603384	0.000036
 183	1.8109e+01	1.8070	-9.495155	0.000348	3.479910	0.589513	0.000035
 184	1.8209e+01	1.8151	-9.452791	0.000426	4.257772	0.721286	0.000043
 185	1.8308e+01	1.8283	-9.414908	0.000381	3.807430	0.644996	0.000038
 186	1.8407e+01	1.8381	-9.377840	0.000373	3.725550	0.631125	0.000037
 187	1.8507e+01	1.8491	-9.340772	0.000373	3.725550	0.631125	0.000037
 188	1.8607e+01	1.8571	-9.301667	0.000393	3.930251	0.665803	0.000039
 189	1.8706e+01	1.8662	-9.260933	0.000409	4.094011	0.693544	0.000041
 190	1.8805e+01	1.8764	-9.222235	0.000389	3.889311	0.658867	0.000039
 191	1.8905e+01	1.8864	-9.180279	0.000422	4.216832	0.714351	0.000042
 192	1.9005e+01	1.8966	-9.148914	0.000315	3.152389	0.534029	0.000032
 193	1.9104e+01	1.9096	-9.104513	0.000446	4.462472	0.755963	0.000045
 194	1.9203e+01	1.9180	-9.068260	0.000364	3.643670	0.617254	0.000036
 195	1.9303e+01	1.9260	-9.033636	0.000348	3.479910	0.589513	0.000035
 196	1.9402e+01	1.9328	-8.987606	0.000463	4.626233	0.783705	0.000046
 197	1.9502e+01	1.9440	-8.955019	0.000328	3.275209	0.554835	0.000033
 198	1.9602e+01	1.9568	-8.915914	0.000393	3.930251	0.665803	0.000039
 199	1.9701e+01	1.9645	-8.874772	0.000413	4.134951	0.700480	0.000041
 200	1.9800e+01	1.9805	-8.832816	0.000422	4.216832	0.714351	0.000042
 201	1.9900e+01	1.9852	-8.793711	0.000393	3.930251	0.665803	0.000039
 202	2.0000e+01	1.9972	-8.757050	0.000368	3.684610	0.624190	0.000037
 203	2.0099e+01	2.0046	-8.715094	0.000422	4.216832	0.714351	0.000042
 204	2.0198e+01	2.0147	-8.674767	0.000405	4.053071	0.686609	0.000041
 205	2.0298e+01	2.0259	-8.635255	0.000397	3.971191	0.672738	0.000040
 206	2.0398e+01	2.0367	-8.591669	0.000438	4.380592	0.742092	0.000044
 207	2.0497e+01	2.0477	-8.551342	0.000405	4.053071	0.686609	0.000041
 208	2.0596e+01	2.0554	-8.511830	0.000397	3.971191	0.672738	0.000040
 209	2.0696e+01	2.0691	-8.469059	0.000430	4.298712	0.728222	0.000043
 210	2.0796e+01	2.0766	-8.428732	0.000405	4.053071	0.686609	0.000041
 211	2.0895e+01	2.0850	-8.388405	0.000405	4.053071	0.686609	0.000041
 212	2.0994e+01	2.0959	-8.347671	0.000409	4.094011	0.693544	0.000041
 213	2.1094e+01	2.1053	-8.304900	0.000430	4.298712	0.728222	0.000043
 214	2.1194e+01	2.1160	-8.266202	0.000389	3.889311	0.658867	0.000039
 215	2.1293e+01	2.1263	-8.223431	0.000430	4.298712	0.728222	0.000043
 216	2.1392e+01	2.1362	-8.183105	0.000405	4.053071	0.686609	0.000041
 217	2.1492e+01	2.1456	-8.138704	0.000446	4.462472	0.755963	0.000045
 218	2.1591e+01	2.1554	-8.098785	0.000401	4.012131	0.679673	0.000040
 219	2.1691e+01	2.1641	-8.058458	0.000405	4.053071	0.686609	0.000041
 220	2.1791e+01	2.1753	-8.016909	0.000418	4.175892	0.707415	0.000042
 221	2.1890e+01	2.1861	-7.972508	0.000446	4.462472	0.755963	0.000045
 222	2.1989e+01	2.1937	-7.932996	0.000397	3.971191	0.672738	0.000040
 223	2.2089e+01	2.2080	-7.892262	0.000409	4.094011	0.693544	0.000041
 224	2.2189e+01	2.2157	-7.849491	0.000430	4.298712	0.728222	0.000043
 225	2.2288e+01	2.2260	-7.808757	0.000409	4.094011	0.693544	0.000041
 226	2.2387e+01	2.2347	-7.765171	0.000438	4.380592	0.742092	0.000044
 227	2.2487e+01	2.2482	-7.726881	0.000385	3.848371	0.651932	0.000038
 228	2.2587e+01	2.2562	-7.683703	0.000434	4.339652	0.735157	0.000043
 229	2.2686e+01	2.2660	-7.643783	0.000401	4.012131	0.679673	0.000040
 230	2.2785e+01	2.2756	-7.599790	0.000442	4.421532	0.749028	0.000044
 231	2.2885e+01	2.2846	-7.560278	0.000397	3.971191	0.672738	0.000040
 232	2.2985e+01	2.2945	-7.517914	0.000426	4.257772	0.721286	0.000043
 233	2.3084e+01	2.3046	-7.475551	0.000426	4.257772	0.721286	0.000043
 234	2.3183e+01	2.3168	-7.434409	0.000413	4.134951	0.700480	0.000041
 235	2.3283e+01	2.3261	-7.392045	0.000426	4.257772	0.721286	0.000043
 236	2.3383e+01	2.3321	-7.348867	0.000434	4.339652	0.735157	0.000043
 237	2.3482e+01	2.3434	-7.308133	0.000409	4.094011	0.693544	0.000041
 238	2.3581e+01	2.3537	-7.266584	0.000418	4.175892	0.707415	0.000042
 239	2.3681e+01	2.3641	-7.226257	0.000405	4.053071	0.686609	0.000041
 240	2.3780e+01	2.3745	-7.181449	0.000450	4.503412	0.762899	0.000045
 241	2.3880e+01	2.3849	-7.140308	0.000413	4.134951	0.700480	0.000041
 242	2.3980e+01	2.3949	-7.099981	0.000405	4.053071	0.686609	0.000041
 243	2.4079e+01	2.4044	-7.057210	0.000430	4.298712	0.728222	0.000043
 244	2.4178e+01	2.4143	-7.017697	0.000397	3.971191	0.672738	0.000040
 245	2.4278e+01	2.4246	-6.973704	0.000442	4.421532	0.749028	0.000044
 246	2.4378e+01	2.4345	-6.932563	0.000413	4.134951	0.700480	0.000041
 247	2.4477e+01	2.4430	-6.895495	0.000373	3.725550	0.631125	0.000037
 248	2.4576e+01	2.4521	-6.849465	0.000463	4.626233	0.783705	0.000046
 249	2.4676e+01	2.4625	-6.809545	0.000401	4.012131	0.679673	0.000040
 250	2.4776e+01	2.4720	-6.764330	0.000454	4.544353	0.769834	0.000045
 251	2.4875e+01	2.4856	-6.721152	0.000434	4.339652	0.735157	0.000043
 252	2.4974e+01	2.4940	-6.680825	0.000405	4.053071	0.686609	0.000041
 253	2.5074e+01	2.5034	-6.633981	0.000471	4.708113	0.797576	0.000047
 254	2.5174e+01	2.5082	-6.593654	0.000405	4.053071	0.686609	0.000041
 255	2.5273e+01	2.5251	-6.548439	0.000454	4.544353	0.769834	0.000045
 256	2.5372e+01	2.5323	-6.508112	0.000405	4.053071	0.686609	0.000041
 257	2.5472e+01	2.5448	-6.466156	0.000422	4.216832	0.714351	0.000042
 258	2.5572e+01	2.5529	-6.421755	0.000446	4.462472	0.755963	0.000045
 259	2.5671e+01	2.5635	-6.381428	0.000405	4.053071	0.686609	0.000041
 260	2.5770e+01	2.5710	-6.341101	0.000405	4.053071	0.686609	0.000041
 261	2.5870e+01	2.5839	-6.294664	0.000467	4.667173	0.790640	0.000047
 262	2.5970e+01	2.5947	-6.249449	0.000454	4.544353	0.769834	0.000045
 263	2.6069e+01	2.6007	-6.206678	0.000430	4.298712	0.728222	0.000043
 264	2.6169e+01	2.6147	-6.166759	0.000401	4.012131	0.679673	0.000040
 265	2.6268e+01	2.6212	-6.119100	0.000479	4.789993	0.811447	0.000048
 266	2.6367e+01	2.6344	-6.076329	0.000430	4.298712	0.728222	0.000043
 267	2.6467e+01	2.6427	-6.034373	0.000422	4.216832	0.714351	0.000042
 268	2.6567e+01	2.6534	-5.991194	0.000434	4.339652	0.735157	0.000043
 269	2.6666e+01	2.6617	-5.948423	0.000430	4.298712	0.728222	0.000043
 270	2.6765e+01	2.6728	-5.907282	0.000413	4.134951	0.700480	0.000041
 271	2.6865e+01	2.6834	-5.863696	0.000438	4.380592	0.742092	0.000044
 272	2.6965e+01	2.6923	-5.821740	0.000422	4.216832	0.714351	0.000042
 273	2.7064e+01	2.7031	-5.776525	0.000454	4.544353	0.769834	0.000045
 274	2.7163e+01	2.7131	-5.736198	0.000405	4.053071	0.686609	0.000041
 275	2.7263e+01	2.7210	-5.699944	0.000364	3.643670	0.617254	0.000036
 276	2.7363e+01	2.7304	-5.652693	0.000475	4.749053	0.804511	0.000047
 277	2.7462e+01	2.7422	-5.616032	0.000368	3.684610	0.624190	0.000037
 278	2.7561e+01	2.7548	-5.572039	0.000442	4.421532	0.749028	0.000044
 279	2.7661e+01	2.7621	-5.530490	0.000418	4.175892	0.707415	0.000042
 280	2.7761e+01	2.7692	-5.488941	0.000418	4.175892	0.707415	0.000042
 281	2.7860e+01	2.7835	-5.444133	0.000450	4.503412	0.762899	0.000045
 282	2.7959e+01	2.7905	-5.403806	0.000405	4.053071	0.686609	0.000041
 283	2.8059e+01	2.8025	-5.359813	0.000442	4.421532	0.749028	0.000044
 284	2.8159e+01	2.8112	-5.320301	0.000397	3.971191	0.672738	0.000040
 285	2.8258e+01	2.8231	-5.280789	0.000397	3.971191	0.672738	0.000040
 286	2.8358e+01	2.8309	-5.241684	0.000393	3.930251	0.665803	0.000039
 287	2.8457e+01	2.8417	-5.200135	0.000418	4.175892	0.707415	0.000042
 288	2.8556e+01	2.8511	-5.164289	0.000360	3.602730	0.610319	0.000036
 289	2.8656e+01	2.8634	-5.121518	0.000430	4.298712	0.728222	0.000043
 290	2.8756e+01	2.8701	-5.079969	0.000418	4.175892	0.707415	0.000042
 291	2.8855e+01	2.8845	-5.042493	0.000377	3.766490	0.638061	0.000038
 292	2.8954e+01	2.8931	-5.007462	0.000352	3.520850	0.596448	0.000035
 293	2.9054e+01	2.9025	-4.968357	0.000393	3.930251	0.665803	0.000039
 294	2.9154e+01	2.9102	-4.929252	0.000393	3.930251	0.665803	0.000039
 295	2.9253e+01	2.9242	-4.891369	0.000381	3.807430	0.644996	0.000038
 296	2.9352e+01	2.9337	-4.849820	0.000418	4.175892	0.707415	0.000042
 297	2.9452e+01	2.9399	-4.810716	0.000393	3.930251	0.665803	0.000039
 298	2.9552e+01	2.9487	-4.774055	0.000368	3.684610	0.624190	0.000037
 299	2.9651e+01	2.9599	-4.736987	0.000373	3.725550	0.631125	0.000037
 300	2.9750e+01	2.9708	-4.697067	0.000401	4.012131	0.679673	0.000040
 301	2.9850e+01	2.9839	-4.658369	0.000389	3.889311	0.658867	0.000039
 302	2.9950e+01	2.9910	-4.622116	0.000364	3.643670	0.617254	0.000036
 303	3.0049e+01	3.0020	-4.586270	0.000360	3.602730	0.610319	0.000036
 304	3.0148e+01	3.0109	-4.543906	0.000426	4.257772	0.721286	0.000043
 305	3.0248e+01	3.0232	-4.506838	0.000373	3.725550	0.631125	0.000037
 306	3.0348e+01	3.0315	-4.470177	0.000368	3.684610	0.624190	0.000037
 307	3.0447e+01	3.0414	-4.430665	0.000397	3.971191	0.672738	0.000040
 308	3.0547e+01	3.0507	-4.396448	0.000344	3.438969	0.582577	0.000034
 309	3.0646e+01	3.0618	-4.358565	0.000381	3.807430	0.644996	0.000038
 310	3.0745e+01	3.0711	-4.322312	0.000364	3.643670	0.617254	0.000036
 311	3.0845e+01	3.0805	-4.283207	0.000393	3.930251	0.665803	0.000039
 312	3.0945e+01	3.0913	-4.251434	0.000319	3.193329	0.540965	0.000032
 313	3.1044e+01	3.1009	-4.211107	0.000405	4.053071	0.686609	0.000041
 314	3.1143e+01	3.1110	-4.172817	0.000385	3.848371	0.651932	0.000038
 315	3.1243e+01	3.1182	-4.135342	0.000377	3.766490	0.638061	0.000038
 316	3.1343e+01	3.1271	-4.099088	0.000364	3.643670	0.617254	0.000036
 317	3.1442e+01	3.1408	-4.060391	0.000389	3.889311	0.658867	0.000039
 318	3.1541e+01	3.1512	-4.024952	0.000356	3.561790	0.603384	0.000036
 319	3.1641e+01	3.1593	-3.985847	0.000393	3.930251	0.665803	0.000039
 320	3.1741e+01	3.1718	-3.952037	0.000340	3.398029	0.575642	0.000034
 321	3.1840e+01	3.1798	-3.912933	0.000393	3.930251	0.665803	0.000039
 322	3.1939e+01	3.1889	-3.878716	0.000344	3.438969	0.582577	0.000034
 323	3.2039e+01	3.1991	-3.840833	0.000381	3.807430	0.644996	0.000038
 324	3.2139e+01	3.2093	-3.807838	0.000332	3.316149	0.561771	0.000033
 325	3.2238e+01	3.2189	-3.770770	0.000373	3.725550	0.631125	0.000037
 326	3.2337e+01	3.2291	-3.732887	0.000381	3.807430	0.644996	0.000038
 327	3.2437e+01	3.2422	-3.696226	0.000368	3.684610	0.624190	0.000037
 328	3.2536e+01	3.2494	-3.659158	0.000373	3.725550	0.631125	0.000037
 329	3.2636e+01	3.2600	-3.624534	0.000348	3.479910	0.589513	0.000035
 330	3.2736e+01	3.2705	-3.587466	0.000373	3.725550	0.631125	0.000037
 331	3.2835e+01	3.2809	-3.550398	0.000373	3.725550	0.631125	0.000037
 332	3.2934e+01	3.2899	-3.517810	0.000328	3.275209	0.554835	0.000033
 333	3.3034e+01	3.3000	-3.481557	0.000364	3.643670	0.617254	0.000036
 334	3.3133e+01	3.3097	-3.440823	0.000409	4.094011	0.693544	0.000041
 335	3.3233e+01	3.3193	-3.410272	0.000307	3.070508	0.520158	0.000031
 336	3.3333e+01	3.3308	-3.376462	0.000340	3.398029	0.575642	0.000034
 337	3.3432e+01	3.3401	-3.343060	0.000336	3.357089	0.568706	0.000034
 338	3.3532e+01	3.3511	-3.307622	0.000356	3.561790	0.603384	0.000036
 339	3.3631e+01	3.3620	-3.275441	0.000323	3.234269	0.547900	0.000032
 340	3.3730e+01	3.3701	-3.237151	0.000385	3.848371	0.651932	0.000038
 341	3.3830e+01	3.3785	-3.200083	0.000373	3.725550	0.631125	0.000037
 342	3.3929e+01	3.3863	-3.164644	0.000356	3.561790	0.603384	0.000036
 343	3.4029e+01	3.3982	-3.131242	0.000336	3.357089	0.568706	0.000034
 344	3.4129e+01	3.4101	-3.097840	0.000336	3.357089	0.568706	0.000034
 345	3.4228e+01	3.4191	-3.059957	0.000381	3.807430	0.644996	0.000038
 346	3.4328e+01	3.4310	-3.032258	0.000278	2.783928	0.471610	0.000028
 347	3.4427e+01	3.4396	-2.995190	0.000373	3.725550	0.631125	0.000037
 348	3.4526e+01	3.4493	-2.964232	0.000311	3.111449	0.527094	0.000031
 349	3.4626e+01	3.4585	-2.929608	0.000348	3.479910	0.589513	0.000035
 350	3.4725e+01	3.4727	-2.895391	0.000344	3.438969	0.582577	0.000034
 351	3.4825e+01	3.4780	-2.862396	0.000332	3.316149	0.561771	0.000033
 352	3.4925e+01	3.4896	-2.829809	0.000328	3.275209	0.554835	0.000033
 353	3.5024e+01	3.4975	-2.796814	0.000332	3.316149	0.561771	0.000033
 354	3.5123e+01	3.5121	-2.757709	0.000393	3.930251	0.665803	0.000039
 355	3.5223e+01	3.5206	-2.725936	0.000319	3.193329	0.540965	0.000032
 356	3.5322e+01	3.5268	-2.691720	0.000344	3.438969	0.582577	0.000034
 357	3.5422e+01	3.5400	-2.657503	0.000344	3.438969	0.582577	0.000034
 358	3.5522e+01	3.5494	-2.624915	0.000328	3.275209	0.554835	0.000033
 359	3.5621e+01	3.5612	-2.587033	0.000381	3.807430	0.644996	0.000038
 360	3.5721e+01	3.5667	-2.557297	0.000299	2.988628	0.506287	0.000030
 361	3.5820e+01	3.5783	-2.516970	0.000405	4.053071	0.686609	0.000041
 362	3.5919e+01	3.5903	-2.481938	0.000352	3.520850	0.596448	0.000035
 363	3.6019e+01	3.5961	-2.453017	0.000291	2.906748	0.492416	0.000029
 364	3.6118e+01	3.6080	-2.414319	0.000389	3.889311	0.658867	0.000039
 365	3.6218e+01	3.6185	-2.380103	0.000344	3.438969	0.582577	0.000034
 366	3.6318e+01	3.6252	-2.349144	0.000311	3.111449	0.527094	0.000031
 367	3.6417e+01	3.6374	-2.313706	0.000356	3.561790	0.603384	0.000036
 368	3.6517e+01	3.6485	-2.277045	0.000368	3.684610	0.624190	0.000037
 369	3.6616e+01	3.6576	-2.241606	0.000356	3.561790	0.603384	0.000036
 370	3.6715e+01	3.6680	-2.209426	0.000323	3.234269	0.547900	0.000032
 371	3.6815e+01	3.6779	-2.172358	0.000373	3.725550	0.631125	0.000037
 372	3.6914e+01	3.6848	-2.136919	0.000356	3.561790	0.603384	0.000036
 373	3.7014e+01	3.6987	-2.098221	0.000389	3.889311	0.658867	0.000039
 374	3.7114e+01	3.7055	-2.061153	0.000373	3.725550	0.631125	0.000037
 375	3.7213e+01	3.7163	-2.024085	0.000373	3.725550	0.631125	0.000037
 376	3.7313e+01	3.7264	-1.987424	0.000368	3.684610	0.624190	0.000037
 377	3.7412e+01	3.7362	-1.951171	0.000364	3.643670	0.617254	0.000036
 378	3.7511e+01	3.7458	-1.914917	0.000364	3.643670	0.617254	0.000036
 379	3.7611e+01	3.7560	-1.877849	0.000373	3.725550	0.631125	0.000037
 380	3.7711e+01	3.7670	-1.842818	0.000352	3.520850	0.596448	0.000035
 381	3.7810e+01	3.7780	-1.804528	0.000385	3.848371	0.651932	0.000038
 382	3.7910e+01	3.7891	-1.767867	0.000368	3.684610	0.624190	0.000037
 383	3.8009e+01	3.7965	-1.734465	0.000336	3.357089	0.568706	0.000034
 384	3.8108e+01	3.8052	-1.696582	0.000381	3.807430	0.644996	0.000038
 385	3.8208e+01	3.8161	-1.661550	0.000352	3.520850	0.596448	0.000035
 386	3.8307e+01	3.8273	-1.620409	0.000413	4.134951	0.700480	0.000041
 387	3.8407e+01	3.8384	-1.584563	0.000360	3.602730	0.610319	0.000036
 388	3.8507e+01	3.8462	-1.546680	0.000381	3.807430	0.644996	0.000038
 389	3.8606e+01	3.8555	-1.507982	0.000389	3.889311	0.658867	0.000039
 390	3.8706e+01	3.8675	-1.471321	0.000368	3.684610	0.624190	0.000037
 391	3.8805e+01	3.8728	-1.434253	0.000373	3.725550	0.631125	0.000037
 392	3.8904e+01	3.8885	-1.399222	0.000352	3.520850	0.596448	0.000035
 393	3.9004e+01	3.8963	-1.361746	0.000377	3.766490	0.638061	0.000038
 394	3.9103e+01	3.9059	-1.323863	0.000381	3.807430	0.644996	0.000038
 395	3.9203e+01	3.9150	-1.288424	0.000356	3.561790	0.603384	0.000036
 396	3.9303e+01	3.9266	-1.249727	0.000389	3.889311	0.658867	0.000039
 397	3.9402e+01	3.9371	-1.213473	0.000364	3.643670	0.617254	0.000036
 398	3.9502e+01	3.9492	-1.175998	0.000377	3.766490	0.638061	0.000038
 399	3.9601e+01	3.9565	-1.139337	0.000368	3.684610	0.624190	0.000037
 400	3.9700e+01	3.9712	-1.102269	0.000373	3.725550	0.631125	0.000037
 401	3.9800e+01	3.9769	-1.065201	0.000373	3.725550	0.631125	0.000037
 402	3.9900e+01	3.9855	-1.026096	0.000393	3.930251	0.665803	0.000039
 403	3.9999e+01	3.9950	-0.993916	0.000323	3.234269	0.547900	0.000032
 404	4.0099e+01	4.0083	-0.951960	0.000422	4.216832	0.714351	0.000042
 405	4.0198e+01	4.0147	-0.915706	0.000364	3.643670	0.617254	0.000036
 406	4.0297e+01	4.0266	-0.875379	0.000405	4.053071	0.686609	0.000041
 407	4.0397e+01	4.0356	-0.839533	0.000360	3.602730	0.610319	0.000036
 408	4.0496e+01	4.0447	-0.802057	0.000377	3.766490	0.638061	0.000038
 409	4.0596e+01	4.0551	-0.763767	0.000385	3.848371	0.651932	0.000038
 410	4.0696e+01	4.0687	-0.727106	0.000368	3.684610	0.624190	0.000037
 411	4.0795e+01	4.0768	-0.692482	0.000348	3.479910	0.589513	0.000035
 412	4.0895e+01	4.0849	-0.653377	0.000393	3.930251	0.665803	0.000039
 413	4.0994e+01	4.0961	-0.619161	0.000344	3.438969	0.582577	0.000034
 414	4.1093e+01	4.1037	-0.578426	0.000409	4.094011	0.693544	0.000041
 415	4.1193e+01	4.1125	-0.542988	0.000356	3.561790	0.603384	0.000036
 416	4.1292e+01	4.1265	-0.505105	0.000381	3.807430	0.644996	0.000038
 417	4.1392e+01	4.1354	-0.467222	0.000381	3.807430	0.644996	0.000038
 418	4.1492e+01	4.1457	-0.429746	0.000377	3.766490	0.638061	0.000038
 419	4.1591e+01	4.1548	-0.390234	0.000397	3.971191	0.672738	0.000040
 420	4.1691e+01	4.1645	-0.353573	0.000368	3.684610	0.624190	0.000037
 421	4.1790e+01	4.1746	-0.307951	0.000459	4.585293	0.776770	0.000046
 422	4.1889e+01	4.1818	-0.271290	0.000368	3.684610	0.624190	0.000037
 423	4.1989e+01	4.1965	-0.235851	0.000356	3.561790	0.603384	0.000036
 424	4.2089e+01	4.2050	-0.197968	0.000381	3.807430	0.644996	0.000038
 425	4.2188e+01	4.2159	-0.160900	0.000373	3.725550	0.631125	0.000037
 426	4.2288e+01	4.2238	-0.122203	0.000389	3.889311	0.658867	0.000039
 427	4.2387e+01	4.2363	-0.084320	0.000381	3.807430	0.644996	0.000038
 428	4.2486e+01	4.2458	-0.044400	0.000401	4.012131	0.679673	0.000040
 429	4.2586e+01	4.2532	-0.001629	0.000430	4.298712	0.728222	0.000043
 430	4.2685e+01	4.2648	0.034624	0.000364	3.643670	0.617254	0.000036
 431	4.2785e+01	4.2744	0.072100	0.000377	3.766490	0.638061	0.000038
 432	4.2885e+01	4.2850	0.113241	0.000413	4.134951	0.700480	0.000041
 433	4.2984e+01	4.2944	0.147458	0.000344	3.438969	0.582577	0.000034
 434	4.3084e+01	4.3060	0.189822	0.000426	4.257772	0.721286	0.000043
 435	4.3183e+01	4.3157	0.224853	0.000352	3.520850	0.596448	0.000035
 436	4.3282e+01	4.3254	0.266809	0.000422	4.216832	0.714351	0.000042
 437	4.3382e+01	4.3340	0.304285	0.000377	3.766490	0.638061	0.000038
 438	4.3481e+01	4.3436	0.341760	0.000377	3.766490	0.638061	0.000038
 439	4.3581e+01	4.3583	0.381680	0.000401	4.012131	0.679673	0.000040
 440	4.3681e+01	4.3644	0.419563	0.000381	3.807430	0.644996	0.000038
 441	4.3780e+01	4.3749	0.456224	0.000368	3.684610	0.624190	0.000037
 442	4.3880e+01	4.3838	0.490848	0.000348	3.479910	0.589513	0.000035
 443	4.3979e+01	4.3936	0.531175	0.000405	4.053071	0.686609	0.000041
 444	4.4078e+01	4.4052	0.568650	0.000377	3.766490	0.638061	0.000038
 445	4.4178e+01	4.4140	0.604904	0.000364	3.643670	0.617254	0.000036
 446	4.4278e+01	4.4250	0.640342	0.000356	3.561790	0.603384	0.000036
 447	4.4377e+01	4.4326	0.679855	0.000397	3.971191	0.672738	0.000040
 448	4.4477e+01	4.4427	0.717330	0.000377	3.766490	0.638061	0.000038
 449	4.4576e+01	4.4553	0.755620	0.000385	3.848371	0.651932	0.000038
 450	4.4675e+01	4.4625	0.792281	0.000368	3.684610	0.624190	0.000037
 451	4.4775e+01	4.4754	0.828535	0.000364	3.643670	0.617254	0.000036
 452	4.4874e+01	4.4817	0.864381	0.000360	3.602730	0.610319	0.000036
 453	4.4974e+01	4.4965	0.901042	0.000368	3.684610	0.624190	0.000037
 454	4.5074e+01	4.5034	0.934444	0.000336	3.357089	0.568706	0.000034
 455	4.5173e+01	4.5114	0.972734	0.000385	3.848371	0.651932	0.000038
 456	4.5273e+01	4.5238	1.006543	0.000340	3.398029	0.575642	0.000034
 457	4.5372e+01	4.5321	1.039131	0.000328	3.275209	0.554835	0.000033
 458	4.5471e+01	4.5426	1.076606	0.000377	3.766490	0.638061	0.000038
 459	4.5571e+01	4.5542	1.111638	0.000352	3.520850	0.596448	0.000035
 460	4.5670e+01	4.5643	1.147077	0.000356	3.561790	0.603384	0.000036
 461	4.5770e+01	4.5726	1.180479	0.000336	3.357089	0.568706	0.000034
 462	4.5870e+01	4.5821	1.211844	0.000315	3.152389	0.534029	0.000032
 463	4.5969e+01	4.5936	1.245654	0.000340	3.398029	0.575642	0.000034
 464	4.6069e+01	4.6011	1.285573	0.000401	4.012131	0.679673	0.000040
 465	4.6168e+01	4.6121	1.317753	0.000323	3.234269	0.547900	0.000032
 466	4.6267e+01	4.6246	1.347082	0.000295	2.947688	0.499352	0.000029
 467	4.6367e+01	4.6322	1.381299	0.000344	3.438969	0.582577	0.000034
 468	4.6467e+01	4.6453	1.419181	0.000381	3.807430	0.644996	0.000038
 469	4.6566e+01	4.6523	1.452176	0.000332	3.316149	0.561771	0.000033
 470	4.6666e+01	4.6639	1.483134	0.000311	3.111449	0.527094	0.000031
 471	4.6765e+01	4.6734	1.518980	0.000360	3.602730	0.610319	0.000036
 472	4.6864e+01	4.6809	1.550753	0.000319	3.193329	0.540965	0.000032
 473	4.6964e+01	4.6918	1.585377	0.000348	3.479910	0.589513	0.000035
 474	4.7063e+01	4.7042	1.615928	0.000307	3.070508	0.520158	0.000031
 475	4.7163e+01	4.7104	1.649330	0.000336	3.357089	0.568706	0.000034
 476	4.7263e+01	4.7237	1.684769	0.000356	3.561790	0.603384	0.000036
 477	4.7362e+01	4.7325	1.717356	0.000328	3.275209	0.554835	0.000033
 478	4.7462e+01	4.7449	1.749944	0.000328	3.275209	0.554835	0.000033
 479	4.7561e+01	4.7525	1.781309	0.000315	3.152389	0.534029	0.000032
 480	4.7660e+01	4.7614	1.820007	0.000389	3.889311	0.658867	0.000039
 481	4.7760e+01	4.7729	1.847706	0.000278	2.783928	0.471610	0.000028
 482	4.7859e+01	4.7822	1.878257	0.000307	3.070508	0.520158	0.000031
 483	4.7959e+01	4.7932	1.919805	0.000418	4.175892	0.707415	0.000042
 484	4.8059e+01	4.8048	1.947505	0.000278	2.783928	0.471610	0.000028
 485	4.8158e+01	4.8122	1.980907	0.000336	3.357089	0.568706	0.000034
 486	4.8258e+01	4.8231	2.010235	0.000295	2.947688	0.499352	0.000029
 487	4.8357e+01	4.8327	2.044045	0.000340	3.398029	0.575642	0.000034
 488	4.8456e+01	4.8409	2.075003	0.000311	3.111449	0.527094	0.000031
 489	4.8556e+01	4.8524	2.106776	0.000319	3.193329	0.540965	0.000032
 490	4.8656e+01	4.8623	2.140585	0.000340	3.398029	0.575642	0.000034
 491	4.8755e+01	4.8722	2.172765	0.000323	3.234269	0.547900	0.000032
 492	4.8855e+01	4.8817	2.202909	0.000303	3.029568	0.513223	0.000030
 493	4.8954e+01	4.8934	2.236718	0.000340	3.398029	0.575642	0.000034
 494	4.9053e+01	4.9035	2.268491	0.000319	3.193329	0.540965	0.000032
 495	4.9153e+01	4.9129	2.301485	0.000332	3.316149	0.561771	0.000033
 496	4.9252e+01	4.9218	2.337332	0.000360	3.602730	0.610319	0.000036
 497	4.9352e+01	4.9306	2.364216	0.000270	2.702047	0.457739	0.000027
 498	4.9452e+01	4.9422	2.393545	0.000295	2.947688	0.499352	0.000029
 499	4.9551e+01	4.9512	2.428984	0.000356	3.561790	0.603384	0.000036
 500	4.9651e+01	4.9592	2.458720	0.000299	2.988628	0.506287	0.000030
 501	4.9750e+01	4.9691	2.490492	0.000319	3.193329	0.540965	0.000032
 502	4.9849e+01	4.9799	2.521043	0.000307	3.070508	0.520158	0.000031
 503	4.9949e+01	4.9894	2.552408	0.000315	3.152389	0.534029	0.000032
 504	5.0048e+01	5.0017	2.582144	0.000299	2.988628	0.506287	0.000030
 505	5.0148e+01	5.0098	2.607807	0.000258	2.579227	0.436933	0.000026
 506	5.0248e+01	5.0242	2.642024	0.000344	3.438969	0.582577	0.000034
 507	5.0347e+01	5.0321	2.671352	0.000295	2.947688	0.499352	0.000029
 508	5.0447e+01	5.0415	2.705162	0.000340	3.398029	0.575642	0.000034
 509	5.0546e+01	5.0513	2.734898	0.000299	2.988628	0.506287	0.000030
 510	5.0645e+01	5.0603	2.762190	0.000274	2.742988	0.464675	0.000027
 511	5.0745e+01	5.0711	2.793963	0.000319	3.193329	0.540965	0.000032
 512	5.0844e+01	5.0800	2.822477	0.000287	2.865808	0.485481	0.000029
 513	5.0944e+01	5.0892	2.855879	0.000336	3.357089	0.568706	0.000034
 514	5.1044e+01	5.1016	2.885615	0.000299	2.988628	0.506287	0.000030
 515	5.1143e+01	5.1092	2.912907	0.000274	2.742988	0.464675	0.000027
 516	5.1242e+01	5.1231	2.942643	0.000299	2.988628	0.506287	0.000030
 517	5.1342e+01	5.1312	2.973193	0.000307	3.070508	0.520158	0.000031
 518	5.1441e+01	5.1377	3.000485	0.000274	2.742988	0.464675	0.000027
 519	5.1541e+01	5.1514	3.030629	0.000303	3.029568	0.513223	0.000030
 520	5.1641e+01	5.1588	3.058328	0.000278	2.783928	0.471610	0.000028
 521	5.1740e+01	5.1694	3.086842	0.000287	2.865808	0.485481	0.000029
 522	5.1840e+01	5.1800	3.115763	0.000291	2.906748	0.492416	0.000029
 523	5.1939e+01	5.1904	3.147536	0.000319	3.193329	0.540965	0.000032
 524	5.2038e+01	5.2006	3.176865	0.000295	2.947688	0.499352	0.000029
 525	5.2138e+01	5.2084	3.210267	0.000336	3.357089	0.568706	0.000034
 526	5.2237e+01	5.2187	3.240817	0.000307	3.070508	0.520158	0.000031
 527	5.2337e+01	5.2280	3.272997	0.000323	3.234269	0.547900	0.000032
 528	5.2437e+01	5.2409	3.301511	0.000287	2.865808	0.485481	0.000029
 529	5.2536e+01	5.2514	3.329211	0.000278	2.783928	0.471610	0.000028
 530	5.2636e+01	5.2588	3.362205	0.000332	3.316149	0.561771	0.000033
 531	5.2735e+01	5.2699	3.394385	0.000323	3.234269	0.547900	0.000032
 532	5.2834e+01	5.2823	3.422492	0.000282	2.824868	0.478546	0.000028
 533	5.2934e+01	5.2877	3.453450	0.000311	3.111449	0.527094	0.000031
 534	5.3033e+01	5.3010	3.483186	0.000299	2.988628	0.506287	0.000030
 535	5.3133e+01	5.3103	3.512107	0.000291	2.906748	0.492416	0.000029
 536	5.3233e+01	5.3211	3.542658	0.000307	3.070508	0.520158	0.000031
 537	5.3332e+01	5.3298	3.575246	0.000328	3.275209	0.554835	0.000033
 538	5.3431e+01	5.3399	3.606204	0.000311	3.111449	0.527094	0.000031
 539	5.3531e+01	5.3518	3.640420	0.000344	3.438969	0.582577	0.000034
 540	5.3630e+01	5.3606	3.673008	0.000328	3.275209	0.554835	0.000033
 541	5.3730e+01	5.3707	3.699078	0.000262	2.620167	0.443868	0.000026
 542	5.3830e+01	5.3800	3.736961	0.000381	3.807430	0.644996	0.000038
 543	5.3929e+01	5.3886	3.767919	0.000311	3.111449	0.527094	0.000031
 544	5.4029e+01	5.4015	3.798469	0.000307	3.070508	0.520158	0.000031
 545	5.4128e+01	5.4092	3.827798	0.000295	2.947688	0.499352	0.000029
 546	5.4227e+01	5.4182	3.866088	0.000385	3.848371	0.651932	0.000038
 547	5.4327e+01	5.4271	3.897046	0.000311	3.111449	0.527094	0.000031
 548	5.4426e+01	5.4391	3.928004	0.000311	3.111449	0.527094	0.000031
 549	5.4526e+01	5.4496	3.959777	0.000319	3.193329	0.540965	0.000032
 550	5.4626e+01	5.4591	3.994808	0.000352	3.520850	0.596448	0.000035
 551	5.4725e+01	5.4678	4.028618	0.000340	3.398029	0.575642	0.000034
 552	5.4825e+01	5.4789	4.062835	0.000344	3.438969	0.582577	0.000034
 553	5.4924e+01	5.4878	4.092571	0.000299	2.988628	0.506287	0.000030
 554	5.5023e+01	5.4993	4.128824	0.000364	3.643670	0.617254	0.000036
 555	5.5123e+01	5.5103	4.163448	0.000348	3.479910	0.589513	0.000035
 556	5.5222e+01	5.5197	4.194406	0.000311	3.111449	0.527094	0.000031
 557	5.5322e+01	5.5282	4.228623	0.000344	3.438969	0.582577	0.000034
 558	5.5422e+01	5.5372	4.263654	0.000352	3.520850	0.596448	0.000035
 559	5.5521e+01	5.5502	4.295427	0.000319	3.193329	0.540965	0.000032
 560	5.5620e+01	5.5572	4.328829	0.000336	3.357089	0.568706	0.000034
 561	5.5720e+01	5.5676	4.356936	0.000282	2.824868	0.478546	0.000028
 562	5.5819e+01	5.5787	4.391967	0.000352	3.520850	0.596448	0.000035
 563	5.5919e+01	5.5865	4.424962	0.000332	3.316149	0.561771	0.000033
 564	5.6019e+01	5.5987	4.459994	0.000352	3.520850	0.596448	0.000035
 565	5.6118e+01	5.6102	4.492581	0.000328	3.275209	0.554835	0.000033
 566	5.6218e+01	5.6182	4.521502	0.000291	2.906748	0.492416	0.000029
 567	5.6317e+01	5.6287	4.554497	0.000332	3.316149	0.561771	0.000033
 568	5.6416e+01	5.6369	4.591973	0.000377	3.766490	0.638061	0.000038
 569	5.6516e+01	5.6503	4.623338	0.000315	3.152389	0.534029	0.000032
 570	5.6615e+01	5.6605	4.655925	0.000328	3.275209	0.554835	0.000033
 571	5.6715e+01	5.6683	4.689327	0.000336	3.357089	0.568706	0.000034
 572	5.6815e+01	5.6784	4.725581	0.000364	3.643670	0.617254	0.000036
 573	5.6914e+01	5.6869	4.756946	0.000315	3.152389	0.534029	0.000032
 574	5.7014e+01	5.6985	4.789534	0.000328	3.275209	0.554835	0.000033
 575	5.7113e+01	5.7064	4.822121	0.000328	3.275209	0.554835	0.000033
 576	5.7212e+01	5.7168	4.857560	0.000356	3.561790	0.603384	0.000036
 577	5.7312e+01	5.7265	4.886481	0.000291	2.906748	0.492416	0.000029
 578	5.7411e+01	5.7388	4.922327	0.000360	3.602730	0.610319	0.000036
 579	5.7511e+01	5.7461	4.953693	0.000315	3.152389	0.534029	0.000032
 580	5.7611e+01	5.7561	4.991576	0.000381	3.807430	0.644996	0.000038
 581	5.7710e+01	5.7666	5.021719	0.000303	3.029568	0.513223	0.000030
 582	5.7809e+01	5.7816	5.055528	0.000340	3.398029	0.575642	0.000034
 583	5.7909e+01	5.7864	5.089745	0.000344	3.438969	0.582577	0.000034
 584	5.8008e+01	5.7993	5.123147	0.000336	3.357089	0.568706	0.000034
 585	5.8108e+01	5.8064	5.155735	0.000328	3.275209	0.554835	0.000033
 586	5.8208e+01	5.8163	5.191173	0.000356	3.561790	0.603384	0.000036
 587	5.8307e+01	5.8257	5.226205	0.000352	3.520850	0.596448	0.000035
 588	5.8407e+01	5.8339	5.262458	0.000364	3.643670	0.617254	0.000036
 589	5.8506e+01	5.8450	5.297083	0.000348	3.479910	0.589513	0.000035
 590	5.8605e+01	5.8593	5.331707	0.000348	3.479910	0.589513	0.000035
 591	5.8705e+01	5.8657	5.363072	0.000315	3.152389	0.534029	0.000032
 592	5.8804e+01	5.8769	5.400955	0.000381	3.807430	0.644996	0.000038
 593	5.8904e+01	5.8865	5.433135	0.000323	3.234269	0.547900	0.000032
 594	5.9004e+01	5.8951	5.467759	0.000348	3.479910	0.589513	0.000035
 595	5.9103e+01	5.9084	5.499532	0.000319	3.193329	0.540965	0.000032
 596	5.9203e+01	5.9161	5.537007	0.000377	3.766490	0.638061	0.000038
 597	5.9302e+01	5.9254	5.570409	0.000336	3.357089	0.568706	0.000034
 598	5.9401e+01	5.9365	5.605848	0.000356	3.561790	0.603384	0.000036
 599	5.9501e+01	5.9480	5.640880	0.000352	3.520850	0.596448	0.000035
 600	5.9600e+01	5.9578	5.675911	0.000352	3.520850	0.596448	0.000035
 601	5.9700e+01	5.9669	5.708499	0.000328	3.275209	0.554835	0.000033
 602	5.9800e+01	5.9753	5.746381	0.000381	3.807430	0.644996	0.000038
 603	5.9899e+01	5.9866	5.780191	0.000340	3.398029	0.575642	0.000034
 604	5.9998e+01	5.9960	5.814408	0.000344	3.438969	0.582577	0.000034
 605	6.0098e+01	6.0064	5.851476	0.000373	3.725550	0.631125	0.000037
 606	6.0197e+01	6.0149	5.886507	0.000352	3.520850	0.596448	0.000035
 607	6.0297e+01	6.0255	5.919095	0.000328	3.275209	0.554835	0.000033
 608	6.0397e+01	6.0365	5.951275	0.000323	3.234269	0.547900	0.000032
 609	6.0496e+01	6.0482	5.983047	0.000319	3.193329	0.540965	0.000032
 610	6.0596e+01	6.0564	6.016042	0.000332	3.316149	0.561771	0.000033
 611	6.0695e+01	6.0645	6.050666	0.000348	3.479910	0.589513	0.000035
 612	6.0794e+01	6.0728	6.083254	0.000328	3.275209	0.554835	0.000033
 613	6.0894e+01	6.0848	6.117063	0.000340	3.398029	0.575642	0.000034
 614	6.0993e+01	6.0955	6.152502	0.000356	3.561790	0.603384	0.000036
 615	6.1093e+01	6.1035	6.183460	0.000311	3.111449	0.527094	0.000031
 616	6.1193e+01	6.1153	6.219306	0.000360	3.602730	0.610319	0.000036
 617	6.1292e+01	6.1263	6.250671	0.000315	3.152389	0.534029	0.000032
 618	6.1392e+01	6.1376	6.286110	0.000356	3.561790	0.603384	0.000036
 619	6.1491e+01	6.1466	6.318290	0.000323	3.234269	0.547900	0.000032
 620	6.1590e+01	6.1562	6.350063	0.000319	3.193329	0.540965	0.000032
 621	6.1690e+01	6.1651	6.380206	0.000303	3.029568	0.513223	0.000030
 622	6.1789e+01	6.1736	6.415238	0.000352	3.520850	0.596448	0.000035
 623	6.1889e+01	6.1855	6.443752	0.000287	2.865808	0.485481	0.000029
 624	6.1989e+01	6.1950	6.475932	0.000323	3.234269	0.547900	0.000032
 625	6.2088e+01	6.2064	6.507705	0.000319	3.193329	0.540965	0.000032
 626	6.2188e+01	6.2151	6.537848	0.000303	3.029568	0.513223	0.000030
 627	6.2287e+01	6.2267	6.570843	0.000332	3.316149	0.561771	0.000033
 628	6.2386e+01	6.2345	6.601393	0.000307	3.070508	0.520158	0.000031
 629	6.2486e+01	6.2444	6.631129	0.000299	2.988628	0.506287	0.000030
 630	6.2586e+01	6.2559	6.661273	0.000303	3.029568	0.513223	0.000030
 631	6.2685e+01	6.2653	6.689787	0.000287	2.865808	0.485481	0.000029
 632	6.2785e+01	6.2740	6.720337	0.000307	3.070508	0.520158	0.000031
 633	6.2884e+01	6.2853	6.751703	0.000315	3.152389	0.534029	0.000032
 634	6.2983e+01	6.2942	6.781439	0.000299	2.988628	0.506287	0.000030
 635	6.3083e+01	6.3058	6.807916	0.000266	2.661107	0.450804	0.000027
 636	6.3182e+01	6.3139	6.839281	0.000315	3.152389	0.534029	0.000032
 637	6.3282e+01	6.3259	6.868203	0.000291	2.906748	0.492416	0.000029
 638	6.3382e+01	6.3354	6.900790	0.000328	3.275209	0.554835	0.000033
 639	6.3481e+01	6.3470	6.926045	0.000254	2.538287	0.429997	0.000025
 640	6.3581e+01	6.3541	6.955781	0.000299	2.988628	0.506287	0.000030
 641	6.3680e+01	6.3633	6.986739	0.000311	3.111449	0.527094	0.000031
 642	6.3779e+01	6.3735	7.016883	0.000303	3.029568	0.513223	0.000030
 643	6.3879e+01	6.3833	7.045804	0.000291	2.906748	0.492416	0.000029
 644	6.3978e+01	6.3934	7.077984	0.000323	3.234269	0.547900	0.000032
 645	6.4078e+01	6.4031	7.104869	0.000270	2.702047	0.457739	0.000027
 646	6.4177e+01	6.4127	7.133383	0.000287	2.865808	0.485481	0.000029
 647	6.4277e+01	6.4239	7.161897	0.000287	2.865808	0.485481	0.000029
 648	6.4376e+01	6.4332	7.194484	0.000328	3.275209	0.554835	0.000033
 649	6.4476e+01	6.4417	7.220554	0.000262	2.620167	0.443868	0.000026
 650	6.4576e+01	6.4536	7.250290	0.000299	2.988628	0.506287	0.000030
 651	6.4675e+01	6.4630	7.284507	0.000344	3.438969	0.582577	0.000034
 652	6.4775e+01	6.4736	7.309355	0.000250	2.497347	0.423062	0.000025
 653	6.4874e+01	6.4811	7.337461	0.000282	2.824868	0.478546	0.000028
 654	6.4974e+01	6.4946	7.367197	0.000299	2.988628	0.506287	0.000030
 655	6.5073e+01	6.5023	7.396526	0.000295	2.947688	0.499352	0.000029
 656	6.5172e+01	6.5122	7.416486	0.000201	2.006066	0.339837	0.000020
 657	6.5272e+01	6.5200	7.450703	0.000344	3.438969	0.582577	0.000034
 658	6.5371e+01	6.5340	7.484105	0.000336	3.357089	0.568706	0.000034
 659	6.5471e+01	6.5423	7.508953	0.000250	2.497347	0.423062	0.000025
 660	6.5570e+01	6.5508	7.537874	0.000291	2.906748	0.492416	0.000029
 661	6.5670e+01	6.5643	7.568017	0.000303	3.029568	0.513223	0.000030
 662	6.5769e+01	6.5736	7.596124	0.000282	2.824868	0.478546	0.000028
 663	6.5869e+01	6.5827	7.625860	0.000299	2.988628	0.506287	0.000030
 664	6.5969e+01	6.5922	7.652337	0.000266	2.661107	0.450804	0.000027
 665	6.6068e+01	6.6049	7.682481	0.000303	3.029568	0.513223	0.000030
 666	6.6168e+01	6.6152	7.709772	0.000274	2.742988	0.464675	0.000027
 667	6.6267e+01	6.6216	7.735842	0.000262	2.620167	0.443868	0.000026
 668	6.6367e+01	6.6334	7.763949	0.000282	2.824868	0.478546	0.000028
 669	6.6466e+01	6.6415	7.795722	0.000319	3.193329	0.540965	0.000032
 670	6.6566e+01	6.6525	7.818126	0.000225	2.251706	0.381449	0.000023
 671	6.6665e+01	6.6611	7.840529	0.000225	2.251706	0.381449	0.000023
 672	6.6764e+01	6.6727	7.871487	0.000311	3.111449	0.527094	0.000031
 673	6.6864e+01	6.6802	7.894706	0.000233	2.333586	0.395320	0.000023
 674	6.6963e+01	6.6930	7.919147	0.000246	2.456407	0.416127	0.000025
 675	6.7063e+01	6.7009	7.948475	0.000295	2.947688	0.499352	0.000029
 676	6.7162e+01	6.7105	7.979841	0.000315	3.152389	0.534029	0.000032
 677	6.7262e+01	6.7229	8.004688	0.000250	2.497347	0.423062	0.000025
 678	6.7362e+01	6.7297	8.034017	0.000295	2.947688	0.499352	0.000029
 679	6.7461e+01	6.7425	8.061716	0.000278	2.783928	0.471610	0.000028
 680	6.7561e+01	6.7487	8.086157	0.000246	2.456407	0.416127	0.000025
 681	6.7660e+01	6.7608	8.111005	0.000250	2.497347	0.423062	0.000025
 682	6.7760e+01	6.7696	8.140741	0.000299	2.988628	0.506287	0.000030
 683	6.7859e+01	6.7831	8.166403	0.000258	2.579227	0.436933	0.000026
 684	6.7959e+01	6.7931	8.191251	0.000250	2.497347	0.423062	0.000025
 685	6.8058e+01	6.8044	8.217729	0.000266	2.661107	0.450804	0.000027
 686	6.8157e+01	6.8111	8.242577	0.000250	2.497347	0.423062	0.000025
 687	6.8257e+01	6.8237	8.264980	0.000225	2.251706	0.381449	0.000023
 688	6.8356e+01	6.8327	8.293087	0.000282	2.824868	0.478546	0.000028
 689	6.8456e+01	6.8417	8.321601	0.000287	2.865808	0.485481	0.000029
 690	6.8555e+01	6.8516	8.345634	0.000242	2.415467	0.409191	0.000024
 691	6.8655e+01	6.8616	8.371704	0.000262	2.620167	0.443868	0.000026
 692	6.8754e+01	6.8739	8.402255	0.000307	3.070508	0.520158	0.000031
 693	6.8854e+01	6.8810	8.428325	0.000262	2.620167	0.443868	0.000026
 694	6.8954e+01	6.8900	8.455209	0.000270	2.702047	0.457739	0.000027
 695	6.9053e+01	6.9004	8.482501	0.000274	2.742988	0.464675	0.000027
 696	6.9153e+01	6.9117	8.511830	0.000295	2.947688	0.499352	0.000029
 697	6.9252e+01	6.9209	8.534234	0.000225	2.251706	0.381449	0.000023
 698	6.9352e+01	6.9305	8.559082	0.000250	2.497347	0.423062	0.000025
 699	6.9451e+01	6.9402	8.587188	0.000282	2.824868	0.478546	0.000028
 700	6.9550e+01	6.9510	8.612851	0.000258	2.579227	0.436933	0.000026
 701	6.9650e+01	6.9601	8.639736	0.000270	2.702047	0.457739	0.000027
 702	6.9749e+01	6.9713	8.666213	0.000266	2.661107	0.450804	0.000027
 703	6.9849e+01	6.9801	8.695949	0.000299	2.988628	0.506287	0.000030
 704	6.9948e+01	6.9926	8.717945	0.000221	2.210766	0.374514	0.000022
 705	7.0048e+01	7.0001	8.751755	0.000340	3.398029	0.575642	0.000034
 706	7.0147e+01	7.0126	8.778232	0.000266	2.661107	0.450804	0.000027
 707	7.0247e+01	7.0198	8.806339	0.000282	2.824868	0.478546	0.000028
 708	7.0347e+01	7.0282	8.836075	0.000299	2.988628	0.506287	0.000030
 709	7.0446e+01	7.0379	8.868255	0.000323	3.234269	0.547900	0.000032
 710	7.0546e+01	7.0513	8.892288	0.000242	2.415467	0.409191	0.000024
 711	7.0645e+01	7.0606	8.920395	0.000282	2.824868	0.478546	0.000028
 712	7.0745e+01	7.0703	8.951760	0.000315	3.152389	0.534029	0.000032
 713	7.0844e+01	7.0794	8.981496	0.000299	2.988628	0.506287	0.000030
 714	7.0944e+01	7.0908	9.012047	0.000307	3.070508	0.520158	0.000031
 715	7.1043e+01	7.1016	9.040561	0.000287	2.865808	0.485481	0.000029
 716	7.1142e+01	7.1114	9.067445	0.000270	2.702047	0.457739	0.000027
 717	7.1242e+01	7.1181	9.098403	0.000311	3.111449	0.527094	0.000031
 718	7.1341e+01	7.1261	9.130583	0.000323	3.234269	0.547900	0.000032
 719	7.1441e+01	7.1389	9.156246	0.000258	2.579227	0.436933	0.000026
 720	7.1540e+01	7.1493	9.187204	0.000311	3.111449	0.527094	0.000031
 721	7.1640e+01	7.1614	9.214903	0.000278	2.783928	0.471610	0.000028
 722	7.1740e+01	7.1716	9.246676	0.000319	3.193329	0.540965	0.000032
 723	7.1839e+01	7.1841	9.276005	0.000295	2.947688	0.499352	0.000029
 724	7.1939e+01	7.1904	9.307370	0.000315	3.152389	0.534029	0.000032
 725	7.2038e+01	7.2030	9.332625	0.000254	2.538287	0.429997	0.000025
 726	7.2138e+01	7.2119	9.366842	0.000344	3.438969	0.582577	0.000034
 727	7.2237e+01	7.2202	9.396985	0.000303	3.029568	0.513223	0.000030
 728	7.2337e+01	7.2322	9.427536	0.000307	3.070508	0.520158	0.000031
 729	7.2436e+01	7.2403	9.456457	0.000291	2.906748	0.492416	0.000029
 730	7.2535e+01	7.2510	9.487008	0.000307	3.070508	0.520158	0.000031
 731	7.2635e+01	7.2608	9.517151	0.000303	3.029568	0.513223	0.000030
 732	7.2734e+01	7.2697	9.542814	0.000258	2.579227	0.436933	0.000026
 733	7.2834e+01	7.2787	9.573772	0.000311	3.111449	0.527094	0.000031
 734	7.2933e+01	7.2903	9.603101	0.000295	2.947688	0.499352	0.000029
 735	7.3033e+01	7.3014	9.630393	0.000274	2.742988	0.464675	0.000027
 736	7.3132e+01	7.3096	9.665424	0.000352	3.520850	0.596448	0.000035
 737	7.3232e+01	7.3180	9.694345	0.000291	2.906748	0.492416	0.000029
 738	7.3332e+01	7.3293	9.719601	0.000254	2.538287	0.429997	0.000025
 739	7.3431e+01	7.3370	9.753817	0.000344	3.438969	0.582577	0.000034
 740	7.3531e+01	7.3491	9.787627	0.000340	3.398029	0.575642	0.000034
 741	7.3630e+01	7.3602	9.815326	0.000278	2.783928	0.471610	0.000028
 742	7.3730e+01	7.3670	9.843025	0.000278	2.783928	0.471610	0.000028
 743	7.3829e+01	7.3779	9.873576	0.000307	3.070508	0.520158	0.000031
 744	7.3928e+01	7.3891	9.905756	0.000323	3.234269	0.547900	0.000032
 745	7.4028e+01	7.3975	9.934270	0.000287	2.865808	0.485481	0.000029
 746	7.4127e+01	7.4097	9.966450	0.000323	3.234269	0.547900	0.000032
 747	7.4227e+01	7.4175	9.994150	0.000278	2.783928	0.471610	0.000028
 748	7.4326e+01	7.4284	10.023071	0.000291	2.906748	0.492416	0.000029
 749	7.4426e+01	7.4398	10.054436	0.000315	3.152389	0.534029	0.000032
 750	7.4525e+01	7.4500	10.085394	0.000311	3.111449	0.527094	0.000031
 751	7.4625e+01	7.4636	10.114723	0.000295	2.947688	0.499352	0.000029
 752	7.4725e+01	7.4703	10.148125	0.000336	3.357089	0.568706	0.000034
 753	7.4824e+01	7.4810	10.177046	0.000291	2.906748	0.492416	0.000029
 754	7.4924e+01	7.4869	10.207597	0.000307	3.070508	0.520158	0.000031
 755	7.5023e+01	7.4970	10.243036	0.000356	3.561790	0.603384	0.000036
 756	7.5123e+01	7.5081	10.274401	0.000315	3.152389	0.534029	0.000032
 757	7.5222e+01	7.5168	10.303322	0.000291	2.906748	0.492416	0.000029
 758	7.5322e+01	7.5282	10.336317	0.000332	3.316149	0.561771	0.000033
 759	7.5421e+01	7.5378	10.368905	0.000328	3.275209	0.554835	0.000033
 760	7.5520e+01	7.5517	10.392123	0.000233	2.333586	0.395320	0.000023
 761	7.5620e+01	7.5617	10.430413	0.000385	3.848371	0.651932	0.000038
 762	7.5719e+01	7.5665	10.460557	0.000303	3.029568	0.513223	0.000030
 763	7.5819e+01	7.5774	10.488256	0.000278	2.783928	0.471610	0.000028
 764	7.5918e+01	7.5863	10.524917	0.000368	3.684610	0.624190	0.000037
 765	7.6018e+01	7.6002	10.554653	0.000299	2.988628	0.506287	0.000030
 766	7.6118e+01	7.6041	10.588055	0.000336	3.357089	0.568706	0.000034
 767	7.6217e+01	7.6170	10.620235	0.000323	3.234269	0.547900	0.000032
 768	7.6317e+01	7.6295	10.650378	0.000303	3.029568	0.513223	0.000030
 769	7.6416e+01	7.6360	10.684188	0.000340	3.398029	0.575642	0.000034
 770	7.6516e+01	7.6472	10.715553	0.000315	3.152389	0.534029	0.000032
 771	7.6615e+01	7.6581	10.745289	0.000299	2.988628	0.506287	0.000030
 772	7.6715e+01	7.6656	10.780321	0.000352	3.520850	0.596448	0.000035
 773	7.6814e+01	7.6778	10.808020	0.000278	2.783928	0.471610	0.000028
 774	7.6913e+01	7.6859	10.842644	0.000348	3.479910	0.589513	0.000035
 775	7.7013e+01	7.6976	10.872380	0.000299	2.988628	0.506287	0.000030
 776	7.7112e+01	7.7065	10.897228	0.000250	2.497347	0.423062	0.000025
 777	7.7212e+01	7.7198	10.934703	0.000377	3.766490	0.638061	0.000038
 778	7.7311e+01	7.7272	10.964032	0.000295	2.947688	0.499352	0.000029
 779	7.7411e+01	7.7360	10.992546	0.000287	2.865808	0.485481	0.000029
 780	7.7510e+01	7.7444	11.023911	0.000315	3.152389	0.534029	0.000032
 781	7.7610e+01	7.7566	11.054870	0.000311	3.111449	0.527094	0.000031
 782	7.7710e+01	7.7692	11.087050	0.000323	3.234269	0.547900	0.000032
 783	7.7809e+01	7.7778	11.118822	0.000319	3.193329	0.540965	0.000032
 784	7.7909e+01	7.7862	11.147336	0.000287	2.865808	0.485481	0.000029
 785	7.8008e+01	7.7970	11.177887	0.000307	3.070508	0.520158	0.000031
 786	7.8108e+01	7.8076	11.206401	0.000287	2.865808	0.485481	0.000029
 787	7.8207e+01	7.8133	11.237359	0.000311	3.111449	0.527094	0.000031
 788	7.8306e+01	7.8268	11.269539	0.000323	3.234269	0.547900	0.000032
 789	7.8406e+01	7.8369	11.298868	0.000295	2.947688	0.499352	0.000029
 790	7.8505e+01	7.8457	11.327382	0.000287	2.865808	0.485481	0.000029
 791	7.8605e+01	7.8579	11.350193	0.000229	2.292646	0.388385	0.000023
 792	7.8704e+01	7.8650	11.378707	0.000287	2.865808	0.485481	0.000029
 793	7.8804e+01	7.8747	11.406406	0.000278	2.783928	0.471610	0.000028
 794	7.8903e+01	7.8871	11.438179	0.000319	3.193329	0.540965	0.000032
 795	7.9003e+01	7.8960	11.468322	0.000303	3.029568	0.513223	0.000030
 796	7.9103e+01	7.9062	11.492355	0.000242	2.415467	0.409191	0.000024
 797	7.9202e+01	7.9163	11.520055	0.000278	2.783928	0.471610	0.000028
 798	7.9302e+01	7.9260	11.551827	0.000319	3.193329	0.540965	0.000032
 799	7.9401e+01	7.9359	11.575861	0.000242	2.415467	0.409191	0.000024
 800	7.9501e+01	7.9427	11.603153	0.000274	2.742988	0.464675	0.000027
 801	7.9600e+01	7.9565	11.633296	0.000303	3.029568	0.513223	0.000030
 802	7.9700e+01	7.9650	11.658551	0.000254	2.538287	0.429997	0.000025
 803	7.9799e+01	7.9785	11.685436	0.000270	2.702047	0.457739	0.000027
 804	7.9898e+01	7.9827	11.715579	0.000303	3.029568	0.513223	0.000030
 805	7.9998e+01	7.9953	11.744093	0.000287	2.865808	0.485481	0.000029
 806	8.0097e+01	8.0061	11.766497	0.000225	2.251706	0.381449	0.000023
 807	8.0197e+01	8.0155	11.796640	0.000303	3.029568	0.513223	0.000030
 808	8.0296e+01	8.0252	11.818637	0.000221	2.210766	0.374514	0.000022
 809	8.0396e+01	8.0359	11.847558	0.000291	2.906748	0.492416	0.000029
 810	8.0496e+01	8.0452	11.871999	0.000246	2.456407	0.416127	0.000025
 811	8.0595e+01	8.0523	11.900920	0.000291	2.906748	0.492416	0.000029
 812	8.0695e+01	8.0659	11.928619	0.000278	2.783928	0.471610	0.000028
 813	8.0794e+01	8.0741	11.955097	0.000266	2.661107	0.450804	0.000027
 814	8.0894e+01	8.0840	11.980759	0.000258	2.579227	0.436933	0.000026
 815	8.0993e+01	8.0948	12.006014	0.000254	2.538287	0.429997	0.000025
 816	8.1093e+01	8.1062	12.032492	0.000266	2.661107	0.450804	0.000027
 817	8.1192e+01	8.1142	12.063042	0.000307	3.070508	0.520158	0.000031
 818	8.1291e+01	8.1252	12.091556	0.000287	2.865808	0.485481	0.000029
 819	8.1391e+01	8.1344	12.113145	0.000217	2.169826	0.367578	0.000022
 820	8.1490e+01	8.1458	12.145326	0.000323	3.234269	0.547900	0.000032
 821	8.1590e+01	8.1543	12.169766	0.000246	2.456407	0.416127	0.000025
 822	8.1689e+01	8.1654	12.195429	0.000258	2.579227	0.436933	0.000026
 823	8.1789e+01	8.1773	12.220277	0.000250	2.497347	0.423062	0.000025
 824	8.1888e+01	8.1829	12.243902	0.000237	2.374527	0.402256	0.000024
 825	8.1988e+01	8.1949	12.270380	0.000266	2.661107	0.450804	0.000027
 826	8.2088e+01	8.2033	12.296450	0.000262	2.620167	0.443868	0.000026
 827	8.2187e+01	8.2178	12.322112	0.000258	2.579227	0.436933	0.000026
 828	8.2287e+01	8.2227	12.343701	0.000217	2.169826	0.367578	0.000022
 829	8.2386e+01	8.2349	12.373845	0.000303	3.029568	0.513223	0.000030
 830	8.2486e+01	8.2418	12.402359	0.000287	2.865808	0.485481	0.000029
 831	8.2585e+01	8.2548	12.426799	0.000246	2.456407	0.416127	0.000025
 832	8.2684e+01	8.2666	12.454091	0.000274	2.742988	0.464675	0.000027
 833	8.2784e+01	8.2744	12.477310	0.000233	2.333586	0.395320	0.000023
 834	8.2883e+01	8.2841	12.508268	0.000311	3.111449	0.527094	0.000031
 835	8.2983e+01	8.2926	12.533116	0.000250	2.497347	0.423062	0.000025
 836	8.3082e+01	8.3032	12.555519	0.000225	2.251706	0.381449	0.000023
 837	8.3182e+01	8.3144	12.581589	0.000262	2.620167	0.443868	0.000026
 838	8.3281e+01	8.3257	12.601957	0.000205	2.047006	0.346772	0.000020
 839	8.3381e+01	8.3334	12.629248	0.000274	2.742988	0.464675	0.000027
 840	8.3481e+01	8.3469	12.654504	0.000254	2.538287	0.429997	0.000025
 841	8.3580e+01	8.3546	12.677722	0.000233	2.333586	0.395320	0.000023
 842	8.3680e+01	8.3651	12.701755	0.000242	2.415467	0.409191	0.000024
 843	8.3779e+01	8.3719	12.724159	0.000225	2.251706	0.381449	0.000023
 844	8.3879e+01	8.3849	12.750229	0.000262	2.620167	0.443868	0.000026
 845	8.3978e+01	8.3930	12.777521	0.000274	2.742988	0.464675	0.000027
 846	8.4078e+01	8.4052	12.803591	0.000262	2.620167	0.443868	0.000026
 847	8.4177e+01	8.4142	12.828846	0.000254	2.538287	0.429997	0.000025
 848	8.4276e+01	8.4229	12.848806	0.000201	2.006066	0.339837	0.000020
 849	8.4376e+01	8.4313	12.874061	0.000254	2.538287	0.429997	0.000025
 850	8.4475e+01	8.4427	12.897687	0.000237	2.374527	0.402256	0.000024
 851	8.4575e+01	8.4534	12.923350	0.000258	2.579227	0.436933	0.000026
 852	8.4674e+01	8.4629	12.943717	0.000205	2.047006	0.346772	0.000020
 853	8.4774e+01	8.4731	12.971416	0.000278	2.783928	0.471610	0.000028
 854	8.4874e+01	8.4834	12.993820	0.000225	2.251706	0.381449	0.000023
 855	8.4973e+01	8.4940	13.016631	0.000229	2.292646	0.388385	0.000023
 856	8.5073e+01	8.5018	13.040257	0.000237	2.374527	0.402256	0.000024
 857	8.5172e+01	8.5126	13.064698	0.000246	2.456407	0.416127	0.000025
 858	8.5272e+01	8.5245	13.089138	0.000246	2.456407	0.416127	0.000025
 859	8.5371e+01	8.5313	13.112764	0.000237	2.374527	0.402256	0.000024
 860	8.5471e+01	8.5451	13.139649	0.000270	2.702047	0.457739	0.000027
 861	8.5570e+01	8.5532	13.166533	0.000270	2.702047	0.457739	0.000027
 862	8.5669e+01	8.5629	13.190159	0.000237	2.374527	0.402256	0.000024
 863	8.5769e+01	8.5719	13.217451	0.000274	2.742988	0.464675	0.000027
 864	8.5868e+01	8.5809	13.242706	0.000254	2.538287	0.429997	0.000025
 865	8.5968e+01	8.5928	13.265518	0.000229	2.292646	0.388385	0.000023
 866	8.6067e+01	8.6029	13.289143	0.000237	2.374527	0.402256	0.000024
 867	8.6167e+01	8.6117	13.311140	0.000221	2.210766	0.374514	0.000022
 868	8.6266e+01	8.6243	13.340876	0.000299	2.988628	0.506287	0.000030
 869	8.6366e+01	8.6338	13.361650	0.000209	2.087946	0.353708	0.000021
 870	8.6466e+01	8.6410	13.389757	0.000282	2.824868	0.478546	0.000028
 871	8.6565e+01	8.6495	13.416642	0.000270	2.702047	0.457739	0.000027
 872	8.6665e+01	8.6621	13.443526	0.000270	2.702047	0.457739	0.000027
 873	8.6764e+01	8.6734	13.469189	0.000258	2.579227	0.436933	0.000026
 874	8.6864e+01	8.6809	13.496073	0.000270	2.702047	0.457739	0.000027
 875	8.6963e+01	8.6914	13.523365	0.000274	2.742988	0.464675	0.000027
 876	8.7063e+01	8.6996	13.545362	0.000221	2.210766	0.374514	0.000022
 877	8.7162e+01	8.7117	13.578357	0.000332	3.316149	0.561771	0.000033
 878	8.7261e+01	8.7228	13.598316	0.000201	2.006066	0.339837	0.000020
 879	8.7361e+01	8.7332	13.628460	0.000303	3.029568	0.513223	0.000030
 880	8.7460e+01	8.7417	13.658196	0.000299	2.988628	0.506287	0.000030
 881	8.7560e+01	8.7512	13.686302	0.000282	2.824868	0.478546	0.000028
 882	8.7659e+01	8.7618	13.714002	0.000278	2.783928	0.471610	0.000028
 883	8.7759e+01	8.7713	13.738850	0.000250	2.497347	0.423062	0.000025
 884	8.7859e+01	8.7828	13.771030	0.000323	3.234269	0.547900	0.000032
 885	8.7958e+01	8.7939	13.796692	0.000258	2.579227	0.436933	0.000026
 886	8.8058e+01	8.8009	13.828872	0.000323	3.234269	0.547900	0.000032
 887	8.8157e+01	8.8147	13.852091	0.000233	2.333586	0.395320	0.000023
 888	8.8257e+01	8.8233	13.879383	0.000274	2.742988	0.464675	0.000027
 889	8.8356e+01	8.8313	13.907082	0.000278	2.783928	0.471610	0.000028
 890	8.8456e+01	8.8415	13.936003	0.000291	2.906748	0.492416	0.000029
 891	8.8555e+01	8.8493	13.965332	0.000295	2.947688	0.499352	0.000029
 892	8.8654e+01	8.8599	13.992217	0.000270	2.702047	0.457739	0.000027
 893	8.8754e+01	8.8715	14.019509	0.000274	2.742988	0.464675	0.000027
 894	8.8853e+01	8.8783	14.049652	0.000303	3.029568	0.513223	0.000030
 895	8.8953e+01	8.8923	14.075722	0.000262	2.620167	0.443868	0.000026
 896	8.9052e+01	8.9005	14.104236	0.000287	2.865808	0.485481	0.000029
 897	8.9152e+01	8.9103	14.135601	0.000315	3.152389	0.534029	0.000032
 898	8.9251e+01	8.9199	14.160856	0.000254	2.538287	0.429997	0.000025
 899	8.9351e+01	8.9307	14.188148	0.000274	2.742988	0.464675	0.000027
 900	8.9451e+01	8.9404	14.219514	0.000315	3.152389	0.534029	0.000032
 901	8.9550e+01	8.9484	14.245991	0.000266	2.661107	0.450804	0.000027
 902	8.9650e+01	8.9600	14.277356	0.000315	3.152389	0.534029	0.000032
 903	8.9749e+01	8.9697	14.305056	0.000278	2.783928	0.471610	0.000028
 904	8.9849e+01	8.9783	14.335606	0.000307	3.070508	0.520158	0.000031
 905	8.9948e+01	8.9883	14.365342	0.000299	2.988628	0.506287	0.000030
 906	9.0047e+01	9.0015	14.394264	0.000291	2.906748	0.492416	0.000029
 907	9.0147e+01	9.0108	14.421963	0.000278	2.783928	0.471610	0.000028
 908	9.0246e+01	9.0204	14.451292	0.000295	2.947688	0.499352	0.000029
 909	9.0346e+01	9.0292	14.481435	0.000303	3.029568	0.513223	0.000030
 910	9.0445e+01	9.0393	14.513615	0.000323	3.234269	0.547900	0.000032
 911	9.0545e+01	9.0495	14.538463	0.000250	2.497347	0.423062	0.000025
 912	9.0644e+01	9.0564	14.567384	0.000291	2.906748	0.492416	0.000029
 913	9.0744e+01	9.0685	14.593047	0.000258	2.579227	0.436933	0.000026
 914	9.0844e+01	9.0821	14.624005	0.000311	3.111449	0.527094	0.000031
 915	9.0943e+01	9.0900	14.652519	0.000287	2.865808	0.485481	0.000029
 916	9.1043e+01	9.1026	14.681033	0.000287	2.865808	0.485481	0.000029
 917	9.1142e+01	9.1087	14.709954	0.000291	2.906748	0.492416	0.000029
 918	9.1242e+01	9.1180	14.738876	0.000291	2.906748	0.492416	0.000029
 919	9.1341e+01	9.1317	14.771463	0.000328	3.275209	0.554835	0.000033
 920	9.1441e+01	9.1413	14.801606	0.000303	3.029568	0.513223	0.000030
 921	9.1540e+01	9.1459	14.831750	0.000303	3.029568	0.513223	0.000030
 922	9.1639e+01	9.1599	14.863930	0.000323	3.234269	0.547900	0.000032
 923	9.1739e+01	9.1684	14.892444	0.000287	2.865808	0.485481	0.000029
 924	9.1838e+01	9.1781	14.923809	0.000315	3.152389	0.534029	0.000032
 925	9.1938e+01	9.1895	14.957211	0.000336	3.357089	0.568706	0.000034
 926	9.2037e+01	9.1987	14.988577	0.000315	3.152389	0.534029	0.000032
 927	9.2137e+01	9.2080	15.019127	0.000307	3.070508	0.520158	0.000031
 928	9.2237e+01	9.2197	15.046419	0.000274	2.742988	0.464675	0.000027
 929	9.2336e+01	9.2300	15.075748	0.000295	2.947688	0.499352	0.000029
 930	9.2436e+01	9.2395	15.108335	0.000328	3.275209	0.554835	0.000033
 931	9.2535e+01	9.2487	15.140108	0.000319	3.193329	0.540965	0.000032
 932	9.2635e+01	9.2573	15.172695	0.000328	3.275209	0.554835	0.000033
 933	9.2734e+01	9.2689	15.200395	0.000278	2.783928	0.471610	0.000028
 934	9.2834e+01	9.2802	15.232982	0.000328	3.275209	0.554835	0.000033
 935	9.2933e+01	9.2886	15.265162	0.000323	3.234269	0.547900	0.000032
 936	9.3032e+01	9.2981	15.301008	0.000360	3.602730	0.610319	0.000036
 937	9.3132e+01	9.3066	15.327893	0.000270	2.702047	0.457739	0.000027
 938	9.3231e+01	9.3179	15.355185	0.000274	2.742988	0.464675	0.000027
 939	9.3331e+01	9.3295	15.393068	0.000381	3.807430	0.644996	0.000038
 940	9.3430e+01	9.3372	15.420767	0.000278	2.783928	0.471610	0.000028
 941	9.3530e+01	9.3478	15.452540	0.000319	3.193329	0.540965	0.000032
 942	9.3629e+01	9.3564	15.484720	0.000323	3.234269	0.547900	0.000032
 943	9.3729e+01	9.3661	15.518122	0.000336	3.357089	0.568706	0.000034
 944	9.3829e+01	9.3800	15.547043	0.000291	2.906748	0.492416	0.000029
 945	9.3928e+01	9.3887	15.578001	0.000311	3.111449	0.527094	0.000031
 946	9.4028e+01	9.3964	15.606515	0.000287	2.865808	0.485481	0.000029
 947	9.4127e+01	9.4058	15.633807	0.000274	2.742988	0.464675	0.000027
 948	9.4227e+01	9.4171	15.665173	0.000315	3.152389	0.534029	0.000032
 949	9.4326e+01	9.4277	15.698575	0.000336	3.357089	0.568706	0.000034
 950	9.4425e+01	9.4379	15.728311	0.000299	2.988628	0.506287	0.000030
 951	9.4525e+01	9.4486	15.759676	0.000315	3.152389	0.534029	0.000032
 952	9.4624e+01	9.4558	15.789819	0.000303	3.029568	0.513223	0.000030
 953	9.4724e+01	9.4678	15.817111	0.000274	2.742988	0.464675	0.000027
 954	9.4823e+01	9.4794	15.846440	0.000295	2.947688	0.499352	0.000029
 955	9.4923e+01	9.4904	15.875361	0.000291	2.906748	0.492416	0.000029
 956	9.5022e+01	9.4967	15.907949	0.000328	3.275209	0.554835	0.000033
 957	9.5122e+01	9.5068	15.938499	0.000307	3.070508	0.520158	0.000031
 958	9.5222e+01	9.5185	15.964569	0.000262	2.620167	0.443868	0.000026
 959	9.5321e+01	9.5252	15.993898	0.000295	2.947688	0.499352	0.000029
 960	9.5421e+01	9.5370	16.022412	0.000287	2.865808	0.485481	0.000029
 961	9.5520e+01	9.5438	16.050519	0.000282	2.824868	0.478546	0.000028
 962	9.5620e+01	9.5587	16.079847	0.000295	2.947688	0.499352	0.000029
 963	9.5719e+01	9.5660	16.109176	0.000295	2.947688	0.499352	0.000029
 964	9.5819e+01	9.5741	16.136468	0.000274	2.742988	0.464675	0.000027
 965	9.5918e+01	9.5850	16.162130	0.000258	2.579227	0.436933	0.000026
 966	9.6017e+01	9.5957	16.190237	0.000282	2.824868	0.478546	0.000028
 967	9.6117e+01	9.6076	16.217529	0.000274	2.742988	0.464675	0.000027
 968	9.6216e+01	9.6179	16.245228	0.000278	2.783928	0.471610	0.000028
 969	9.6316e+01	9.6267	16.272520	0.000274	2.742988	0.464675	0.000027
 970	9.6415e+01	9.6381	16.305108	0.000328	3.275209	0.554835	0.000033
 971	9.6515e+01	9.6484	16.330770	0.000258	2.579227	0.436933	0.000026
 972	9.6615e+01	9.6571	16.361321	0.000307	3.070508	0.520158	0.000031
 973	9.6714e+01	9.6684	16.386169	0.000250	2.497347	0.423062	0.000025
 974	9.6814e+01	9.6763	16.418349	0.000323	3.234269	0.547900	0.000032
 975	9.6913e+01	9.6857	16.444826	0.000266	2.661107	0.450804	0.000027
 976	9.7013e+01	9.6973	16.473340	0.000287	2.865808	0.485481	0.000029
 977	9.7112e+01	9.7063	16.493707	0.000205	2.047006	0.346772	0.000020
 978	9.7212e+01	9.7161	16.525480	0.000319	3.193329	0.540965	0.000032
 979	9.7311e+01	9.7243	16.552365	0.000270	2.702047	0.457739	0.000027
 980	9.7410e+01	9.7357	16.579249	0.000270	2.702047	0.457739	0.000027
 981	9.7510e+01	9.7450	16.605319	0.000262	2.620167	0.443868	0.000026
 982	9.7609e+01	9.7565	16.635462	0.000303	3.029568	0.513223	0.000030
 983	9.7709e+01	9.7671	16.665198	0.000299	2.988628	0.506287	0.000030
 984	9.7808e+01	9.7745	16.690046	0.000250	2.497347	0.423062	0.000025
 985	9.7908e+01	9.7864	16.720597	0.000307	3.070508	0.520158	0.000031
 986	9.8007e+01	9.7980	16.748296	0.000278	2.783928	0.471610	0.000028
 987	9.8107e+01	9.8047	16.776403	0.000282	2.824868	0.478546	0.000028
 988	9.8207e+01	9.8151	16.801251	0.000250	2.497347	0.423062	0.000025
 989	9.8306e+01	9.8255	16.828135	0.000270	2.702047	0.457739	0.000027
 990	9.8406e+01	9.8347	16.856649	0.000287	2.865808	0.485481	0.000029
 991	9.8505e+01	9.8451	16.878646	0.000221	2.210766	0.374514	0.000022
 992	9.8605e+01	9.8540	16.909197	0.000307	3.070508	0.520158	0.000031
 993	9.8704e+01	9.8633	16.934859	0.000258	2.579227	0.436933	0.000026
 994	9.8803e+01	9.8739	16.961337	0.000266	2.661107	0.450804	0.000027
 995	9.8903e+01	9.8854	16.989443	0.000282	2.824868	0.478546	0.000028
 996	9.9002e+01	9.8938	17.015513	0.000262	2.620167	0.443868	0.000026
 997	9.9102e+01	9.9054	17.042805	0.000274	2.742988	0.464675	0.000027
 998	9.9201e+01	9.9158	17.075392	0.000328	3.275209	0.554835	0.000033
 999	9.9301e+01	9.9255	17.101870	0.000266	2.661107	0.450804	0.000027
1000	9.9400e+01	9.9326	17.130384	0.000287	2.865808	0.485481	0.000029
1001	9.9500e+01	9.9467	17.156046	0.000258	2.579227	0.436933	0.000026
1002	9.9600e+01	9.9567	17.182524	0.000266	2.661107	0.450804	0.000027
1003	9.9699e+01	9.9665	17.209815	0.000274	2.742988	0.464675	0.000027
1004	9.9799e+01	9.9746	17.234256	0.000246	2.456407	0.416127	0.000025
1005	9.9898e+01	9.9854	17.263992	0.000299	2.988628	0.506287	0.000030
1006	9.9998e+01	9.9951	17.289655	0.000258	2.579227	0.436933	0.000026
1007	1.0010e+02	9.9854	17.273361	0.000164	1.637605	0.277418	-0.000016
1008	1.0020e+02	9.9744	17.253808	0.000197	1.965125	0.332901	-0.000020
1009	1.0030e+02	9.9648	17.230590	0.000233	2.333586	0.395320	-0.000023
1010	1.0040e+02	9.9531	17.211445	0.000192	1.924185	0.325966	-0.000019
1011	1.0050e+02	9.9438	17.190670	0.000209	2.087946	0.353708	-0.000021
1012	1.0059e+02	9.9347	17.174784	0.000160	1.596664	0.270482	-0.000016
1013	1.0069e+02	9.9250	17.156454	0.000184	1.842305	0.312095	-0.000018
1014	1.0079e+02	9.9128	17.129976	0.000266	2.661107	0.450804	-0.000027
1015	1.0089e+02	9.9061	17.118571	0.000115	1.146323	0.194192	-0.000011
1016	1.0099e+02	9.8926	17.095760	0.000229	2.292646	0.388385	-0.000023
1017	1.0109e+02	9.8859	17.072541	0.000233	2.333586	0.395320	-0.000023
1018	1.0119e+02	9.8731	17.048100	0.000246	2.456407	0.416127	-0.000025
1019	1.0129e+02	9.8663	17.030177	0.000180	1.801365	0.305159	-0.000018
1020	1.0139e+02	9.8543	17.008588	0.000217	2.169826	0.367578	-0.000022
1021	1.0149e+02	9.8455	16.986999	0.000217	2.169826	0.367578	-0.000022
1022	1.0159e+02	9.8380	16.964595	0.000225	2.251706	0.381449	-0.000023
1023	1.0169e+02	9.8225	16.943413	0.000213	2.128886	0.360643	-0.000021
1024	1.0179e+02	9.8149	16.920602	0.000229	2.292646	0.388385	-0.000023
1025	1.0189e+02	9.8048	16.902679	0.000180	1.801365	0.305159	-0.000018
1026	1.0199e+02	9.7928	16.879868	0.000229	2.292646	0.388385	-0.000023
1027	1.0209e+02	9.7852	16.860316	0.000197	1.965125	0.332901	-0.000020
1028	1.0219e+02	9.7767	16.835875	0.000246	2.456407	0.416127	-0.000025
1029	1.0229e+02	9.7632	16.814693	0.000213	2.128886	0.360643	-0.000021
1030	1.0239e+02	9.7552	16.793104	0.000217	2.169826	0.367578	-0.000022
1031	1.0248e+02	9.7461	16.771108	0.000221	2.210766	0.374514	-0.000022
1032	1.0258e+02	9.7351	16.748704	0.000225	2.251706	0.381449	-0.000023
1033	1.0268e+02	9.7275	16.725485	0.000233	2.333586	0.395320	-0.000023
1034	1.0278e+02	9.7131	16.703081	0.000225	2.251706	0.381449	-0.000023
1035	1.0288e+02	9.7083	16.681492	0.000217	2.169826	0.367578	-0.000022
1036	1.0298e+02	9.6960	16.659903	0.000217	2.169826	0.367578	-0.000022
1037	1.0308e+02	9.6857	16.637499	0.000225	2.251706	0.381449	-0.000023
1038	1.0318e+02	9.6759	16.617947	0.000197	1.965125	0.332901	-0.000020
1039	1.0328e+02	9.6684	16.597987	0.000201	2.006066	0.339837	-0.000020
1040	1.0338e+02	9.6566	16.576805	0.000213	2.128886	0.360643	-0.000021
1041	1.0348e+02	9.6456	16.555623	0.000213	2.128886	0.360643	-0.000021
1042	1.0358e+02	9.6387	16.533627	0.000221	2.210766	0.374514	-0.000022
1043	1.0368e+02	9.6261	16.513260	0.000205	2.047006	0.346772	-0.000020
1044	1.0378e+02	9.6156	16.492078	0.000213	2.128886	0.360643	-0.000021
1045	1.0388e+02	9.6052	16.474969	0.000172	1.719485	0.291289	-0.000017
1046	1.0398e+02	9.5959	16.450529	0.000246	2.456407	0.416127	-0.000025
1047	1.0408e+02	9.5832	16.433828	0.000168	1.678545	0.284353	-0.000017
1048	1.0418e+02	9.5772	16.412646	0.000213	2.128886	0.360643	-0.000021
1049	1.0428e+02	9.5689	16.390650	0.000221	2.210766	0.374514	-0.000022
1050	1.0438e+02	9.5569	16.369060	0.000217	2.169826	0.367578	-0.000022
1051	1.0447e+02	9.5464	16.353989	0.000151	1.514784	0.256611	-0.000015
1052	1.0457e+02	9.5410	16.333622	0.000205	2.047006	0.346772	-0.000020
1053	1.0467e+02	9.5288	16.311218	0.000225	2.251706	0.381449	-0.000023
1054	1.0477e+02	9.5175	16.287185	0.000242	2.415467	0.409191	-0.000024
1055	1.0487e+02	9.5087	16.271706	0.000156	1.555724	0.263547	-0.000016
1056	1.0497e+02	9.4971	16.251746	0.000201	2.006066	0.339837	-0.000020
1057	1.0507e+02	9.4891	16.229749	0.000221	2.210766	0.374514	-0.000022
1058	1.0517e+02	9.4775	16.209382	0.000205	2.047006	0.346772	-0.000020
1059	1.0527e+02	9.4657	16.189422	0.000201	2.006066	0.339837	-0.000020
1060	1.0537e+02	9.4592	16.170277	0.000192	1.924185	0.325966	-0.000019
1061	1.0547e+02	9.4486	16.153984	0.000164	1.637605	0.277418	-0.000016
1062	1.0557e+02	9.4385	16.134431	0.000197	1.965125	0.332901	-0.000020
1063	1.0567e+02	9.4312	16.109583	0.000250	2.497347	0.423062	-0.000025
1064	1.0577e+02	9.4167	16.090031	0.000197	1.965125	0.332901	-0.000020
1065	1.0587e+02	9.4068	16.070071	0.000201	2.006066	0.339837	-0.000020
1066	1.0597e+02	9.3982	16.051741	0.000184	1.842305	0.312095	-0.000018
1067	1.0607e+02	9.3874	16.030966	0.000209	2.087946	0.353708	-0.000021
1068	1.0617e+02	9.3784	16.008562	0.000225	2.251706	0.381449	-0.000023
1069	1.0627e+02	9.3685	15.985751	0.000229	2.292646	0.388385	-0.000023
1070	1.0637e+02	9.3604	15.965384	0.000205	2.047006	0.346772	-0.000020
1071	1.0647e+02	9.3490	15.948683	0.000168	1.678545	0.284353	-0.000017
1072	1.0656e+02	9.3398	15.930760	0.000180	1.801365	0.305159	-0.000018
1073	1.0666e+02	9.3262	15.908356	0.000225	2.251706	0.381449	-0.000023
1074	1.0676e+02	9.3152	15.887582	0.000209	2.087946	0.353708	-0.000021
1075	1.0686e+02	9.3072	15.868029	0.000197	1.965125	0.332901	-0.000020
1076	1.0696e+02	9.2963	15.845625	0.000225	2.251706	0.381449	-0.000023
1077	1.0706e+02	9.2879	15.827295	0.000184	1.842305	0.312095	-0.000018
1078	1.0716e+02	9.2787	15.805706	0.000217	2.169826	0.367578	-0.000022
1079	1.0726e+02	9.2676	15.785339	0.000205	2.047006	0.346772	-0.000020
1080	1.0736e+02	9.2578	15.766193	0.000192	1.924185	0.325966	-0.000019
1081	1.0746e+02	9.2498	15.744197	0.000221	2.210766	0.374514	-0.000022
1082	1.0756e+02	9.2391	15.723422	0.000209	2.087946	0.353708	-0.000021
1083	1.0766e+02	9.2310	15.702241	0.000213	2.128886	0.360643	-0.000021
1084	1.0776e+02	9.2190	15.681059	0.000213	2.128886	0.360643	-0.000021
1085	1.0786e+02	9.2098	15.663950	0.000172	1.719485	0.291289	-0.000017
1086	1.0796e+02	9.1977	15.644805	0.000192	1.924185	0.325966	-0.000019
1087	1.0806e+02	9.1886	15.622809	0.000221	2.210766	0.374514	-0.000022
1088	1.0816e+02	9.1759	15.604478	0.000184	1.842305	0.312095	-0.000018
1089	1.0826e+02	9.1705	15.588185	0.000164	1.637605	0.277418	-0.000016
1090	1.0836e+02	9.1572	15.570262	0.000180	1.801365	0.305159	-0.000018
1091	1.0845e+02	9.1511	15.549080	0.000213	2.128886	0.360643	-0.000021
1092	1.0855e+02	9.1383	15.526269	0.000229	2.292646	0.388385	-0.000023
1093	1.0865e+02	9.1299	15.509975	0.000164	1.637605	0.277418	-0.000016
1094	1.0875e+02	9.1187	15.491237	0.000188	1.883245	0.319030	-0.000019
1095	1.0885e+02	9.1072	15.472907	0.000184	1.842305	0.312095	-0.000018
1096	1.0895e+02	9.1000	15.450096	0.000229	2.292646	0.388385	-0.000023
1097	1.0905e+02	9.0885	15.430951	0.000192	1.924185	0.325966	-0.000019
1098	1.0915e+02	9.0780	15.409769	0.000213	2.128886	0.360643	-0.000021
1099	1.0925e+02	9.0698	15.390216	0.000197	1.965125	0.332901	-0.000020
1100	1.0935e+02	9.0576	15.373108	0.000172	1.719485	0.291289	-0.000017
1101	1.0945e+02	9.0515	15.353555	0.000197	1.965125	0.332901	-0.000020
1102	1.0955e+02	9.0425	15.334818	0.000188	1.883245	0.319030	-0.000019
1103	1.0965e+02	9.0300	15.315265	0.000197	1.965125	0.332901	-0.000020
1104	1.0975e+02	9.0207	15.296120	0.000192	1.924185	0.325966	-0.000019
1105	1.0985e+02	9.0108	15.277790	0.000184	1.842305	0.312095	-0.000018
1106	1.0995e+02	9.0005	15.257015	0.000209	2.087946	0.353708	-0.000021
1107	1.1005e+02	8.9909	15.238685	0.000184	1.842305	0.312095	-0.000018
1108	1.1015e+02	8.9803	15.219540	0.000192	1.924185	0.325966	-0.000019
1109	1.1025e+02	8.9704	15.196729	0.000229	2.292646	0.388385	-0.000023
1110	1.1035e+02	8.9618	15.181250	0.000156	1.555724	0.263547	-0.000016
1111	1.1044e+02	8.9494	15.160882	0.000205	2.047006	0.346772	-0.000020
1112	1.1054e+02	8.9404	15.138071	0.000229	2.292646	0.388385	-0.000023
1113	1.1064e+02	8.9307	15.115667	0.000225	2.251706	0.381449	-0.000023
1114	1.1074e+02	8.9203	15.094486	0.000213	2.128886	0.360643	-0.000021
1115	1.1084e+02	8.9117	15.074526	0.000201	2.006066	0.339837	-0.000020
1116	1.1094e+02	8.9021	15.052122	0.000225	2.251706	0.381449	-0.000023
1117	1.1104e+02	8.8917	15.034199	0.000180	1.801365	0.305159	-0.000018
1118	1.1114e+02	8.8795	15.016683	0.000176	1.760425	0.298224	-0.000018
1119	1.1124e+02	8.8712	14.989799	0.000270	2.702047	0.457739	-0.000027
1120	1.1134e+02	8.8604	14.974320	0.000156	1.555724	0.263547	-0.000016
1121	1.1144e+02	8.8502	14.949879	0.000246	2.456407	0.416127	-0.000025
1122	1.1154e+02	8.8419	14.928290	0.000217	2.169826	0.367578	-0.000022
1123	1.1164e+02	8.8300	14.909959	0.000184	1.842305	0.312095	-0.000018
1124	1.1174e+02	8.8178	14.887963	0.000221	2.210766	0.374514	-0.000022
1125	1.1184e+02	8.8124	14.865966	0.000221	2.210766	0.374514	-0.000022
1126	1.1194e+02	8.8031	14.842341	0.000237	2.374527	0.402256	-0.000024
1127	1.1204e+02	8.7921	14.817085	0.000254	2.538287	0.429997	-0.000025
1128	1.1214e+02	8.7829	14.796311	0.000209	2.087946	0.353708	-0.000021
1129	1.1224e+02	8.7738	14.774314	0.000221	2.210766	0.374514	-0.000022
1130	1.1234e+02	8.7617	14.745393	0.000291	2.906748	0.492416	-0.000029
1131	1.1244e+02	8.7540	14.725026	0.000205	2.047006	0.346772	-0.000020
1132	1.1253e+02	8.7408	14.703437	0.000217	2.169826	0.367578	-0.000022
1133	1.1263e+02	8.7342	14.679811	0.000237	2.374527	0.402256	-0.000024
1134	1.1273e+02	8.7218	14.650482	0.000295	2.947688	0.499352	-0.000029
1135	1.1283e+02	8.7140	14.629708	0.000209	2.087946	0.353708	-0.000021
1136	1.1293e+02	8.7012	14.608933	0.000209	2.087946	0.353708	-0.000021
1137	1.1303e+02	8.6902	14.582049	0.000270	2.702047	0.457739	-0.000027
1138	1.1313e+02	8.6877	14.558830	0.000233	2.333586	0.395320	-0.000023
1139	1.1323e+02	8.6743	14.533982	0.000250	2.497347	0.423062	-0.000025
1140	1.1333e+02	8.6633	14.508320	0.000258	2.579227	0.436933	-0.000026
1141	1.1343e+02	8.6549	14.487545	0.000209	2.087946	0.353708	-0.000021
1142	1.1353e+02	8.6420	14.463512	0.000242	2.415467	0.409191	-0.000024
1143	1.1363e+02	8.6318	14.436220	0.000274	2.742988	0.464675	-0.000027
1144	1.1373e+02	8.6221	14.409335	0.000270	2.702047	0.457739	-0.000027
1145	1.1383e+02	8.6143	14.387746	0.000217	2.169826	0.367578	-0.000022
1146	1.1393e+02	8.6025	14.360047	0.000278	2.783928	0.471610	-0.000028
1147	1.1403e+02	8.5946	14.339272	0.000209	2.087946	0.353708	-0.000021
1148	1.1413e+02	8.5836	14.311981	0.000274	2.742988	0.464675	-0.000027
1149	1.1423e+02	8.5731	14.284689	0.000274	2.742988	0.464675	-0.000027
1150	1.1433e+02	8.5612	14.261470	0.000233	2.333586	0.395320	-0.000023
1151	1.1442e+02	8.5509	14.236622	0.000250	2.497347	0.423062	-0.000025
1152	1.1452e+02	8.5426	14.215440	0.000213	2.128886	0.360643	-0.000021
1153	1.1462e+02	8.5307	14.182446	0.000332	3.316149	0.561771	-0.000033
1154	1.1472e+02	8.5206	14.160449	0.000221	2.210766	0.374514	-0.000022
1155	1.1482e+02	8.5126	14.138860	0.000217	2.169826	0.367578	-0.000022
1156	1.1492e+02	8.5044	14.110753	0.000282	2.824868	0.478546	-0.000028
1157	1.1502e+02	8.4935	14.085498	0.000254	2.538287	0.429997	-0.000025
1158	1.1512e+02	8.4853	14.057799	0.000278	2.783928	0.471610	-0.000028
1159	1.1522e+02	8.4742	14.034580	0.000233	2.333586	0.395320	-0.000023
1160	1.1532e+02	8.4632	14.006474	0.000282	2.824868	0.478546	-0.000028
1161	1.1542e+02	8.4570	13.979589	0.000270	2.702047	0.457739	-0.000027
1162	1.1552e+02	8.4436	13.956370	0.000233	2.333586	0.395320	-0.000023
1163	1.1562e+02	8.4349	13.929079	0.000274	2.742988	0.464675	-0.000027
1164	1.1572e+02	8.4235	13.905045	0.000242	2.415467	0.409191	-0.000024
1165	1.1582e+02	8.4131	13.879383	0.000258	2.579227	0.436933	-0.000026
1166	1.1592e+02	8.4029	13.853313	0.000262	2.620167	0.443868	-0.000026
1167	1.1602e+02	8.3927	13.826428	0.000270	2.702047	0.457739	-0.000027
1168	1.1612e+02	8.3874	13.801173	0.000254	2.538287	0.429997	-0.000025
1169	1.1622e+02	8.3773	13.775510	0.000258	2.579227	0.436933	-0.000026
1170	1.1632e+02	8.3673	13.750255	0.000254	2.538287	0.429997	-0.000025
1171	1.1642e+02	8.3533	13.723371	0.000270	2.702047	0.457739	-0.000027
1172	1.1651e+02	8.3447	13.693227	0.000303	3.029568	0.513223	-0.000030
1173	1.1661e+02	8.3322	13.665528	0.000278	2.783928	0.471610	-0.000028
1174	1.1671e+02	8.3254	13.635385	0.000303	3.029568	0.513223	-0.000030
1175	1.1681e+02	8.3144	13.603612	0.000319	3.193329	0.540965	-0.000032
1176	1.1691e+02	8.3021	13.579171	0.000246	2.456407	0.416127	-0.000025
1177	1.1701e+02	8.2954	13.554323	0.000250	2.497347	0.423062	-0.000025
1178	1.1711e+02	8.2840	13.526624	0.000278	2.783928	0.471610	-0.000028
1179	1.1721e+02	8.2758	13.496481	0.000303	3.029568	0.513223	-0.000030
1180	1.1731e+02	8.2611	13.472448	0.000242	2.415467	0.409191	-0.000024
1181	1.1741e+02	8.2537	13.441897	0.000307	3.070508	0.520158	-0.000031
1182	1.1751e+02	8.2444	13.415827	0.000262	2.620167	0.443868	-0.000026
1183	1.1761e+02	8.2339	13.390979	0.000250	2.497347	0.423062	-0.000025
1184	1.1771e+02	8.2244	13.363687	0.000274	2.742988	0.464675	-0.000027
1185	1.1781e+02	8.2153	13.331507	0.000323	3.234269	0.547900	-0.000032
1186	1.1791e+02	8.2063	13.304622	0.000270	2.702047	0.457739	-0.000027
1187	1.1801e+02	8.1942	13.272035	0.000328	3.275209	0.554835	-0.000033
1188	1.1811e+02	8.1844	13.245150	0.000270	2.702047	0.457739	-0.000027
1189	1.1821e+02	8.1747	13.221932	0.000233	2.333586	0.395320	-0.000023
1190	1.1831e+02	8.1665	13.193011	0.000291	2.906748	0.492416	-0.000029
1191	1.1841e+02	8.1532	13.157979	0.000352	3.520850	0.596448	-0.000035
1192	1.1850e+02	8.1480	13.134761	0.000233	2.333586	0.395320	-0.000023
1193	1.1860e+02	8.1358	13.103395	0.000315	3.152389	0.534029	-0.000032
1194	1.1870e+02	8.1268	13.078547	0.000250	2.497347	0.423062	-0.000025
1195	1.1880e+02	8.1171	13.047997	0.000307	3.070508	0.520158	-0.000031
1196	1.1890e+02	8.1062	13.023963	0.000242	2.415467	0.409191	-0.000024
1197	1.1900e+02	8.0960	12.994227	0.000299	2.988628	0.506287	-0.000030
1198	1.1910e+02	8.0881	12.964491	0.000299	2.988628	0.506287	-0.000030
1199	1.1920e+02	8.0758	12.942495	0.000221	2.210766	0.374514	-0.000022
1200	1.1930e+02	8.0653	12.912352	0.000303	3.029568	0.513223	-0.000030
1201	1.1940e+02	8.0547	12.885060	0.000274	2.742988	0.464675	-0.000027
1202	1.1950e+02	8.0422	12.855731	0.000295	2.947688	0.499352	-0.000029
1203	1.1960e+02	8.0371	12.829254	0.000266	2.661107	0.450804	-0.000027
1204	1.1970e+02	8.0273	12.802369	0.000270	2.702047	0.457739	-0.000027
1205	1.1980e+02	8.0141	12.774262	0.000282	2.824868	0.478546	-0.000028
1206	1.1990e+02	8.0035	12.748600	0.000258	2.579227	0.436933	-0.000026
1207	1.2000e+02	7.9952	12.715605	0.000332	3.316149	0.561771	-0.000033
1208	1.2010e+02	7.9871	12.691979	0.000237	2.374527	0.402256	-0.000024
1209	1.2020e+02	7.9762	12.670797	0.000213	2.128886	0.360643	-0.000021
1210	1.2030e+02	7.9659	12.641469	0.000295	2.947688	0.499352	-0.000029
1211	1.2039e+02	7.9536	12.614584	0.000270	2.702047	0.457739	-0.000027
1212	1.2049e+02	7.9433	12.590551	0.000242	2.415467	0.409191	-0.000024
1213	1.2059e+02	7.9352	12.564074	0.000266	2.661107	0.450804	-0.000027
1214	1.2069e+02	7.9250	12.532708	0.000315	3.152389	0.534029	-0.000032
1215	1.2079e+02	7.9128	12.513156	0.000197	1.965125	0.332901	-0.000020
1216	1.2089e+02	7.9047	12.489937	0.000233	2.333586	0.395320	-0.000023
1217	1.2099e+02	7.8999	12.463053	0.000270	2.702047	0.457739	-0.000027
1218	1.2109e+02	7.8843	12.436983	0.000262	2.620167	0.443868	-0.000026
1219	1.2119e+02	7.8767	12.412542	0.000246	2.456407	0.416127	-0.000025
1220	1.2129e+02	7.8665	12.387694	0.000250	2.497347	0.423062	-0.000025
1221	1.2139e+02	7.8553	12.362439	0.000254	2.538287	0.429997	-0.000025
1222	1.2149e+02	7.8452	12.333518	0.000291	2.906748	0.492416	-0.000029
1223	1.2159e+02	7.8365	12.313965	0.000197	1.965125	0.332901	-0.000020
1224	1.2169e+02	7.8266	12.288303	0.000258	2.579227	0.436933	-0.000026
1225	1.2179e+02	7.8176	12.261418	0.000270	2.702047	0.457739	-0.000027
1226	1.2189e+02	7.8064	12.236978	0.000246	2.456407	0.416127	-0.000025
1227	1.2199e+02	7.7979	12.214574	0.000225	2.251706	0.381449	-0.000023
1228	1.2209e+02	7.7881	12.188504	0.000262	2.620167	0.443868	-0.000026
1229	1.2219e+02	7.7783	12.160805	0.000278	2.783928	0.471610	-0.000028
1230	1.2229e+02	7.7702	12.140437	0.000205	2.047006	0.346772	-0.000020
1231	1.2239e+02	7.7573	12.114367	0.000262	2.620167	0.443868	-0.000026
1232	1.2248e+02	7.7464	12.092371	0.000221	2.210766	0.374514	-0.000022
1233	1.2258e+02	7.7393	12.066301	0.000262	2.620167	0.443868	-0.000026
1234	1.2268e+02	7.7279	12.040638	0.000258	2.579227	0.436933	-0.000026
1235	1.2278e+02	7.7190	12.015383	0.000254	2.538287	0.429997	-0.000025
1236	1.2288e+02	7.7073	11.989721	0.000258	2.579227	0.436933	-0.000026
1237	1.2298e+02	7.6966	11.962836	0.000270	2.702047	0.457739	-0.000027
1238	1.2308e+02	7.6881	11.940840	0.000221	2.210766	0.374514	-0.000022
1239	1.2318e+02	7.6737	11.913140	0.000278	2.783928	0.471610	-0.000028
1240	1.2328e+02	7.6660	11.889514	0.000237	2.374527	0.402256	-0.000024
1241	1.2338e+02	7.6566	11.864259	0.000254	2.538287	0.429997	-0.000025
1242	1.2348e+02	7.6472	11.840226	0.000242	2.415467	0.409191	-0.000024
1243	1.2358e+02	7.6357	11.815785	0.000246	2.456407	0.416127	-0.000025
1244	1.2368e+02	7.6286	11.794196	0.000217	2.169826	0.367578	-0.000022
1245	1.2378e+02	7.6176	11.770163	0.000242	2.415467	0.409191	-0.000024
1246	1.2388e+02	7.6089	11.745722	0.000246	2.456407	0.416127	-0.000025
1247	1.2398e+02	7.6012	11.719653	0.000262	2.620167	0.443868	-0.000026
1248	1.2408e+02	7.5877	11.692768	0.000270	2.702047	0.457739	-0.000027
1249	1.2418e+02	7.5782	11.669549	0.000233	2.333586	0.395320	-0.000023
1250	1.2428e+02	7.5665	11.644702	0.000250	2.497347	0.423062	-0.000025
1251	1.2438e+02	7.5588	11.621483	0.000233	2.333586	0.395320	-0.000023
1252	1.2447e+02	7.5473	11.595006	0.000266	2.661107	0.450804	-0.000027
1253	1.2457e+02	7.5358	11.571787	0.000233	2.333586	0.395320	-0.000023
1254	1.2467e+02	7.5315	11.546532	0.000254	2.538287	0.429997	-0.000025
1255	1.2477e+02	7.5175	11.524535	0.000221	2.210766	0.374514	-0.000022
1256	1.2487e+02	7.5100	11.499688	0.000250	2.497347	0.423062	-0.000025
1257	1.2497e+02	7.5003	11.481764	0.000180	1.801365	0.305159	-0.000018
1258	1.2507e+02	7.4887	11.456102	0.000258	2.579227	0.436933	-0.000026
1259	1.2517e+02	7.4801	11.427995	0.000282	2.824868	0.478546	-0.000028
1260	1.2527e+02	7.4696	11.411294	0.000168	1.678545	0.284353	-0.000017
1261	1.2537e+02	7.4587	11.388890	0.000225	2.251706	0.381449	-0.000023
1262	1.2547e+02	7.4473	11.361191	0.000278	2.783928	0.471610	-0.000028
1263	1.2557e+02	7.4395	11.340009	0.000213	2.128886	0.360643	-0.000021
1264	1.2567e+02	7.4297	11.317605	0.000225	2.251706	0.381449	-0.000023
1265	1.2577e+02	7.4176	11.291128	0.000266	2.661107	0.450804	-0.000027
1266	1.2587e+02	7.4088	11.266688	0.000246	2.456407	0.416127	-0.000025
1267	1.2597e+02	7.3989	11.244691	0.000221	2.210766	0.374514	-0.000022
1268	1.2607e+02	7.3895	11.221880	0.000229	2.292646	0.388385	-0.000023
1269	1.2617e+02	7.3788	11.197439	0.000246	2.456407	0.416127	-0.000025
1270	1.2627e+02	7.3687	11.172592	0.000250	2.497347	0.423062	-0.000025
1271	1.2636e+02	7.3617	11.148151	0.000246	2.456407	0.416127	-0.000025
1272	1.2646e+02	7.3535	11.124932	0.000233	2.333586	0.395320	-0.000023
1273	1.2656e+02	7.3377	11.102121	0.000229	2.292646	0.388385	-0.000023
1274	1.2666e+02	7.3300	11.081347	0.000209	2.087946	0.353708	-0.000021
1275	1.2676e+02	7.3196	11.060165	0.000213	2.128886	0.360643	-0.000021
1276	1.2686e+02	7.3079	11.036132	0.000242	2.415467	0.409191	-0.000024
1277	1.2696e+02	7.3011	11.011284	0.000250	2.497347	0.423062	-0.000025
1278	1.2706e+02	7.2907	10.988880	0.000225	2.251706	0.381449	-0.000023
1279	1.2716e+02	7.2774	10.966476	0.000225	2.251706	0.381449	-0.000023
1280	1.2726e+02	7.2721	10.942443	0.000242	2.415467	0.409191	-0.000024
1281	1.2736e+02	7.2582	10.912707	0.000299	2.988628	0.506287	-0.000030
1282	1.2746e+02	7.2495	10.890303	0.000225	2.251706	0.381449	-0.000023
1283	1.2756e+02	7.2404	10.868307	0.000221	2.210766	0.374514	-0.000022
1284	1.2766e+02	7.2320	10.839385	0.000291	2.906748	0.492416	-0.000029
1285	1.2776e+02	7.2198	10.817796	0.000217	2.169826	0.367578	-0.000022
1286	1.2786e+02	7.2105	10.794985	0.000229	2.292646	0.388385	-0.000023
1287	1.2796e+02	7.1987	10.770137	0.000250	2.497347	0.423062	-0.000025
1288	1.2806e+02	7.1896	10.748141	0.000221	2.210766	0.374514	-0.000022
1289	1.2816e+02	7.1798	10.721663	0.000266	2.661107	0.450804	-0.000027
1290	1.2826e+02	7.1694	10.692742	0.000291	2.906748	0.492416	-0.000029
1291	1.2835e+02	7.1587	10.667487	0.000254	2.538287	0.429997	-0.000025
1292	1.2845e+02	7.1520	10.641417	0.000262	2.620167	0.443868	-0.000026
1293	1.2855e+02	7.1404	10.619420	0.000221	2.210766	0.374514	-0.000022
1294	1.2865e+02	7.1318	10.588462	0.000311	3.111449	0.527094	-0.000031
1295	1.2875e+02	7.1194	10.565651	0.000229	2.292646	0.388385	-0.000023
1296	1.2885e+02	7.1120	10.536730	0.000291	2.906748	0.492416	-0.000029
1297	1.2895e+02	7.1004	10.510660	0.000262	2.620167	0.443868	-0.000026
1298	1.2905e+02	7.0886	10.484590	0.000262	2.620167	0.443868	-0.000026
1299	1.2915e+02	7.0804	10.454447	0.000303	3.029568	0.513223	-0.000030
1300	1.2925e+02	7.0718	10.427155	0.000274	2.742988	0.464675	-0.000027
1301	1.2935e+02	7.0611	10.398641	0.000287	2.865808	0.485481	-0.000029
1302	1.2945e+02	7.0487	10.374607	0.000242	2.415467	0.409191	-0.000024
1303	1.2955e+02	7.0397	10.344057	0.000307	3.070508	0.520158	-0.000031
1304	1.2965e+02	7.0316	10.316357	0.000278	2.783928	0.471610	-0.000028
1305	1.2975e+02	7.0208	10.287843	0.000287	2.865808	0.485481	-0.000029
1306	1.2985e+02	7.0092	10.265032	0.000229	2.292646	0.388385	-0.000023
1307	1.2995e+02	7.0033	10.236926	0.000282	2.824868	0.478546	-0.000028
1308	1.3005e+02	6.9907	10.208004	0.000291	2.906748	0.492416	-0.000029
1309	1.3015e+02	6.9791	10.179083	0.000291	2.906748	0.492416	-0.000029
1310	1.3025e+02	6.9723	10.150569	0.000287	2.865808	0.485481	-0.000029
1311	1.3034e+02	6.9612	10.121240	0.000295	2.947688	0.499352	-0.000029
1312	1.3044e+02	6.9488	10.093948	0.000274	2.742988	0.464675	-0.000027
1313	1.3054e+02	6.9424	10.064620	0.000295	2.947688	0.499352	-0.000029
1314	1.3064e+02	6.9308	10.033662	0.000311	3.111449	0.527094	-0.000031
1315	1.3074e+02	6.9215	10.007184	0.000266	2.661107	0.450804	-0.000027
1316	1.3084e+02	6.9092	9.977448	0.000299	2.988628	0.506287	-0.000030
1317	1.3094e+02	6.9003	9.949342	0.000282	2.824868	0.478546	-0.000028
1318	1.3104e+02	6.8896	9.919606	0.000299	2.988628	0.506287	-0.000030
1319	1.3114e+02	6.8813	9.892314	0.000274	2.742988	0.464675	-0.000027
1320	1.3124e+02	6.8710	9.866244	0.000262	2.620167	0.443868	-0.000026
1321	1.3134e+02	6.8615	9.836101	0.000303	3.029568	0.513223	-0.000030
1322	1.3144e+02	6.8511	9.808809	0.000274	2.742988	0.464675	-0.000027
1323	1.3154e+02	6.8441	9.777851	0.000311	3.111449	0.527094	-0.000031
1324	1.3164e+02	6.8331	9.749337	0.000287	2.865808	0.485481	-0.000029
1325	1.3174e+02	6.8218	9.720823	0.000287	2.865808	0.485481	-0.000029
1326	1.3184e+02	6.8138	9.689457	0.000315	3.152389	0.534029	-0.000032
1327	1.3194e+02	6.8008	9.660129	0.000295	2.947688	0.499352	-0.000029
1328	1.3204e+02	6.7928	9.632022	0.000282	2.824868	0.478546	-0.000028
1329	1.3214e+02	6.7818	9.602286	0.000299	2.988628	0.506287	-0.000030
1330	1.3224e+02	6.7717	9.575809	0.000266	2.661107	0.450804	-0.000027
1331	1.3234e+02	6.7628	9.546887	0.000291	2.906748	0.492416	-0.000029
1332	1.3243e+02	6.7525	9.513893	0.000332	3.316149	0.561771	-0.000033
1333	1.3253e+02	6.7409	9.487823	0.000262	2.620167	0.443868	-0.000026
1334	1.3263e+02	6.7321	9.454828	0.000332	3.316149	0.561771	-0.000033
1335	1.3273e+02	6.7213	9.427129	0.000278	2.783928	0.471610	-0.000028
1336	1.3283e+02	6.7103	9.398207	0.000291	2.906748	0.492416	-0.000029
1337	1.3293e+02	6.7017	9.366435	0.000319	3.193329	0.540965	-0.000032
1338	1.3303e+02	6.6927	9.338328	0.000282	2.824868	0.478546	-0.000028
1339	1.3313e+02	6.6887	9.308185	0.000303	3.029568	0.513223	-0.000030
1340	1.3323e+02	6.6748	9.275190	0.000332	3.316149	0.561771	-0.000033
1341	1.3333e+02	6.6590	9.239344	0.000360	3.602730	0.610319	-0.000036
1342	1.3343e+02	6.6511	9.213274	0.000262	2.620167	0.443868	-0.000026
1343	1.3353e+02	6.6402	9.182316	0.000311	3.111449	0.527094	-0.000031
1344	1.3363e+02	6.6336	9.148506	0.000340	3.398029	0.575642	-0.000034
1345	1.3373e+02	6.6238	9.117956	0.000307	3.070508	0.520158	-0.000031
1346	1.3383e+02	6.6119	9.089034	0.000291	2.906748	0.492416	-0.000029
1347	1.3393e+02	6.6039	9.057262	0.000319	3.193329	0.540965	-0.000032
1348	1.3403e+02	6.5957	9.028748	0.000287	2.865808	0.485481	-0.000029
1349	1.3413e+02	6.5832	8.995753	0.000332	3.316149	0.561771	-0.000033
1350	1.3423e+02	6.5737	8.964795	0.000311	3.111449	0.527094	-0.000031
1351	1.3432e+02	6.5610	8.935466	0.000295	2.947688	0.499352	-0.000029
1352	1.3442e+02	6.5527	8.903286	0.000323	3.234269	0.547900	-0.000032
1353	1.3452e+02	6.5430	8.870291	0.000332	3.316149	0.561771	-0.000033
1354	1.3462e+02	6.5336	8.837297	0.000332	3.316149	0.561771	-0.000033
1355	1.3472e+02	6.5208	8.807153	0.000303	3.029568	0.513223	-0.000030
1356	1.3482e+02	6.5122	8.773751	0.000336	3.357089	0.568706	-0.000034
1357	1.3492e+02	6.5018	8.739534	0.000344	3.438969	0.582577	-0.000034
1358	1.3502e+02	6.4922	8.710206	0.000295	2.947688	0.499352	-0.000029
1359	1.3512e+02	6.4829	8.678433	0.000319	3.193329	0.540965	-0.000032
1360	1.3522e+02	6.4712	8.644624	0.000340	3.398029	0.575642	-0.000034
1361	1.3532e+02	6.4648	8.612036	0.000328	3.275209	0.554835	-0.000033
1362	1.3542e+02	6.4515	8.584337	0.000278	2.783928	0.471610	-0.000028
1363	1.3552e+02	6.4439	8.550935	0.000336	3.357089	0.568706	-0.000034
1364	1.3562e+02	6.4333	8.520384	0.000307	3.070508	0.520158	-0.000031
1365	1.3572e+02	6.4214	8.493500	0.000270	2.702047	0.457739	-0.000027
1366	1.3582e+02	6.4129	8.460505	0.000332	3.316149	0.561771	-0.000033
1367	1.3592e+02	6.4039	8.428325	0.000323	3.234269	0.547900	-0.000032
1368	1.3602e+02	6.3961	8.399811	0.000287	2.865808	0.485481	-0.000029
1369	1.3612e+02	6.3831	8.366001	0.000340	3.398029	0.575642	-0.000034
1370	1.3622e+02	6.3734	8.337487	0.000287	2.865808	0.485481	-0.000029
1371	1.3631e+02	6.3628	8.305307	0.000323	3.234269	0.547900	-0.000032
1372	1.3641e+02	6.3558	8.271905	0.000336	3.357089	0.568706	-0.000034
1373	1.3651e+02	6.3428	8.239318	0.000328	3.275209	0.554835	-0.000033
1374	1.3661e+02	6.3363	8.214063	0.000254	2.538287	0.429997	-0.000025
1375	1.3671e+02	6.3226	8.185549	0.000287	2.865808	0.485481	-0.000029
1376	1.3681e+02	6.3158	8.153776	0.000319	3.193329	0.540965	-0.000032
1377	1.3691e+02	6.3039	8.124040	0.000299	2.988628	0.506287	-0.000030
1378	1.3701e+02	6.2963	8.093896	0.000303	3.029568	0.513223	-0.000030
1379	1.3711e+02	6.2836	8.066197	0.000278	2.783928	0.471610	-0.000028
1380	1.3721e+02	6.2767	8.038091	0.000282	2.824868	0.478546	-0.000028
1381	1.3731e+02	6.2647	8.005911	0.000323	3.234269	0.547900	-0.000032
1382	1.3741e+02	6.2549	7.977804	0.000282	2.824868	0.478546	-0.000028
1383	1.3751e+02	6.2420	7.952141	0.000258	2.579227	0.436933	-0.000026
1384	1.3761e+02	6.2373	7.919554	0.000328	3.275209	0.554835	-0.000033
1385	1.3771e+02	6.2273	7.896743	0.000229	2.292646	0.388385	-0.000023
1386	1.3781e+02	6.2139	7.867414	0.000295	2.947688	0.499352	-0.000029
1387	1.3791e+02	6.2051	7.834419	0.000332	3.316149	0.561771	-0.000033
1388	1.3801e+02	6.1956	7.806720	0.000278	2.783928	0.471610	-0.000028
1389	1.3811e+02	6.1850	7.779835	0.000270	2.702047	0.457739	-0.000027
1390	1.3821e+02	6.1755	7.750914	0.000291	2.906748	0.492416	-0.000029
1391	1.3831e+02	6.1646	7.720363	0.000307	3.070508	0.520158	-0.000031
1392	1.3840e+02	6.1575	7.693479	0.000270	2.702047	0.457739	-0.000027
1393	1.3850e+02	6.1455	7.668224	0.000254	2.538287	0.429997	-0.000025
1394	1.3860e+02	6.1359	7.636451	0.000319	3.193329	0.540965	-0.000032
1395	1.3870e+02	6.1260	7.612010	0.000246	2.456407	0.416127	-0.000025
1396	1.3880e+02	6.1153	7.580645	0.000315	3.152389	0.534029	-0.000032
1397	1.3890e+02	6.1063	7.550502	0.000303	3.029568	0.513223	-0.000030
1398	1.3900e+02	6.0972	7.522802	0.000278	2.783928	0.471610	-0.000028
1399	1.3910e+02	6.0847	7.496325	0.000266	2.661107	0.450804	-0.000027
1400	1.3920e+02	6.0777	7.468626	0.000278	2.783928	0.471610	-0.000028
1401	1.3930e+02	6.0680	7.440112	0.000287	2.865808	0.485481	-0.000029
1402	1.3940e+02	6.0555	7.410376	0.000299	2.988628	0.506287	-0.000030
1403	1.3950e+02	6.0461	7.383491	0.000270	2.702047	0.457739	-0.000027
1404	1.3960e+02	6.0365	7.352533	0.000311	3.111449	0.527094	-0.000031
1405	1.3970e+02	6.0270	7.328907	0.000237	2.374527	0.402256	-0.000024
1406	1.3980e+02	6.0161	7.296727	0.000323	3.234269	0.547900	-0.000032
1407	1.3990e+02	6.0055	7.266176	0.000307	3.070508	0.520158	-0.000031
1408	1.4000e+02	5.9968	7.240921	0.000254	2.538287	0.429997	-0.000025
1409	1.4010e+02	5.9862	7.211593	0.000295	2.947688	0.499352	-0.000029
1410	1.4020e+02	5.9759	7.187559	0.000242	2.415467	0.409191	-0.000024
1411	1.4029e+02	5.9647	7.158638	0.000291	2.906748	0.492416	-0.000029
1412	1.4039e+02	5.9570	7.129717	0.000291	2.906748	0.492416	-0.000029
1413	1.4049e+02	5.9463	7.102017	0.000278	2.783928	0.471610	-0.000028
1414	1.4059e+02	5.9357	7.074318	0.000278	2.783928	0.471610	-0.000028
1415	1.4069e+02	5.9274	7.045397	0.000291	2.906748	0.492416	-0.000029
1416	1.4079e+02	5.9164	7.013624	0.000319	3.193329	0.540965	-0.000032
1417	1.4089e+02	5.9063	6.986739	0.000270	2.702047	0.457739	-0.000027
1418	1.4099e+02	5.8955	6.960262	0.000266	2.661107	0.450804	-0.000027
1419	1.4109e+02	5.8887	6.930526	0.000299	2.988628	0.506287	-0.000030
1420	1.4119e+02	5.8747	6.905271	0.000254	2.538287	0.429997	-0.000025
1421	1.4129e+02	5.8671	6.875942	0.000295	2.947688	0.499352	-0.000029
1422	1.4139e+02	5.8607	6.847428	0.000287	2.865808	0.485481	-0.000029
1423	1.4149e+02	5.8447	6.822173	0.000254	2.538287	0.429997	-0.000025
1424	1.4159e+02	5.8376	6.791622	0.000307	3.070508	0.520158	-0.000031
1425	1.4169e+02	5.8256	6.768404	0.000233	2.333586	0.395320	-0.000023
1426	1.4179e+02	5.8193	6.746407	0.000221	2.210766	0.374514	-0.000022
1427	1.4189e+02	5.8057	6.716671	0.000299	2.988628	0.506287	-0.000030
1428	1.4199e+02	5.7972	6.688157	0.000287	2.865808	0.485481	-0.000029
1429	1.4209e+02	5.7861	6.660865	0.000274	2.742988	0.464675	-0.000027
1430	1.4219e+02	5.7758	6.634795	0.000262	2.620167	0.443868	-0.000026
1431	1.4228e+02	5.7694	6.606282	0.000287	2.865808	0.485481	-0.000029
1432	1.4238e+02	5.7583	6.578990	0.000274	2.742988	0.464675	-0.000027
1433	1.4248e+02	5.7508	6.551698	0.000274	2.742988	0.464675	-0.000027
1434	1.4258e+02	5.7360	6.526442	0.000254	2.538287	0.429997	-0.000025
1435	1.4268e+02	5.7277	6.499150	0.000274	2.742988	0.464675	-0.000027
1436	1.4278e+02	5.7192	6.476747	0.000225	2.251706	0.381449	-0.000023
1437	1.4288e+02	5.7101	6.444567	0.000323	3.234269	0.547900	-0.000032
1438	1.4298e+02	5.6980	6.418904	0.000258	2.579227	0.436933	-0.000026
1439	1.4308e+02	5.6879	6.393241	0.000258	2.579227	0.436933	-0.000026
1440	1.4318e+02	5.6760	6.369615	0.000237	2.374527	0.402256	-0.000024
1441	1.4328e+02	5.6707	6.339879	0.000299	2.988628	0.506287	-0.000030
1442	1.4338e+02	5.6588	6.313810	0.000262	2.620167	0.443868	-0.000026
1443	1.4348e+02	5.6496	6.288962	0.000250	2.497347	0.423062	-0.000025
1444	1.4358e+02	5.6384	6.259226	0.000299	2.988628	0.506287	-0.000030
1445	1.4368e+02	5.6280	6.232748	0.000266	2.661107	0.450804	-0.000027
1446	1.4378e+02	5.6176	6.205456	0.000274	2.742988	0.464675	-0.000027
1447	1.4388e+02	5.6073	6.178979	0.000266	2.661107	0.450804	-0.000027
1448	1.4398e+02	5.5985	6.151280	0.000278	2.783928	0.471610	-0.000028
1449	1.4408e+02	5.5882	6.119100	0.000323	3.234269	0.547900	-0.000032
1450	1.4418e+02	5.5769	6.094252	0.000250	2.497347	0.423062	-0.000025
1451	1.4428e+02	5.5679	6.065738	0.000287	2.865808	0.485481	-0.000029
1452	1.4437e+02	5.5575	6.040075	0.000258	2.579227	0.436933	-0.000026
1453	1.4447e+02	5.5498	6.009525	0.000307	3.070508	0.520158	-0.000031
1454	1.4457e+02	5.5398	5.979381	0.000303	3.029568	0.513223	-0.000030
1455	1.4467e+02	5.5293	5.954126	0.000254	2.538287	0.429997	-0.000025
1456	1.4477e+02	5.5193	5.923575	0.000307	3.070508	0.520158	-0.000031
1457	1.4487e+02	5.5119	5.898727	0.000250	2.497347	0.423062	-0.000025
1458	1.4497e+02	5.4981	5.867769	0.000311	3.111449	0.527094	-0.000031
1459	1.4507e+02	5.4891	5.837219	0.000307	3.070508	0.520158	-0.000031
1460	1.4517e+02	5.4760	5.808297	0.000291	2.906748	0.492416	-0.000029
1461	1.4527e+02	5.4677	5.776117	0.000323	3.234269	0.547900	-0.000032
1462	1.4537e+02	5.4603	5.748011	0.000282	2.824868	0.478546	-0.000028
1463	1.4547e+02	5.4508	5.717867	0.000303	3.029568	0.513223	-0.000030
1464	1.4557e+02	5.4412	5.684873	0.000332	3.316149	0.561771	-0.000033
1465	1.4567e+02	5.4272	5.653915	0.000311	3.111449	0.527094	-0.000031
1466	1.4577e+02	5.4179	5.623364	0.000307	3.070508	0.520158	-0.000031
1467	1.4587e+02	5.4105	5.595257	0.000282	2.824868	0.478546	-0.000028
1468	1.4597e+02	5.3985	5.559818	0.000356	3.561790	0.603384	-0.000036
1469	1.4607e+02	5.3873	5.531305	0.000287	2.865808	0.485481	-0.000029
1470	1.4617e+02	5.3796	5.500346	0.000311	3.111449	0.527094	-0.000031
1471	1.4626e+02	5.3688	5.470610	0.000299	2.988628	0.506287	-0.000030
1472	1.4636e+02	5.3576	5.436394	0.000344	3.438969	0.582577	-0.000034
1473	1.4646e+02	5.3491	5.407472	0.000291	2.906748	0.492416	-0.000029
1474	1.4656e+02	5.3403	5.374070	0.000336	3.357089	0.568706	-0.000034
1475	1.4666e+02	5.3313	5.342298	0.000319	3.193329	0.540965	-0.000032
1476	1.4676e+02	5.3185	5.312969	0.000295	2.947688	0.499352	-0.000029
1477	1.4686e+02	5.3088	5.280381	0.000328	3.275209	0.554835	-0.000033
1478	1.4696e+02	5.3008	5.249831	0.000307	3.070508	0.520158	-0.000031
1479	1.4706e+02	5.2905	5.216021	0.000340	3.398029	0.575642	-0.000034
1480	1.4716e+02	5.2806	5.183434	0.000328	3.275209	0.554835	-0.000033
1481	1.4726e+02	5.2682	5.151254	0.000323	3.234269	0.547900	-0.000032
1482	1.4736e+02	5.2576	5.117444	0.000340	3.398029	0.575642	-0.000034
1483	1.4746e+02	5.2502	5.087301	0.000303	3.029568	0.513223	-0.000030
1484	1.4756e+02	5.2393	5.054306	0.000332	3.316149	0.561771	-0.000033
1485	1.4766e+02	5.2277	5.027014	0.000274	2.742988	0.464675	-0.000027
1486	1.4776e+02	5.2184	4.989946	0.000373	3.725550	0.631125	-0.000037
1487	1.4786e+02	5.2093	4.956137	0.000340	3.398029	0.575642	-0.000034
1488	1.4796e+02	5.2000	4.929660	0.000266	2.661107	0.450804	-0.000027
1489	1.4806e+02	5.1900	4.892184	0.000377	3.766490	0.638061	-0.000038
1490	1.4816e+02	5.1821	4.858375	0.000340	3.398029	0.575642	-0.000034
1491	1.4825e+02	5.1690	4.826602	0.000319	3.193329	0.540965	-0.000032
1492	1.4835e+02	5.1620	4.796459	0.000303	3.029568	0.513223	-0.000030
1493	1.4845e+02	5.1507	4.762649	0.000340	3.398029	0.575642	-0.000034
1494	1.4855e+02	5.1416	4.727618	0.000352	3.520850	0.596448	-0.000035
1495	1.4865e+02	5.1308	4.693401	0.000344	3.438969	0.582577	-0.000034
1496	1.4875e+02	5.1214	4.659184	0.000344	3.438969	0.582577	-0.000034
1497	1.4885e+02	5.1084	4.624560	0.000348	3.479910	0.589513	-0.000035
1498	1.4895e+02	5.0988	4.599305	0.000254	2.538287	0.429997	-0.000025
1499	1.4905e+02	5.0893	4.564273	0.000352	3.520850	0.596448	-0.000035
1500	1.4915e+02	5.0806	4.528427	0.000360	3.602730	0.610319	-0.000036
1501	1.4925e+02	5.0704	4.497469	0.000311	3.111449	0.527094	-0.000031
1502	1.4935e+02	5.0600	4.463660	0.000340	3.398029	0.575642	-0.000034
1503	1.4945e+02	5.0494	4.430665	0.000332	3.316149	0.561771	-0.000033
1504	1.4955e+02	5.0410	4.396041	0.000348	3.479910	0.589513	-0.000035
1505	1.4965e+02	5.0275	4.363046	0.000332	3.316149	0.561771	-0.000033
1506	1.4975e+02	5.0238	4.331681	0.000315	3.152389	0.534029	-0.000032
1507	1.4985e+02	5.0112	4.293798	0.000381	3.807430	0.644996	-0.000038
1508	1.4995e+02	4.9999	4.257137	0.000368	3.684610	0.624190	-0.000037
1509	1.5005e+02	4.9920	4.223735	0.000336	3.357089	0.568706	-0.000034
1510	1.5015e+02	4.9839	4.189518	0.000344	3.438969	0.582577	-0.000034
1511	1.5025e+02	4.9700	4.152043	0.000377	3.766490	0.638061	-0.000038
1512	1.5034e+02	4.9642	4.120677	0.000315	3.152389	0.534029	-0.000032
1513	1.5044e+02	4.9520	4.086053	0.000348	3.479910	0.589513	-0.000035
1514	1.5054e+02	4.9392	4.050614	0.000356	3.561790	0.603384	-0.000036
1515	1.5064e+02	4.9290	4.012731	0.000381	3.807430	0.644996	-0.000038
1516	1.5074e+02	4.9212	3.982588	0.000303	3.029568	0.513223	-0.000030
1517	1.5084e+02	4.9128	3.949593	0.000332	3.316149	0.561771	-0.000033
1518	1.5094e+02	4.9014	3.916191	0.000336	3.357089	0.568706	-0.000034
1519	1.5104e+02	4.8914	3.877086	0.000393	3.930251	0.665803	-0.000039
1520	1.5114e+02	4.8829	3.839611	0.000377	3.766490	0.638061	-0.000038
1521	1.5124e+02	4.8733	3.803765	0.000360	3.602730	0.610319	-0.000036
1522	1.5134e+02	4.8592	3.769141	0.000348	3.479910	0.589513	-0.000035
1523	1.5144e+02	4.8537	3.734517	0.000348	3.479910	0.589513	-0.000035
1524	1.5154e+02	4.8424	3.693782	0.000409	4.094011	0.693544	-0.000041
1525	1.5164e+02	4.8306	3.659973	0.000340	3.398029	0.575642	-0.000034
1526	1.5174e+02	4.8202	3.623719	0.000364	3.643670	0.617254	-0.000036
1527	1.5184e+02	4.8132	3.587466	0.000364	3.643670	0.617254	-0.000036
1528	1.5194e+02	4.8006	3.556508	0.000311	3.111449	0.527094	-0.000031
1529	1.5204e+02	4.7942	3.520254	0.000364	3.643670	0.617254	-0.000036
1530	1.5214e+02	4.7848	3.483594	0.000368	3.684610	0.624190	-0.000037
1531	1.5224e+02	4.7721	3.448155	0.000356	3.561790	0.603384	-0.000036
1532	1.5233e+02	4.7600	3.413938	0.000344	3.438969	0.582577	-0.000034
1533	1.5243e+02	4.7527	3.379721	0.000344	3.438969	0.582577	-0.000034
1534	1.5253e+02	4.7412	3.343060	0.000368	3.684610	0.624190	-0.000037
1535	1.5263e+02	4.7344	3.309658	0.000336	3.357089	0.568706	-0.000034
1536	1.5273e+02	4.7242	3.273405	0.000364	3.643670	0.617254	-0.000036
1537	1.5283e+02	4.7121	3.239595	0.000340	3.398029	0.575642	-0.000034
1538	1.5293e+02	4.7008	3.207008	0.000328	3.275209	0.554835	-0.000033
1539	1.5303e+02	4.6921	3.169940	0.000373	3.725550	0.631125	-0.000037
1540	1.5313e+02	4.6807	3.130835	0.000393	3.930251	0.665803	-0.000039
1541	1.5323e+02	4.6733	3.102321	0.000287	2.865808	0.485481	-0.000029
1542	1.5333e+02	4.6651	3.066067	0.000364	3.643670	0.617254	-0.000036
1543	1.5343e+02	4.6523	3.030221	0.000360	3.602730	0.610319	-0.000036
1544	1.5353e+02	4.6437	2.996004	0.000344	3.438969	0.582577	-0.000034
1545	1.5363e+02	4.6357	2.964639	0.000315	3.152389	0.534029	-0.000032
1546	1.5373e+02	4.6236	2.934496	0.000303	3.029568	0.513223	-0.000030
1547	1.5383e+02	4.6132	2.900686	0.000340	3.398029	0.575642	-0.000034
1548	1.5393e+02	4.6053	2.866470	0.000344	3.438969	0.582577	-0.000034
1549	1.5403e+02	4.5922	2.832253	0.000344	3.438969	0.582577	-0.000034
1550	1.5413e+02	4.5840	2.798851	0.000336	3.357089	0.568706	-0.000034
1551	1.5422e+02	4.5739	2.765041	0.000340	3.398029	0.575642	-0.000034
1552	1.5432e+02	4.5647	2.733269	0.000319	3.193329	0.540965	-0.000032
1553	1.5442e+02	4.5546	2.702310	0.000311	3.111449	0.527094	-0.000031
1554	1.5452e+02	4.5439	2.668094	0.000344	3.438969	0.582577	-0.000034
1555	1.5462e+02	4.5345	2.633877	0.000344	3.438969	0.582577	-0.000034
1556	1.5472e+02	4.5245	2.604956	0.000291	2.906748	0.492416	-0.000029
1557	1.5482e+02	4.5092	2.570331	0.000348	3.479910	0.589513	-0.000035
1558	1.5492e+02	4.5057	2.535707	0.000348	3.479910	0.589513	-0.000035
1559	1.5502e+02	4.4924	2.502305	0.000336	3.357089	0.568706	-0.000034
1560	1.5512e+02	4.4855	2.473791	0.000287	2.865808	0.485481	-0.000029
1561	1.5522e+02	4.4738	2.442426	0.000315	3.152389	0.534029	-0.000032
1562	1.5532e+02	4.4653	2.408209	0.000344	3.438969	0.582577	-0.000034
1563	1.5542e+02	4.4546	2.378473	0.000299	2.988628	0.506287	-0.000030
1564	1.5552e+02	4.4424	2.344256	0.000344	3.438969	0.582577	-0.000034
1565	1.5562e+02	4.4303	2.311669	0.000328	3.275209	0.554835	-0.000033
1566	1.5572e+02	4.4267	2.281526	0.000303	3.029568	0.513223	-0.000030
1567	1.5582e+02	4.4124	2.248531	0.000332	3.316149	0.561771	-0.000033
1568	1.5592e+02	4.4040	2.214721	0.000340	3.398029	0.575642	-0.000034
1569	1.5602e+02	4.3951	2.180097	0.000348	3.479910	0.589513	-0.000035
1570	1.5612e+02	4.3842	2.150361	0.000299	2.988628	0.506287	-0.000030
1571	1.5622e+02	4.3762	2.116959	0.000336	3.357089	0.568706	-0.000034
1572	1.5631e+02	4.3639	2.083964	0.000332	3.316149	0.561771	-0.000033
1573	1.5641e+02	4.3537	2.055043	0.000291	2.906748	0.492416	-0.000029
1574	1.5651e+02	4.3446	2.020012	0.000352	3.520850	0.596448	-0.000035
1575	1.5661e+02	4.3334	1.987424	0.000328	3.275209	0.554835	-0.000033
1576	1.5671e+02	4.3246	1.955652	0.000319	3.193329	0.540965	-0.000032
1577	1.5681e+02	4.3130	1.924694	0.000311	3.111449	0.527094	-0.000031
1578	1.5691e+02	4.3019	1.895365	0.000295	2.947688	0.499352	-0.000029
1579	1.5701e+02	4.2951	1.857889	0.000377	3.766490	0.638061	-0.000038
1580	1.5711e+02	4.2834	1.828153	0.000299	2.988628	0.506287	-0.000030
1581	1.5721e+02	4.2757	1.796788	0.000315	3.152389	0.534029	-0.000032
1582	1.5731e+02	4.2654	1.760942	0.000360	3.602730	0.610319	-0.000036
1583	1.5741e+02	4.2554	1.731206	0.000299	2.988628	0.506287	-0.000030
1584	1.5751e+02	4.2422	1.698618	0.000328	3.275209	0.554835	-0.000033
1585	1.5761e+02	4.2374	1.665624	0.000332	3.316149	0.561771	-0.000033
1586	1.5771e+02	4.2246	1.631814	0.000340	3.398029	0.575642	-0.000034
1587	1.5781e+02	4.2168	1.601671	0.000303	3.029568	0.513223	-0.000030
1588	1.5791e+02	4.2077	1.569898	0.000319	3.193329	0.540965	-0.000032
1589	1.5801e+02	4.1950	1.536496	0.000336	3.357089	0.568706	-0.000034
1590	1.5811e+02	4.1842	1.507575	0.000291	2.906748	0.492416	-0.000029
1591	1.5821e+02	4.1767	1.474987	0.000328	3.275209	0.554835	-0.000033
1592	1.5830e+02	4.1641	1.442807	0.000323	3.234269	0.547900	-0.000032
1593	1.5840e+02	4.1557	1.416330	0.000266	2.661107	0.450804	-0.000027
1594	1.5850e+02	4.1440	1.385372	0.000311	3.111449	0.527094	-0.000031
1595	1.5860e+02	4.1366	1.350341	0.000352	3.520850	0.596448	-0.000035
1596	1.5870e+02	4.1247	1.321827	0.000287	2.865808	0.485481	-0.000029
1597	1.5880e+02	4.1152	1.290869	0.000311	3.111449	0.527094	-0.000031
1598	1.5890e+02	4.1036	1.258281	0.000328	3.275209	0.554835	-0.000033
1599	1.5900e+02	4.0984	1.227730	0.000307	3.070508	0.520158	-0.000031
1600	1.5910e+02	4.0835	1.191884	0.000360	3.602730	0.610319	-0.000036
1601	1.5920e+02	4.0733	1.166222	0.000258	2.579227	0.436933	-0.000026
1602	1.5930e+02	4.0634	1.133634	0.000328	3.275209	0.554835	-0.000033
1603	1.5940e+02	4.0553	1.102676	0.000311	3.111449	0.527094	-0.000031
1604	1.5950e+02	4.0443	1.071718	0.000311	3.111449	0.527094	-0.000031
1605	1.5960e+02	4.0368	1.039538	0.000323	3.234269	0.547900	-0.000032
1606	1.5970e+02	4.0274	1.011024	0.000287	2.865808	0.485481	-0.000029
1607	1.5980e+02	4.0185	0.978844	0.000323	3.234269	0.547900	-0.000032
1608	1.5990e+02	4.0038	0.949923	0.000291	2.906748	0.492416	-0.000029
1609	1.6000e+02	3.9990	0.916113	0.000340	3.398029	0.575642	-0.000034
1610	1.6010e+02	3.9859	0.884748	0.000315	3.152389	0.534029	-0.000032
1611	1.6019e+02	3.9779	0.855827	0.000291	2.906748	0.492416	-0.000029
1612	1.6029e+02	3.9649	0.823647	0.000323	3.234269	0.547900	-0.000032
1613	1.6039e+02	3.9548	0.795133	0.000287	2.865808	0.485481	-0.000029
1614	1.6049e+02	3.9478	0.762138	0.000332	3.316149	0.561771	-0.000033
1615	1.6059e+02	3.9388	0.726699	0.000356	3.561790	0.603384	-0.000036
1616	1.6069e+02	3.9263	0.698592	0.000282	2.824868	0.478546	-0.000028
1617	1.6079e+02	3.9168	0.665598	0.000332	3.316149	0.561771	-0.000033
1618	1.6089e+02	3.9028	0.631381	0.000344	3.438969	0.582577	-0.000034
1619	1.6099e+02	3.8969	0.596757	0.000348	3.479910	0.589513	-0.000035
1620	1.6109e+02	3.8852	0.566206	0.000307	3.070508	0.520158	-0.000031
1621	1.6119e+02	3.8759	0.532804	0.000336	3.357089	0.568706	-0.000034
1622	1.6129e+02	3.8652	0.503068	0.000299	2.988628	0.506287	-0.000030
1623	1.6139e+02	3.8557	0.468851	0.000344	3.438969	0.582577	-0.000034
1624	1.6149e+02	3.8476	0.436671	0.000323	3.234269	0.547900	-0.000032
1625	1.6159e+02	3.8388	0.400010	0.000368	3.684610	0.624190	-0.000037
1626	1.6169e+02	3.8259	0.371904	0.000282	2.824868	0.478546	-0.000028
1627	1.6179e+02	3.8172	0.333614	0.000385	3.848371	0.651932	-0.000038
1628	1.6189e+02	3.8055	0.298989	0.000348	3.479910	0.589513	-0.000035
1629	1.6199e+02	3.7958	0.265587	0.000336	3.357089	0.568706	-0.000034
1630	1.6209e+02	3.7899	0.228112	0.000377	3.766490	0.638061	-0.000038
1631	1.6219e+02	3.7771	0.197154	0.000311	3.111449	0.527094	-0.000031
1632	1.6228e+02	3.7685	0.165788	0.000315	3.152389	0.534029	-0.000032
1633	1.6238e+02	3.7590	0.129535	0.000364	3.643670	0.617254	-0.000036
1634	1.6248e+02	3.7492	0.093281	0.000364	3.643670	0.617254	-0.000036
1635	1.6258e+02	3.7362	0.056621	0.000368	3.684610	0.624190	-0.000037
1636	1.6268e+02	3.7267	0.026477	0.000303	3.029568	0.513223	-0.000030
1637	1.6278e+02	3.7174	-0.014257	0.000409	4.094011	0.693544	-0.000041
1638	1.6288e+02	3.7077	-0.049696	0.000356	3.561790	0.603384	-0.000036
1639	1.6298e+02	3.6999	-0.084727	0.000352	3.520850	0.596448	-0.000035
1640	1.6308e+02	3.6906	-0.116907	0.000323	3.234269	0.547900	-0.000032
1641	1.6318e+02	3.6799	-0.156012	0.000393	3.930251	0.665803	-0.000039
1642	1.6328e+02	3.6672	-0.193080	0.000373	3.725550	0.631125	-0.000037
1643	1.6338e+02	3.6566	-0.228112	0.000352	3.520850	0.596448	-0.000035
1644	1.6348e+02	3.6478	-0.265995	0.000381	3.807430	0.644996	-0.000038
1645	1.6358e+02	3.6388	-0.300211	0.000344	3.438969	0.582577	-0.000034
1646	1.6368e+02	3.6285	-0.337687	0.000377	3.766490	0.638061	-0.000038
1647	1.6378e+02	3.6171	-0.375570	0.000381	3.807430	0.644996	-0.000038
1648	1.6388e+02	3.6107	-0.411416	0.000360	3.602730	0.610319	-0.000036
1649	1.6398e+02	3.5950	-0.446040	0.000348	3.479910	0.589513	-0.000035
1650	1.6408e+02	3.5884	-0.487996	0.000422	4.216832	0.714351	-0.000042
1651	1.6418e+02	3.5789	-0.521398	0.000336	3.357089	0.568706	-0.000034
1652	1.6427e+02	3.5691	-0.562133	0.000409	4.094011	0.693544	-0.000041
1653	1.6437e+02	3.5577	-0.594313	0.000323	3.234269	0.547900	-0.000032
1654	1.6447e+02	3.5497	-0.633010	0.000389	3.889311	0.658867	-0.000039
1655	1.6457e+02	3.5354	-0.670486	0.000377	3.766490	0.638061	-0.000038
1656	1.6467e+02	3.5263	-0.705517	0.000352	3.520850	0.596448	-0.000035
1657	1.6477e+02	3.5198	-0.741771	0.000364	3.643670	0.617254	-0.000036
1658	1.6487e+02	3.5073	-0.782098	0.000405	4.053071	0.686609	-0.000041
1659	1.6497e+02	3.4992	-0.819166	0.000373	3.725550	0.631125	-0.000037
1660	1.6507e+02	3.4873	-0.853383	0.000344	3.438969	0.582577	-0.000034
1661	1.6517e+02	3.4780	-0.889636	0.000364	3.643670	0.617254	-0.000036
1662	1.6527e+02	3.4679	-0.930778	0.000413	4.134951	0.700480	-0.000041
1663	1.6537e+02	3.4574	-0.965809	0.000352	3.520850	0.596448	-0.000035
1664	1.6547e+02	3.4521	-1.007358	0.000418	4.175892	0.707415	-0.000042
1665	1.6557e+02	3.4402	-1.043204	0.000360	3.602730	0.610319	-0.000036
1666	1.6567e+02	3.4280	-1.079458	0.000364	3.643670	0.617254	-0.000036
1667	1.6577e+02	3.4205	-1.116933	0.000377	3.766490	0.638061	-0.000038
1668	1.6587e+02	3.4084	-1.157260	0.000405	4.053071	0.686609	-0.000041
1669	1.6597e+02	3.4002	-1.192292	0.000352	3.520850	0.596448	-0.000035
1670	1.6607e+02	3.3878	-1.233841	0.000418	4.175892	0.707415	-0.000042
1671	1.6616e+02	3.3785	-1.269279	0.000356	3.561790	0.603384	-0.000036
1672	1.6626e+02	3.3694	-1.309199	0.000401	4.012131	0.679673	-0.000040
1673	1.6636e+02	3.3586	-1.342194	0.000332	3.316149	0.561771	-0.000033
1674	1.6646e+02	3.3485	-1.384965	0.000430	4.298712	0.728222	-0.000043
1675	1.6656e+02	3.3407	-1.425699	0.000409	4.094011	0.693544	-0.000041
1676	1.6666e+02	3.3295	-1.464396	0.000389	3.889311	0.658867	-0.000039
1677	1.6676e+02	3.3208	-1.503501	0.000393	3.930251	0.665803	-0.000039
1678	1.6686e+02	3.3095	-1.543421	0.000401	4.012131	0.679673	-0.000040
1679	1.6696e+02	3.2976	-1.585785	0.000426	4.257772	0.721286	-0.000043
1680	1.6706e+02	3.2877	-1.628148	0.000426	4.257772	0.721286	-0.000043
1681	1.6716e+02	3.2821	-1.664402	0.000364	3.643670	0.617254	-0.000036
1682	1.6726e+02	3.2682	-1.703099	0.000389	3.889311	0.658867	-0.000039
1683	1.6736e+02	3.2589	-1.743833	0.000409	4.094011	0.693544	-0.000041
1684	1.6746e+02	3.2474	-1.779272	0.000356	3.561790	0.603384	-0.000036
1685	1.6756e+02	3.2385	-1.817155	0.000381	3.807430	0.644996	-0.000038
1686	1.6766e+02	3.2291	-1.860333	0.000434	4.339652	0.735157	-0.000043
1687	1.6776e+02	3.2183	-1.905141	0.000450	4.503412	0.762899	-0.000045
1688	1.6786e+02	3.2098	-1.939358	0.000344	3.438969	0.582577	-0.000034
1689	1.6796e+02	3.2014	-1.980907	0.000418	4.175892	0.707415	-0.000042
1690	1.6806e+02	3.1909	-2.019604	0.000389	3.889311	0.658867	-0.000039
1691	1.6816e+02	3.1805	-2.063597	0.000442	4.421532	0.749028	-0.000044
1692	1.6825e+02	3.1711	-2.102702	0.000393	3.930251	0.665803	-0.000039
1693	1.6835e+02	3.1598	-2.142214	0.000397	3.971191	0.672738	-0.000040
1694	1.6845e+02	3.1516	-2.185393	0.000434	4.339652	0.735157	-0.000043
1695	1.6855e+02	3.1405	-2.222868	0.000377	3.766490	0.638061	-0.000038
1696	1.6865e+02	3.1328	-2.264825	0.000422	4.216832	0.714351	-0.000042
1697	1.6875e+02	3.1217	-2.305966	0.000413	4.134951	0.700480	-0.000041
1698	1.6885e+02	3.1077	-2.341812	0.000360	3.602730	0.610319	-0.000036
1699	1.6895e+02	3.1042	-2.384583	0.000430	4.298712	0.728222	-0.000043
1700	1.6905e+02	3.0896	-2.426132	0.000418	4.175892	0.707415	-0.000042
1701	1.6915e+02	3.0795	-2.461164	0.000352	3.520850	0.596448	-0.000035
1702	1.6925e+02	3.0723	-2.504749	0.000438	4.380592	0.742092	-0.000044
1703	1.6935e+02	3.0621	-2.544262	0.000397	3.971191	0.672738	-0.000040
1704	1.6945e+02	3.0523	-2.582959	0.000389	3.889311	0.658867	-0.000039
1705	1.6955e+02	3.0392	-2.622471	0.000397	3.971191	0.672738	-0.000040
1706	1.6965e+02	3.0312	-2.663613	0.000413	4.134951	0.700480	-0.000041
1707	1.6975e+02	3.0215	-2.704347	0.000409	4.094011	0.693544	-0.000041
1708	1.6985e+02	3.0145	-2.743859	0.000397	3.971191	0.672738	-0.000040
1709	1.6995e+02	3.0011	-2.783779	0.000401	4.012131	0.679673	-0.000040
1710	1.7005e+02	2.9922	-2.819218	0.000356	3.561790	0.603384	-0.000036
1711	1.7015e+02	2.9817	-2.857508	0.000385	3.848371	0.651932	-0.000038
1712	1.7024e+02	2.9720	-2.894169	0.000368	3.684610	0.624190	-0.000037
1713	1.7034e+02	2.9614	-2.934496	0.000405	4.053071	0.686609	-0.000041
1714	1.7044e+02	2.9502	-2.971971	0.000377	3.766490	0.638061	-0.000038
1715	1.7054e+02	2.9449	-3.007817	0.000360	3.602730	0.610319	-0.000036
1716	1.7064e+02	2.9324	-3.048144	0.000405	4.053071	0.686609	-0.000041
1717	1.7074e+02	2.9238	-3.086842	0.000389	3.889311	0.658867	-0.000039
1718	1.7084e+02	2.9095	-3.124725	0.000381	3.807430	0.644996	-0.000038
1719	1.7094e+02	2.9018	-3.160164	0.000356	3.561790	0.603384	-0.000036
1720	1.7104e+02	2.8931	-3.200490	0.000405	4.053071	0.686609	-0.000041
1721	1.7114e+02	2.8805	-3.234707	0.000344	3.438969	0.582577	-0.000034
1722	1.7124e+02	2.8736	-3.274627	0.000401	4.012131	0.679673	-0.000040
1723	1.7134e+02	2.8586	-3.310473	0.000360	3.602730	0.610319	-0.000036
1724	1.7144e+02	2.8542	-3.348763	0.000385	3.848371	0.651932	-0.000038
1725	1.7154e+02	2.8391	-3.387053	0.000385	3.848371	0.651932	-0.000038
1726	1.7164e+02	2.8326	-3.426566	0.000397	3.971191	0.672738	-0.000040
1727	1.7174e+02	2.8201	-3.456302	0.000299	2.988628	0.506287	-0.000030
1728	1.7184e+02	2.8112	-3.499480	0.000434	4.339652	0.735157	-0.000043
1729	1.7194e+02	2.8005	-3.533289	0.000340	3.398029	0.575642	-0.000034
1730	1.7204e+02	2.7909	-3.570765	0.000377	3.766490	0.638061	-0.000038
1731	1.7213e+02	2.7824	-3.609055	0.000385	3.848371	0.651932	-0.000038
1732	1.7223e+02	2.7743	-3.645716	0.000368	3.684610	0.624190	-0.000037
1733	1.7233e+02	2.7599	-3.685635	0.000401	4.012131	0.679673	-0.000040
1734	1.7243e+02	2.7524	-3.721074	0.000356	3.561790	0.603384	-0.000036
1735	1.7253e+02	2.7402	-3.761401	0.000405	4.053071	0.686609	-0.000041
1736	1.7263e+02	2.7328	-3.797247	0.000360	3.602730	0.610319	-0.000036
1737	1.7273e+02	2.7218	-3.831464	0.000344	3.438969	0.582577	-0.000034
1738	1.7283e+02	2.7118	-3.873013	0.000418	4.175892	0.707415	-0.000042
1739	1.7293e+02	2.7032	-3.908044	0.000352	3.520850	0.596448	-0.000035
1740	1.7303e+02	2.6871	-3.946742	0.000389	3.889311	0.658867	-0.000039
1741	1.7313e+02	2.6833	-3.980551	0.000340	3.398029	0.575642	-0.000034
1742	1.7323e+02	2.6756	-4.023730	0.000434	4.339652	0.735157	-0.000043
1743	1.7333e+02	2.6622	-4.057946	0.000344	3.438969	0.582577	-0.000034
1744	1.7343e+02	2.6540	-4.093793	0.000360	3.602730	0.610319	-0.000036
1745	1.7353e+02	2.6424	-4.134934	0.000413	4.134951	0.700480	-0.000041
1746	1.7363e+02	2.6324	-4.167114	0.000323	3.234269	0.547900	-0.000032
1747	1.7373e+02	2.6196	-4.204590	0.000377	3.766490	0.638061	-0.000038
1748	1.7383e+02	2.6116	-4.242473	0.000381	3.807430	0.644996	-0.000038
1749	1.7393e+02	2.6023	-4.279948	0.000377	3.766490	0.638061	-0.000038
1750	1.7403e+02	2.5945	-4.317831	0.000381	3.807430	0.644996	-0.000038
1751	1.7413e+02	2.5858	-4.357751	0.000401	4.012131	0.679673	-0.000040
1752	1.7422e+02	2.5707	-4.395633	0.000381	3.807430	0.644996	-0.000038
1753	1.7432e+02	2.5624	-4.431072	0.000356	3.561790	0.603384	-0.000036
1754	1.7442e+02	2.5546	-4.468140	0.000373	3.725550	0.631125	-0.000037
1755	1.7452e+02	2.5457	-4.508875	0.000409	4.094011	0.693544	-0.000041
1756	1.7462e+02	2.5344	-4.546350	0.000377	3.766490	0.638061	-0.000038
1757	1.7472e+02	2.5239	-4.578938	0.000328	3.275209	0.554835	-0.000033
1758	1.7482e+02	2.5148	-4.615598	0.000368	3.684610	0.624190	-0.000037
1759	1.7492e+02	2.5047	-4.649815	0.000344	3.438969	0.582577	-0.000034
1760	1.7502e+02	2.4920	-4.681588	0.000319	3.193329	0.540965	-0.000032
1761	1.7512e+02	2.4846	-4.720693	0.000393	3.930251	0.665803	-0.000039
1762	1.7522e+02	2.4725	-4.755724	0.000352	3.520850	0.596448	-0.000035
1763	1.7532e+02	2.4651	-4.791570	0.000360	3.602730	0.610319	-0.000036
1764	1.7542e+02	2.4520	-4.827009	0.000356	3.561790	0.603384	-0.000036
1765	1.7552e+02	2.4450	-4.864077	0.000373	3.725550	0.631125	-0.000037
1766	1.7562e+02	2.4326	-4.902368	0.000385	3.848371	0.651932	-0.000038
1767	1.7572e+02	2.4262	-4.941065	0.000389	3.889311	0.658867	-0.000039
1768	1.7582e+02	2.4136	-4.975689	0.000348	3.479910	0.589513	-0.000035
1769	1.7592e+02	2.4062	-5.012350	0.000368	3.684610	0.624190	-0.000037
1770	1.7602e+02	2.3940	-5.050640	0.000385	3.848371	0.651932	-0.000038
1771	1.7612e+02	2.3837	-5.083635	0.000332	3.316149	0.561771	-0.000033
1772	1.7621e+02	2.3751	-5.119481	0.000360	3.602730	0.610319	-0.000036
1773	1.7631e+02	2.3640	-5.156957	0.000377	3.766490	0.638061	-0.000038
1774	1.7641e+02	2.3537	-5.190766	0.000340	3.398029	0.575642	-0.000034
1775	1.7651e+02	2.3425	-5.229056	0.000385	3.848371	0.651932	-0.000038
1776	1.7661e+02	2.3339	-5.262866	0.000340	3.398029	0.575642	-0.000034
1777	1.7671e+02	2.3228	-5.299527	0.000368	3.684610	0.624190	-0.000037
1778	1.7681e+02	2.3138	-5.339854	0.000405	4.053071	0.686609	-0.000041
1779	1.7691e+02	2.3055	-5.369997	0.000303	3.029568	0.513223	-0.000030
1780	1.7701e+02	2.2932	-5.410731	0.000409	4.094011	0.693544	-0.000041
1781	1.7711e+02	2.2846	-5.444948	0.000344	3.438969	0.582577	-0.000034
1782	1.7721e+02	2.2748	-5.481609	0.000368	3.684610	0.624190	-0.000037
1783	1.7731e+02	2.2636	-5.523158	0.000418	4.175892	0.707415	-0.000042
1784	1.7741e+02	2.2540	-5.559411	0.000364	3.643670	0.617254	-0.000036
1785	1.7751e+02	2.2460	-5.596887	0.000377	3.766490	0.638061	-0.000038
1786	1.7761e+02	2.2314	-5.633547	0.000368	3.684610	0.624190	-0.000037
1787	1.7771e+02	2.2231	-5.669394	0.000360	3.602730	0.610319	-0.000036
1788	1.7781e+02	2.2129	-5.709721	0.000405	4.053071	0.686609	-0.000041
1789	1.7791e+02	2.2083	-5.748011	0.000385	3.848371	0.651932	-0.000038
1790	1.7801e+02	2.1947	-5.781820	0.000340	3.398029	0.575642	-0.000034
1791	1.7810e+02	2.1829	-5.823776	0.000422	4.216832	0.714351	-0.000042
1792	1.7820e+02	2.1766	-5.857993	0.000344	3.438969	0.582577	-0.000034
1793	1.7830e+02	2.1628	-5.898320	0.000405	4.053071	0.686609	-0.000041
1794	1.7840e+02	2.1563	-5.937832	0.000397	3.971191	0.672738	-0.000040
1795	1.7850e+02	2.1462	-5.978159	0.000405	4.053071	0.686609	-0.000041
1796	1.7860e+02	2.1374	-6.020930	0.000430	4.298712	0.728222	-0.000043
1797	1.7870e+02	2.1252	-6.058406	0.000377	3.766490	0.638061	-0.000038
1798	1.7880e+02	2.1189	-6.098733	0.000405	4.053071	0.686609	-0.000041
1799	1.7890e+02	2.1072	-6.136616	0.000381	3.807430	0.644996	-0.000038
1800	1.7900e+02	2.0965	-6.176535	0.000401	4.012131	0.679673	-0.000040
1801	1.7910e+02	2.0866	-6.221343	0.000450	4.503412	0.762899	-0.000045
1802	1.7920e+02	2.0750	-6.260855	0.000397	3.971191	0.672738	-0.000040
1803	1.7930e+02	2.0642	-6.302811	0.000422	4.216832	0.714351	-0.000042
1804	1.7940e+02	2.0558	-6.340694	0.000381	3.807430	0.644996	-0.000038
1805	1.7950e+02	2.0441	-6.380614	0.000401	4.012131	0.679673	-0.000040
1806	1.7960e+02	2.0429	-6.423792	0.000434	4.339652	0.735157	-0.000043
1807	1.7970e+02	2.0263	-6.465341	0.000418	4.175892	0.707415	-0.000042
1808	1.7980e+02	2.0156	-6.504039	0.000389	3.889311	0.658867	-0.000039
1809	1.7990e+02	2.0053	-6.548439	0.000446	4.462472	0.755963	-0.000045
1810	1.8000e+02	1.9955	-6.587951	0.000397	3.971191	0.672738	-0.000040
1811	1.8009e+02	1.9852	-6.628278	0.000405	4.053071	0.686609	-0.000041
1812	1.8019e+02	1.9788	-6.669827	0.000418	4.175892	0.707415	-0.000042
1813	1.8029e+02	1.9640	-6.714635	0.000450	4.503412	0.762899	-0.000045
1814	1.8039e+02	1.9572	-6.757813	0.000434	4.339652	0.735157	-0.000043
1815	1.8049e+02	1.9468	-6.794066	0.000364	3.643670	0.617254	-0.000036
1816	1.8059e+02	1.9361	-6.836837	0.000430	4.298712	0.728222	-0.000043
1817	1.8069e+02	1.9250	-6.879608	0.000430	4.298712	0.728222	-0.000043
1818	1.8079e+02	1.9170	-6.921972	0.000426	4.257772	0.721286	-0.000043
1819	1.8089e+02	1.9054	-6.964743	0.000430	4.298712	0.728222	-0.000043
1820	1.8099e+02	1.8963	-7.005070	0.000405	4.053071	0.686609	-0.000041
1821	1.8109e+02	1.8851	-7.047841	0.000430	4.298712	0.728222	-0.000043
1822	1.8119e+02	1.8774	-7.088575	0.000409	4.094011	0.693544	-0.000041
1823	1.8129e+02	1.8680	-7.130531	0.000422	4.216832	0.714351	-0.000042
1824	1.8139e+02	1.8542	-7.172488	0.000422	4.216832	0.714351	-0.000042
1825	1.8149e+02	1.8462	-7.217295	0.000450	4.503412	0.762899	-0.000045
1826	1.8159e+02	1.8357	-7.260881	0.000438	4.380592	0.742092	-0.000044
1827	1.8169e+02	1.8272	-7.302837	0.000422	4.216832	0.714351	-0.000042
1828	1.8179e+02	1.8150	-7.349682	0.000471	4.708113	0.797576	-0.000047
1829	1.8189e+02	1.8068	-7.389194	0.000397	3.971191	0.672738	-0.000040
1830	1.8199e+02	1.7945	-7.434002	0.000450	4.503412	0.762899	-0.000045
1831	1.8209e+02	1.7858	-7.480439	0.000467	4.667173	0.790640	-0.000047
1832	1.8218e+02	1.7773	-7.521173	0.000409	4.094011	0.693544	-0.000041
1833	1.8228e+02	1.7681	-7.563536	0.000426	4.257772	0.721286	-0.000043
1834	1.8238e+02	1.7570	-7.607529	0.000442	4.421532	0.749028	-0.000044
1835	1.8248e+02	1.7465	-7.650300	0.000430	4.298712	0.728222	-0.000043
1836	1.8258e+02	1.7361	-7.687369	0.000373	3.725550	0.631125	-0.000037
1837	1.8268e+02	1.7262	-7.736657	0.000495	4.953754	0.839189	-0.000050
1838	1.8278e+02	1.7162	-7.775762	0.000393	3.930251	0.665803	-0.000039
1839	1.8288e+02	1.7076	-7.820162	0.000446	4.462472	0.755963	-0.000045
1840	1.8298e+02	1.6953	-7.866192	0.000463	4.626233	0.783705	-0.000046
1841	1.8308e+02	1.6868	-7.907334	0.000413	4.134951	0.700480	-0.000041
1842	1.8318e+02	1.6797	-7.954178	0.000471	4.708113	0.797576	-0.000047
1843	1.8328e+02	1.6673	-7.998171	0.000442	4.421532	0.749028	-0.000044
1844	1.8338e+02	1.6576	-8.048274	0.000504	5.035634	0.853059	-0.000050
1845	1.8348e+02	1.6460	-8.092267	0.000442	4.421532	0.749028	-0.000044
1846	1.8358e+02	1.6399	-8.134223	0.000422	4.216832	0.714351	-0.000042
1847	1.8368e+02	1.6277	-8.181475	0.000475	4.749053	0.804511	-0.000047
1848	1.8378e+02	1.6204	-8.227098	0.000459	4.585293	0.776770	-0.000046
1849	1.8388e+02	1.6060	-8.272720	0.000459	4.585293	0.776770	-0.000046
1850	1.8398e+02	1.5980	-8.316713	0.000442	4.421532	0.749028	-0.000044
1851	1.8407e+02	1.5897	-8.357040	0.000405	4.053071	0.686609	-0.000041
1852	1.8417e+02	1.5770	-8.406736	0.000499	4.994694	0.846124	-0.000050
1853	1.8427e+02	1.5675	-8.447877	0.000413	4.134951	0.700480	-0.000041
1854	1.8437e+02	1.5607	-8.494722	0.000471	4.708113	0.797576	-0.000047
1855	1.8447e+02	1.5476	-8.541973	0.000475	4.749053	0.804511	-0.000047
1856	1.8457e+02	1.5366	-8.589632	0.000479	4.789993	0.811447	-0.000048
1857	1.8467e+02	1.5253	-8.636069	0.000467	4.667173	0.790640	-0.000047
1858	1.8477e+02	1.5170	-8.678840	0.000430	4.298712	0.728222	-0.000043
1859	1.8487e+02	1.5095	-8.722019	0.000434	4.339652	0.735157	-0.000043
1860	1.8497e+02	1.4972	-8.773344	0.000516	5.158454	0.873866	-0.000052
1861	1.8507e+02	1.4870	-8.817744	0.000446	4.462472	0.755963	-0.000045
1862	1.8517e+02	1.4776	-8.862959	0.000454	4.544353	0.769834	-0.000045
1863	1.8527e+02	1.4692	-8.912248	0.000495	4.953754	0.839189	-0.000050
1864	1.8537e+02	1.4576	-8.952982	0.000409	4.094011	0.693544	-0.000041
1865	1.8547e+02	1.4465	-9.002270	0.000495	4.953754	0.839189	-0.000050
1866	1.8557e+02	1.4391	-9.044227	0.000422	4.216832	0.714351	-0.000042
1867	1.8567e+02	1.4293	-9.089442	0.000454	4.544353	0.769834	-0.000045
1868	1.8577e+02	1.4182	-9.133027	0.000438	4.380592	0.742092	-0.000044
1869	1.8587e+02	1.4127	-9.178242	0.000454	4.544353	0.769834	-0.000045
1870	1.8597e+02	1.3993	-9.222235	0.000442	4.421532	0.749028	-0.000044
1871	1.8606e+02	1.3895	-9.271931	0.000499	4.994694	0.846124	-0.000050
1872	1.8616e+02	1.3805	-9.319590	0.000479	4.789993	0.811447	-0.000048
1873	1.8626e+02	1.3674	-9.364398	0.000450	4.503412	0.762899	-0.000045
1874	1.8636e+02	1.3604	-9.408798	0.000446	4.462472	0.755963	-0.000045
1875	1.8646e+02	1.3515	-9.452384	0.000438	4.380592	0.742092	-0.000044
1876	1.8656e+02	1.3383	-9.496377	0.000442	4.421532	0.749028	-0.000044
1877	1.8666e+02	1.3303	-9.542814	0.000467	4.667173	0.790640	-0.000047
1878	1.8676e+02	1.3190	-9.586807	0.000442	4.421532	0.749028	-0.000044
1879	1.8686e+02	1.3082	-9.632429	0.000459	4.585293	0.776770	-0.000046
1880	1.8696e+02	1.3001	-9.676422	0.000442	4.421532	0.749028	-0.000044
1881	1.8706e+02	1.2891	-9.720008	0.000438	4.380592	0.742092	-0.000044
1882	1.8716e+02	1.2811	-9.762779	0.000430	4.298712	0.728222	-0.000043
1883	1.8726e+02	1.2704	-9.806365	0.000438	4.380592	0.742092	-0.000044
1884	1.8736e+02	1.2583	-9.851172	0.000450	4.503412	0.762899	-0.000045
1885	1.8746e+02	1.2515	-9.889870	0.000389	3.889311	0.658867	-0.000039
1886	1.8756e+02	1.2411	-9.933863	0.000442	4.421532	0.749028	-0.000044
1887	1.8766e+02	1.2298	-9.975004	0.000413	4.134951	0.700480	-0.000041
1888	1.8776e+02	1.2222	-10.019812	0.000450	4.503412	0.762899	-0.000045
1889	1.8786e+02	1.2103	-10.061361	0.000418	4.175892	0.707415	-0.000042
1890	1.8796e+02	1.2008	-10.106169	0.000450	4.503412	0.762899	-0.000045
1891	1.8806e+02	1.1899	-10.146903	0.000409	4.094011	0.693544	-0.000041
1892	1.8815e+02	1.1799	-10.192118	0.000454	4.544353	0.769834	-0.000045
1893	1.8825e+02	1.1708	-10.239777	0.000479	4.789993	0.811447	-0.000048
1894	1.8835e+02	1.1650	-10.280511	0.000409	4.094011	0.693544	-0.000041
1895	1.8845e+02	1.1496	-10.319209	0.000389	3.889311	0.658867	-0.000039
1896	1.8855e+02	1.1374	-10.364424	0.000454	4.544353	0.769834	-0.000045
1897	1.8865e+02	1.1298	-10.405158	0.000409	4.094011	0.693544	-0.000041
1898	1.8875e+02	1.1182	-10.447929	0.000430	4.298712	0.728222	-0.000043
1899	1.8885e+02	1.1121	-10.488663	0.000409	4.094011	0.693544	-0.000041
1900	1.8895e+02	1.1011	-10.534286	0.000459	4.585293	0.776770	-0.000046
1901	1.8905e+02	1.0885	-10.577057	0.000430	4.298712	0.728222	-0.000043
1902	1.8915e+02	1.0797	-10.620642	0.000438	4.380592	0.742092	-0.000044
1903	1.8925e+02	1.0699	-10.665857	0.000454	4.544353	0.769834	-0.000045
1904	1.8935e+02	1.0598	-10.707814	0.000422	4.216832	0.714351	-0.000042
1905	1.8945e+02	1.0507	-10.750585	0.000430	4.298712	0.728222	-0.000043
1906	1.8955e+02	1.0440	-10.792541	0.000422	4.216832	0.714351	-0.000042
1907	1.8965e+02	1.0304	-10.836534	0.000442	4.421532	0.749028	-0.000044
1908	1.8975e+02	1.0218	-10.878083	0.000418	4.175892	0.707415	-0.000042
1909	1.8985e+02	1.0122	-10.922891	0.000450	4.503412	0.762899	-0.000045
1910	1.8995e+02	1.0027	-10.965661	0.000430	4.298712	0.728222	-0.000043
1911	1.9004e+02	0.9917	-11.008025	0.000426	4.257772	0.721286	-0.000043
1912	1.9014e+02	0.9782	-11.049574	0.000418	4.175892	0.707415	-0.000042
1913	1.9024e+02	0.9685	-11.094382	0.000450	4.503412	0.762899	-0.000045
1914	1.9034e+02	0.9631	-11.134301	0.000401	4.012131	0.679673	-0.000040
1915	1.9044e+02	0.9502	-11.176258	0.000422	4.216832	0.714351	-0.000042
1916	1.9054e+02	0.9412	-11.220658	0.000446	4.462472	0.755963	-0.000045
1917	1.9064e+02	0.9329	-11.263022	0.000426	4.257772	0.721286	-0.000043
1918	1.9074e+02	0.9211	-11.306607	0.000438	4.380592	0.742092	-0.000044
1919	1.9084e+02	0.9095	-11.349378	0.000430	4.298712	0.728222	-0.000043
1920	1.9094e+02	0.9023	-11.392556	0.000434	4.339652	0.735157	-0.000043
1921	1.9104e+02	0.8920	-11.436142	0.000438	4.380592	0.742092	-0.000044
1922	1.9114e+02	0.8807	-11.478913	0.000430	4.298712	0.728222	-0.000043
1923	1.9124e+02	0.8727	-11.524128	0.000454	4.544353	0.769834	-0.000045
1924	1.9134e+02	0.8628	-11.566492	0.000426	4.257772	0.721286	-0.000043
1925	1.9144e+02	0.8501	-11.604782	0.000385	3.848371	0.651932	-0.000038
1926	1.9154e+02	0.8392	-11.650812	0.000463	4.626233	0.783705	-0.000046
1927	1.9164e+02	0.8318	-11.691953	0.000413	4.134951	0.700480	-0.000041
1928	1.9174e+02	0.8239	-11.731873	0.000401	4.012131	0.679673	-0.000040
1929	1.9184e+02	0.8086	-11.771385	0.000397	3.971191	0.672738	-0.000040
1930	1.9194e+02	0.8009	-11.810897	0.000397	3.971191	0.672738	-0.000040
1931	1.9203e+02	0.7915	-11.855705	0.000450	4.503412	0.762899	-0.000045
1932	1.9213e+02	0.7815	-11.894810	0.000393	3.930251	0.665803	-0.000039
1933	1.9223e+02	0.7755	-11.939618	0.000450	4.503412	0.762899	-0.000045
1934	1.9233e+02	0.7612	-11.981166	0.000418	4.175892	0.707415	-0.000042
1935	1.9243e+02	0.7533	-12.028418	0.000475	4.749053	0.804511	-0.000047
1936	1.9253e+02	0.7433	-12.069152	0.000409	4.094011	0.693544	-0.000041
1937	1.9263e+02	0.7321	-12.110701	0.000418	4.175892	0.707415	-0.000042
1938	1.9273e+02	0.7230	-12.150621	0.000401	4.012131	0.679673	-0.000040
1939	1.9283e+02	0.7148	-12.191355	0.000409	4.094011	0.693544	-0.000041
1940	1.9293e+02	0.7030	-12.232497	0.000413	4.134951	0.700480	-0.000041
1941	1.9303e+02	0.6916	-12.274860	0.000426	4.257772	0.721286	-0.000043
1942	1.9313e+02	0.6827	-12.318039	0.000434	4.339652	0.735157	-0.000043
1943	1.9323e+02	0.6709	-12.356329	0.000385	3.848371	0.651932	-0.000038
1944	1.9333e+02	0.6607	-12.396249	0.000401	4.012131	0.679673	-0.000040
1945	1.9343e+02	0.6522	-12.436983	0.000409	4.094011	0.693544	-0.000041
1946	1.9353e+02	0.6435	-12.485049	0.000483	4.830933	0.818382	-0.000048
1947	1.9363e+02	0.6346	-12.522932	0.000381	3.807430	0.644996	-0.000038
1948	1.9373e+02	0.6240	-12.571406	0.000487	4.871873	0.825318	-0.000049
1949	1.9383e+02	0.6111	-12.610918	0.000397	3.971191	0.672738	-0.000040
1950	1.9393e+02	0.6013	-12.654911	0.000442	4.421532	0.749028	-0.000044
1951	1.9403e+02	0.5930	-12.695645	0.000409	4.094011	0.693544	-0.000041
1952	1.9412e+02	0.5821	-12.741675	0.000463	4.626233	0.783705	-0.000046
1953	1.9422e+02	0.5775	-12.783631	0.000422	4.216832	0.714351	-0.000042
1954	1.9432e+02	0.5629	-12.828846	0.000454	4.544353	0.769834	-0.000045
1955	1.9442e+02	0.5518	-12.868766	0.000401	4.012131	0.679673	-0.000040
1956	1.9452e+02	0.5441	-12.911130	0.000426	4.257772	0.721286	-0.000043
1957	1.9462e+02	0.5313	-12.955123	0.000442	4.421532	0.749028	-0.000044
1958	1.9472e+02	0.5238	-13.000745	0.000459	4.585293	0.776770	-0.000046
1959	1.9482e+02	0.5119	-13.041072	0.000405	4.053071	0.686609	-0.000041
1960	1.9492e+02	0.5045	-13.087101	0.000463	4.626233	0.783705	-0.000046
1961	1.9502e+02	0.4926	-13.131909	0.000450	4.503412	0.762899	-0.000045
1962	1.9512e+02	0.4833	-13.178346	0.000467	4.667173	0.790640	-0.000047
1963	1.9522e+02	0.4729	-13.223154	0.000450	4.503412	0.762899	-0.000045
1964	1.9532e+02	0.4644	-13.265518	0.000426	4.257772	0.721286	-0.000043
1965	1.9542e+02	0.4538	-13.313991	0.000487	4.871873	0.825318	-0.000049
1966	1.9552e+02	0.4453	-13.359614	0.000459	4.585293	0.776770	-0.000046
1967	1.9562e+02	0.4333	-13.407273	0.000479	4.789993	0.811447	-0.000048
1968	1.9572e+02	0.4226	-13.454524	0.000475	4.749053	0.804511	-0.000047
1969	1.9582e+02	0.4138	-13.499332	0.000450	4.503412	0.762899	-0.000045
1970	1.9592e+02	0.4045	-13.545362	0.000463	4.626233	0.783705	-0.000046
1971	1.9601e+02	0.3934	-13.588133	0.000430	4.298712	0.728222	-0.000043
1972	1.9611e+02	0.3858	-13.637421	0.000495	4.953754	0.839189	-0.000050
1973	1.9621e+02	0.3730	-13.684266	0.000471	4.708113	0.797576	-0.000047
1974	1.9631e+02	0.3658	-13.727444	0.000434	4.339652	0.735157	-0.000043
1975	1.9641e+02	0.3548	-13.777140	0.000499	4.994694	0.846124	-0.000050
1976	1.9651e+02	0.3455	-13.817874	0.000409	4.094011	0.693544	-0.000041
1977	1.9661e+02	0.3347	-13.869199	0.000516	5.158454	0.873866	-0.000052
1978	1.9671e+02	0.3251	-13.915229	0.000463	4.626233	0.783705	-0.000046
1979	1.9681e+02	0.3136	-13.963703	0.000487	4.871873	0.825318	-0.000049
1980	1.9691e+02	0.3056	-14.012584	0.000491	4.912814	0.832253	-0.000049
1981	1.9701e+02	0.2953	-14.057799	0.000454	4.544353	0.769834	-0.000045
1982	1.9711e+02	0.2833	-14.106680	0.000491	4.912814	0.832253	-0.000049
1983	1.9721e+02	0.2773	-14.156376	0.000499	4.994694	0.846124	-0.000050
1984	1.9731e+02	0.2673	-14.201998	0.000459	4.585293	0.776770	-0.000046
1985	1.9741e+02	0.2566	-14.247620	0.000459	4.585293	0.776770	-0.000046
1986	1.9751e+02	0.2445	-14.297316	0.000499	4.994694	0.846124	-0.000050
1987	1.9761e+02	0.2344	-14.342531	0.000454	4.544353	0.769834	-0.000045
1988	1.9771e+02	0.2216	-14.389376	0.000471	4.708113	0.797576	-0.000047
1989	1.9781e+02	0.2126	-14.436220	0.000471	4.708113	0.797576	-0.000047
1990	1.9791e+02	0.2051	-14.489175	0.000532	5.322215	0.901608	-0.000053
1991	1.9800e+02	0.1960	-14.533982	0.000450	4.503412	0.762899	-0.000045
1992	1.9810e+02	0.1852	-14.584900	0.000512	5.117514	0.866930	-0.000051
1993	1.9820e+02	0.1734	-14.630522	0.000459	4.585293	0.776770	-0.000046
1994	1.9830e+02	0.1674	-14.678182	0.000479	4.789993	0.811447	-0.000048
1995	1.9840e+02	0.1545	-14.724619	0.000467	4.667173	0.790640	-0.000047
1996	1.9850e+02	0.1440	-14.774722	0.000504	5.035634	0.853059	-0.000050
1997	1.9860e+02	0.1344	-14.824825	0.000504	5.035634	0.853059	-0.000050
1998	1.9870e+02	0.1244	-14.876965	0.000524	5.240334	0.887737	-0.000052
1999	1.9880e+02	0.1138	-14.921365	0.000446	4.462472	0.755963	-0.000045
2000	1.9890e+02	0.1071	-14.974320	0.000532	5.322215	0.901608	-0.000053
2001	1.9900e+02	0.0943	-15.017498	0.000434	4.339652	0.735157	-0.000043
2002	1.9910e+02	0.0854	-15.066379	0.000491	4.912814	0.832253	-0.000049
2003	1.9920e+02	0.0758	-15.113631	0.000475	4.749053	0.804511	-0.000047
2004	1.9930e+02	0.0648	-15.163734	0.000504	5.035634	0.853059	-0.000050
2005	1.9940e+02	0.0549	-15.212208	0.000487	4.871873	0.825318	-0.000049
2006	1.9950e+02	0.0448	-15.257423	0.000454	4.544353	0.769834	-0.000045
2007	1.9960e+02	0.0366	-15.309562	0.000524	5.240334	0.887737	-0.000052
2008	1.9970e+02	0.0250	-15.358036	0.000487	4.871873	0.825318	-0.000049
2009	1.9980e+02	0.0161	-15.407325	0.000495	4.953754	0.839189	-0.000050
2010	1.9990e+02	0.0021	-15.459057	0.000520	5.199394	0.880801	-0.000052
2011	2.0000e+02	-0.0036	-15.509568	0.000520	5.199394	0.880801	-0.000051

PMax (uC/cm2):	3.46e+01
Pr (uC/cm2):	1.76e+00
-Pr (uC/cm2):	0.00e+00
PLoss (uC/cm2):	0.00e+00
C (Max-Eff) (nF):	3.46e-01
K (Eff):	5.86e+02
Vert. (+/-Pr) Shift (uC/cm2):	8.81e-01
Offset (uC/cm2):	1.73e+01

A (Loop Area - uC/cm2·Volts):	-1.79e-02



Hysteresis Version: 5.48.1 - Radiant Technologies, Inc., 1999 - 9/12/24

