»»»»»»»»»»»»»»»»»»»»»»»»»»»»»»»»»»»» Hysteresis ««««««««««««««««««««««««««««««««««««
»»»  Executed Version:	5.48.1
»»»  Vision Version:	5.48.4 (R)
»»»  Vision Compiled:	9/18/24
»»»  Driver Version:	5.47.0
»»»  Windows Version:	Windows 8 or 8.1
»»»  Processor Information:	x86 (AMD or Intel) - 32 Processors
»»»  Tester Name:	PMF21124-494 (100V)
»»»  Tester S/N:	PMF21124-494
»»»  Internal Amp Type:	100V RevK 270k
»»»  Internal Amp S/N:	iAB2-596/K     
»»»  Execution Count:	1
»»»»»»»»»»»»»»»»»»»»»»»»»»»»»»»»»»»»»»»»»»««««««««««««««««««««««««««««««««««««««««««

Stored:	6/30/2025 - 11:57:36
Configured:	06/30/25 10:19:58 AM
Executed:	06/30/25 11:57:06 AM

»»»»»»»»»»»»»»»»»»»»»»»»»»»»»»»»»»» Sample Info ««««««««««««««««««««««««««««««««««««
Sample Name:	
Lot Name:	
Wafer Name:	
Die Row/Column:	0/0
Capacitor Number:	0
Sample Area (cm2):	1.00e-04
Sample Thickness (microns):	1.50e-01

Amplifier:	Internal

»»»»»»»»»»»»»»»»»»»»»»»»»»»»»»»»»»» Tester Info «««««««««««««««««««««««««««««««««««
Tester Name:	PMF21124-494 (100V)
Tester Serial Number:	PMF21124-494
Return Signal Amp. Level:	1.9 [Index: 2]

»»»»»»»»»»»»»»»»»»»»»»»»»»»»»»»» Hysteresis Info ««««««««««««««««««««««««««««««««««
Task Name:	Hyst-1804
Volts:	10.00
Field:	666.67 (kV/cm)
DCBias:	0.00
DCField:	0.00 (kV/cm)
Hysteresis Period (ms):	2.00e+02
Preset:	Enabled
Preset Delay (ms):	1.00e+03
Profile:	Standard Monopolar

»»»»»»»»»»»»»»»»»»»»»»»»»»»»»»»»»»»»»» Data «««««««««««««««««««««««««««««««««««««««
Points:	2011

Valid Data

Point	Time (ms)	Drive Voltage	Measured Polarization (uC/cm2)	Capacitance (uF)	Normalized Capacitance (uF/cm2)	Dielectric Constant	Instantaneous Current (mA)
   1	0.0000e+00	-0.0053	-17.687832	0.000413	4.133107	0.700167	0.000041
   2	9.9500e-02	0.0072	-17.646690	0.000413	4.133107	0.700167	0.000041
   3	1.9900e-01	0.0175	-17.599439	0.000475	4.746934	0.804152	0.000047
   4	2.9850e-01	0.0252	-17.557890	0.000417	4.174028	0.707100	0.000042
   5	3.9800e-01	0.0352	-17.513897	0.000442	4.419560	0.748694	0.000044
   6	4.9750e-01	0.0452	-17.469904	0.000442	4.419560	0.748694	0.000044
   7	5.9700e-01	0.0574	-17.425096	0.000450	4.501403	0.762558	0.000045
   8	6.9650e-01	0.0642	-17.376622	0.000487	4.869700	0.824949	0.000049
   9	7.9600e-01	0.0753	-17.335073	0.000417	4.174028	0.707100	0.000042
  10	8.9550e-01	0.0871	-17.284970	0.000503	5.033387	0.852679	0.000050
  11	9.9500e-01	0.0964	-17.233238	0.000520	5.197075	0.880408	0.000052
  12	1.0945e+00	0.1039	-17.186801	0.000467	4.665091	0.790288	0.000047
  13	1.1940e+00	0.1129	-17.146881	0.000401	4.010341	0.679370	0.000040
  14	1.2935e+00	0.1254	-17.097593	0.000495	4.951544	0.838814	0.000050
  15	1.3930e+00	0.1354	-17.050341	0.000475	4.746934	0.804152	0.000047
  16	1.4925e+00	0.1464	-17.005941	0.000446	4.460481	0.755626	0.000045
  17	1.5920e+00	0.1546	-16.962762	0.000434	4.337716	0.734829	0.000043
  18	1.6915e+00	0.1662	-16.915103	0.000479	4.787856	0.811085	0.000048
  19	1.7910e+00	0.1741	-16.875998	0.000393	3.928497	0.665505	0.000039
  20	1.8905e+00	0.1853	-16.831598	0.000446	4.460481	0.755626	0.000045
  21	1.9900e+00	0.1956	-16.781495	0.000503	5.033387	0.852679	0.000050
  22	2.0895e+00	0.2031	-16.738724	0.000430	4.296794	0.727897	0.000043
  23	2.1890e+00	0.2142	-16.693509	0.000454	4.542325	0.769491	0.000045
  24	2.2885e+00	0.2248	-16.644220	0.000495	4.951544	0.838814	0.000050
  25	2.3880e+00	0.2339	-16.598598	0.000458	4.583247	0.776423	0.000046
  26	2.4875e+00	0.2422	-16.550124	0.000487	4.869700	0.824949	0.000049
  27	2.5870e+00	0.2567	-16.506946	0.000434	4.337716	0.734829	0.000043
  28	2.6865e+00	0.2647	-16.460916	0.000462	4.624169	0.783355	0.000046
  29	2.7860e+00	0.2760	-16.424255	0.000368	3.682966	0.623911	0.000037
  30	2.8855e+00	0.2854	-16.374967	0.000495	4.951544	0.838814	0.000050
  31	2.9850e+00	0.2938	-16.335047	0.000401	4.010341	0.679370	0.000040
  32	3.0845e+00	0.3045	-16.289425	0.000458	4.583247	0.776423	0.000046
  33	3.1840e+00	0.3145	-16.248283	0.000413	4.133107	0.700167	0.000041
  34	3.2835e+00	0.3249	-16.201032	0.000475	4.746934	0.804152	0.000047
  35	3.3830e+00	0.3349	-16.157853	0.000434	4.337716	0.734829	0.000043
  36	3.4825e+00	0.3458	-16.113046	0.000450	4.501403	0.762558	0.000045
  37	3.5820e+00	0.3545	-16.071089	0.000421	4.214950	0.714032	0.000042
  38	3.6815e+00	0.3636	-16.025874	0.000454	4.542325	0.769491	0.000045
  39	3.7810e+00	0.3734	-15.980252	0.000458	4.583247	0.776423	0.000046
  40	3.8805e+00	0.3823	-15.932186	0.000483	4.828778	0.818017	0.000048
  41	3.9800e+00	0.3944	-15.890229	0.000421	4.214950	0.714032	0.000042
  42	4.0795e+00	0.4037	-15.845014	0.000454	4.542325	0.769491	0.000045
  43	4.1790e+00	0.4152	-15.798577	0.000467	4.665091	0.790288	0.000047
  44	4.2785e+00	0.4222	-15.760287	0.000385	3.846654	0.651641	0.000038
  45	4.3780e+00	0.4343	-15.711813	0.000487	4.869700	0.824949	0.000049
  46	4.4775e+00	0.4436	-15.664154	0.000479	4.787856	0.811085	0.000048
  47	4.5770e+00	0.4548	-15.618939	0.000454	4.542325	0.769491	0.000045
  48	4.6765e+00	0.4659	-15.574131	0.000450	4.501403	0.762558	0.000045
  49	4.7760e+00	0.4738	-15.530546	0.000438	4.378638	0.741761	0.000044
  50	4.8755e+00	0.4812	-15.484109	0.000467	4.665091	0.790288	0.000047
  51	4.9750e+00	0.4918	-15.440523	0.000438	4.378638	0.741761	0.000044
  52	5.0745e+00	0.5034	-15.396530	0.000442	4.419560	0.748694	0.000044
  53	5.1740e+00	0.5116	-15.350500	0.000462	4.624169	0.783355	0.000046
  54	5.2735e+00	0.5223	-15.305285	0.000454	4.542325	0.769491	0.000045
  55	5.3730e+00	0.5350	-15.259256	0.000462	4.624169	0.783355	0.000046
  56	5.4725e+00	0.5438	-15.214448	0.000450	4.501403	0.762558	0.000045
  57	5.5720e+00	0.5526	-15.171677	0.000430	4.296794	0.727897	0.000043
  58	5.6715e+00	0.5627	-15.121981	0.000499	4.992465	0.845747	0.000050
  59	5.7710e+00	0.5732	-15.080840	0.000413	4.133107	0.700167	0.000041
  60	5.8705e+00	0.5834	-15.036032	0.000450	4.501403	0.762558	0.000045
  61	5.9700e+00	0.5956	-14.990002	0.000462	4.624169	0.783355	0.000046
  62	6.0695e+00	0.6030	-14.946824	0.000434	4.337716	0.734829	0.000043
  63	6.1690e+00	0.6136	-14.901609	0.000454	4.542325	0.769491	0.000045
  64	6.2685e+00	0.6207	-14.856801	0.000450	4.501403	0.762558	0.000045
  65	6.3680e+00	0.6322	-14.813623	0.000434	4.337716	0.734829	0.000043
  66	6.4675e+00	0.6437	-14.768408	0.000454	4.542325	0.769491	0.000045
  67	6.5670e+00	0.6541	-14.726452	0.000421	4.214950	0.714032	0.000042
  68	6.6665e+00	0.6621	-14.682459	0.000442	4.419560	0.748694	0.000044
  69	6.7660e+00	0.6714	-14.635614	0.000471	4.706012	0.797220	0.000047
  70	6.8655e+00	0.6821	-14.592029	0.000438	4.378638	0.741761	0.000044
  71	6.9650e+00	0.6920	-14.547221	0.000450	4.501403	0.762558	0.000045
  72	7.0645e+00	0.7053	-14.501599	0.000458	4.583247	0.776423	0.000046
  73	7.1640e+00	0.7111	-14.449866	0.000520	5.197075	0.880408	0.000052
  74	7.2635e+00	0.7229	-14.408317	0.000417	4.174028	0.707100	0.000042
  75	7.3630e+00	0.7320	-14.367990	0.000405	4.051263	0.686303	0.000041
  76	7.4625e+00	0.7445	-14.315850	0.000524	5.237997	0.887341	0.000052
  77	7.5620e+00	0.7500	-14.275116	0.000409	4.092185	0.693235	0.000041
  78	7.6615e+00	0.7604	-14.232752	0.000426	4.255872	0.720964	0.000043
  79	7.7610e+00	0.7714	-14.186315	0.000467	4.665091	0.790288	0.000047
  80	7.8605e+00	0.7841	-14.143952	0.000426	4.255872	0.720964	0.000043
  81	7.9600e+00	0.7925	-14.101588	0.000426	4.255872	0.720964	0.000043
  82	8.0595e+00	0.8002	-14.054336	0.000475	4.746934	0.804152	0.000047
  83	8.1590e+00	0.8109	-14.005048	0.000495	4.951544	0.838814	0.000050
  84	8.2585e+00	0.8207	-13.963499	0.000417	4.174028	0.707100	0.000042
  85	8.3580e+00	0.8318	-13.917469	0.000462	4.624169	0.783355	0.000046
  86	8.4575e+00	0.8425	-13.873884	0.000438	4.378638	0.741761	0.000044
  87	8.5570e+00	0.8540	-13.829483	0.000446	4.460481	0.755626	0.000045
  88	8.6565e+00	0.8593	-13.783454	0.000462	4.624169	0.783355	0.000046
  89	8.7560e+00	0.8696	-13.739868	0.000438	4.378638	0.741761	0.000044
  90	8.8555e+00	0.8845	-13.694653	0.000454	4.542325	0.769491	0.000045
  91	8.9550e+00	0.8900	-13.648216	0.000467	4.665091	0.790288	0.000047
  92	9.0545e+00	0.9036	-13.605038	0.000434	4.337716	0.734829	0.000043
  93	9.1540e+00	0.9150	-13.565118	0.000401	4.010341	0.679370	0.000040
  94	9.2535e+00	0.9218	-13.517866	0.000475	4.746934	0.804152	0.000047
  95	9.3530e+00	0.9315	-13.480391	0.000376	3.764810	0.637776	0.000038
  96	9.4525e+00	0.9436	-13.432324	0.000483	4.828778	0.818017	0.000048
  97	9.5520e+00	0.9496	-13.392405	0.000401	4.010341	0.679370	0.000040
  98	9.6515e+00	0.9595	-13.349226	0.000434	4.337716	0.734829	0.000043
  99	9.7510e+00	0.9692	-13.304826	0.000446	4.460481	0.755626	0.000045
 100	9.8505e+00	0.9808	-13.259204	0.000458	4.583247	0.776423	0.000046
 101	9.9500e+00	0.9913	-13.213581	0.000458	4.583247	0.776423	0.000046
 102	1.0050e+01	1.0036	-13.166737	0.000471	4.706012	0.797220	0.000047
 103	1.0149e+01	1.0110	-13.122337	0.000446	4.460481	0.755626	0.000045
 104	1.0248e+01	1.0210	-13.078344	0.000442	4.419560	0.748694	0.000044
 105	1.0348e+01	1.0323	-13.035165	0.000434	4.337716	0.734829	0.000043
 106	1.0447e+01	1.0430	-12.988321	0.000471	4.706012	0.797220	0.000047
 107	1.0547e+01	1.0503	-12.948401	0.000401	4.010341	0.679370	0.000040
 108	1.0646e+01	1.0606	-12.904001	0.000446	4.460481	0.755626	0.000045
 109	1.0746e+01	1.0709	-12.861637	0.000426	4.255872	0.720964	0.000043
 110	1.0845e+01	1.0816	-12.814386	0.000475	4.746934	0.804152	0.000047
 111	1.0945e+01	1.0915	-12.769578	0.000450	4.501403	0.762558	0.000045
 112	1.1044e+01	1.0983	-12.722734	0.000471	4.706012	0.797220	0.000047
 113	1.1144e+01	1.1092	-12.684036	0.000389	3.887576	0.658573	0.000039
 114	1.1243e+01	1.1210	-12.636377	0.000479	4.787856	0.811085	0.000048
 115	1.1343e+01	1.1292	-12.588718	0.000479	4.787856	0.811085	0.000048
 116	1.1443e+01	1.1389	-12.546762	0.000421	4.214950	0.714032	0.000042
 117	1.1542e+01	1.1488	-12.498288	0.000487	4.869700	0.824949	0.000049
 118	1.1642e+01	1.1586	-12.453887	0.000446	4.460481	0.755626	0.000045
 119	1.1741e+01	1.1719	-12.407043	0.000471	4.706012	0.797220	0.000047
 120	1.1841e+01	1.1799	-12.364679	0.000426	4.255872	0.720964	0.000043
 121	1.1940e+01	1.1902	-12.317020	0.000479	4.787856	0.811085	0.000048
 122	1.2040e+01	1.1991	-12.278730	0.000385	3.846654	0.651641	0.000038
 123	1.2139e+01	1.2124	-12.231886	0.000471	4.706012	0.797220	0.000047
 124	1.2239e+01	1.2206	-12.187485	0.000446	4.460481	0.755626	0.000045
 125	1.2338e+01	1.2312	-12.141456	0.000462	4.624169	0.783355	0.000046
 126	1.2438e+01	1.2413	-12.097055	0.000446	4.460481	0.755626	0.000045
 127	1.2537e+01	1.2483	-12.055914	0.000413	4.133107	0.700167	0.000041
 128	1.2636e+01	1.2579	-12.012328	0.000438	4.378638	0.741761	0.000044
 129	1.2736e+01	1.2700	-11.969557	0.000430	4.296794	0.727897	0.000043
 130	1.2835e+01	1.2765	-11.923935	0.000458	4.583247	0.776423	0.000046
 131	1.2935e+01	1.2909	-11.877905	0.000462	4.624169	0.783355	0.000046
 132	1.3034e+01	1.3001	-11.836356	0.000417	4.174028	0.707100	0.000042
 133	1.3134e+01	1.3097	-11.795622	0.000409	4.092185	0.693235	0.000041
 134	1.3233e+01	1.3197	-11.751222	0.000446	4.460481	0.755626	0.000045
 135	1.3333e+01	1.3319	-11.706821	0.000446	4.460481	0.755626	0.000045
 136	1.3432e+01	1.3416	-11.664050	0.000430	4.296794	0.727897	0.000043
 137	1.3532e+01	1.3483	-11.617613	0.000467	4.665091	0.790288	0.000047
 138	1.3632e+01	1.3581	-11.570769	0.000471	4.706012	0.797220	0.000047
 139	1.3731e+01	1.3686	-11.532071	0.000389	3.887576	0.658573	0.000039
 140	1.3831e+01	1.3788	-11.486042	0.000462	4.624169	0.783355	0.000046
 141	1.3930e+01	1.3894	-11.444085	0.000421	4.214950	0.714032	0.000042
 142	1.4030e+01	1.4017	-11.397241	0.000471	4.706012	0.797220	0.000047
 143	1.4129e+01	1.4080	-11.356507	0.000409	4.092185	0.693235	0.000041
 144	1.4229e+01	1.4187	-11.313736	0.000430	4.296794	0.727897	0.000043
 145	1.4328e+01	1.4265	-11.269335	0.000446	4.460481	0.755626	0.000045
 146	1.4428e+01	1.4403	-11.224528	0.000450	4.501403	0.762558	0.000045
 147	1.4527e+01	1.4484	-11.182164	0.000426	4.255872	0.720964	0.000043
 148	1.4627e+01	1.4574	-11.132061	0.000503	5.033387	0.852679	0.000050
 149	1.4726e+01	1.4686	-11.091734	0.000405	4.051263	0.686303	0.000041
 150	1.4825e+01	1.4785	-11.047741	0.000442	4.419560	0.748694	0.000044
 151	1.4925e+01	1.4888	-11.002933	0.000450	4.501403	0.762558	0.000045
 152	1.5024e+01	1.4970	-10.965050	0.000381	3.805732	0.644708	0.000038
 153	1.5124e+01	1.5086	-10.916984	0.000483	4.828778	0.818017	0.000048
 154	1.5223e+01	1.5166	-10.876657	0.000405	4.051263	0.686303	0.000041
 155	1.5323e+01	1.5285	-10.830627	0.000462	4.624169	0.783355	0.000046
 156	1.5422e+01	1.5393	-10.792337	0.000385	3.846654	0.651641	0.000038
 157	1.5522e+01	1.5474	-10.747530	0.000450	4.501403	0.762558	0.000045
 158	1.5621e+01	1.5562	-10.703537	0.000442	4.419560	0.748694	0.000044
 159	1.5721e+01	1.5681	-10.657100	0.000467	4.665091	0.790288	0.000047
 160	1.5820e+01	1.5740	-10.617995	0.000393	3.928497	0.665505	0.000039
 161	1.5920e+01	1.5855	-10.571965	0.000462	4.624169	0.783355	0.000046
 162	1.6020e+01	1.5969	-10.530009	0.000421	4.214950	0.714032	0.000042
 163	1.6119e+01	1.6077	-10.483979	0.000462	4.624169	0.783355	0.000046
 164	1.6218e+01	1.6180	-10.445689	0.000385	3.846654	0.651641	0.000038
 165	1.6318e+01	1.6253	-10.398437	0.000475	4.746934	0.804152	0.000047
 166	1.6418e+01	1.6372	-10.354444	0.000442	4.419560	0.748694	0.000044
 167	1.6517e+01	1.6483	-10.313302	0.000413	4.133107	0.700167	0.000041
 168	1.6616e+01	1.6596	-10.270939	0.000426	4.255872	0.720964	0.000043
 169	1.6716e+01	1.6657	-10.227760	0.000434	4.337716	0.734829	0.000043
 170	1.6816e+01	1.6767	-10.186619	0.000413	4.133107	0.700167	0.000041
 171	1.6915e+01	1.6885	-10.145070	0.000417	4.174028	0.707100	0.000042
 172	1.7015e+01	1.6994	-10.099855	0.000454	4.542325	0.769491	0.000045
 173	1.7114e+01	1.7068	-10.058713	0.000413	4.133107	0.700167	0.000041
 174	1.7213e+01	1.7155	-10.017979	0.000409	4.092185	0.693235	0.000041
 175	1.7313e+01	1.7299	-9.971135	0.000471	4.706012	0.797220	0.000047
 176	1.7413e+01	1.7395	-9.926734	0.000446	4.460481	0.755626	0.000045
 177	1.7512e+01	1.7481	-9.885185	0.000417	4.174028	0.707100	0.000042
 178	1.7611e+01	1.7591	-9.840378	0.000450	4.501403	0.762558	0.000045
 179	1.7711e+01	1.7634	-9.794755	0.000458	4.583247	0.776423	0.000046
 180	1.7811e+01	1.7754	-9.745874	0.000491	4.910622	0.831882	0.000049
 181	1.7910e+01	1.7859	-9.705547	0.000405	4.051263	0.686303	0.000041
 182	1.8009e+01	1.7946	-9.660740	0.000450	4.501403	0.762558	0.000045
 183	1.8109e+01	1.8084	-9.617969	0.000430	4.296794	0.727897	0.000043
 184	1.8209e+01	1.8165	-9.578864	0.000393	3.928497	0.665505	0.000039
 185	1.8308e+01	1.8238	-9.536500	0.000426	4.255872	0.720964	0.000043
 186	1.8407e+01	1.8368	-9.490063	0.000467	4.665091	0.790288	0.000047
 187	1.8507e+01	1.8483	-9.452995	0.000372	3.723888	0.630844	0.000037
 188	1.8607e+01	1.8578	-9.408187	0.000450	4.501403	0.762558	0.000045
 189	1.8706e+01	1.8657	-9.368675	0.000397	3.969419	0.672438	0.000040
 190	1.8805e+01	1.8776	-9.321016	0.000479	4.787856	0.811085	0.000048
 191	1.8905e+01	1.8871	-9.277430	0.000438	4.378638	0.741761	0.000044
 192	1.9005e+01	1.8925	-9.237918	0.000397	3.969419	0.672438	0.000040
 193	1.9104e+01	1.9076	-9.193110	0.000450	4.501403	0.762558	0.000045
 194	1.9203e+01	1.9144	-9.151561	0.000417	4.174028	0.707100	0.000042
 195	1.9303e+01	1.9241	-9.110012	0.000417	4.174028	0.707100	0.000042
 196	1.9402e+01	1.9357	-9.068464	0.000417	4.174028	0.707100	0.000042
 197	1.9502e+01	1.9468	-9.027729	0.000409	4.092185	0.693235	0.000041
 198	1.9602e+01	1.9579	-8.988217	0.000397	3.969419	0.672438	0.000040
 199	1.9701e+01	1.9646	-8.945039	0.000434	4.337716	0.734829	0.000043
 200	1.9800e+01	1.9740	-8.905934	0.000393	3.928497	0.665505	0.000039
 201	1.9900e+01	1.9855	-8.862756	0.000434	4.337716	0.734829	0.000043
 202	2.0000e+01	1.9978	-8.821207	0.000417	4.174028	0.707100	0.000042
 203	2.0099e+01	2.0054	-8.781694	0.000397	3.969419	0.672438	0.000040
 204	2.0198e+01	2.0148	-8.735665	0.000462	4.624169	0.783355	0.000046
 205	2.0298e+01	2.0250	-8.701041	0.000348	3.478357	0.589250	0.000035
 206	2.0398e+01	2.0362	-8.657048	0.000442	4.419560	0.748694	0.000044
 207	2.0497e+01	2.0432	-8.612647	0.000446	4.460481	0.755626	0.000045
 208	2.0596e+01	2.0564	-8.573950	0.000389	3.887576	0.658573	0.000039
 209	2.0696e+01	2.0668	-8.531179	0.000430	4.296794	0.727897	0.000043
 210	2.0796e+01	2.0751	-8.489222	0.000421	4.214950	0.714032	0.000042
 211	2.0895e+01	2.0861	-8.445637	0.000438	4.378638	0.741761	0.000044
 212	2.0994e+01	2.0945	-8.406125	0.000397	3.969419	0.672438	0.000040
 213	2.1094e+01	2.1066	-8.363761	0.000426	4.255872	0.720964	0.000043
 214	2.1194e+01	2.1144	-8.323841	0.000401	4.010341	0.679370	0.000040
 215	2.1293e+01	2.1249	-8.279848	0.000442	4.419560	0.748694	0.000044
 216	2.1392e+01	2.1329	-8.238299	0.000417	4.174028	0.707100	0.000042
 217	2.1492e+01	2.1457	-8.195936	0.000426	4.255872	0.720964	0.000043
 218	2.1591e+01	2.1526	-8.156424	0.000397	3.969419	0.672438	0.000040
 219	2.1691e+01	2.1629	-8.115282	0.000413	4.133107	0.700167	0.000041
 220	2.1791e+01	2.1735	-8.072511	0.000430	4.296794	0.727897	0.000043
 221	2.1890e+01	2.1854	-8.026889	0.000458	4.583247	0.776423	0.000046
 222	2.1989e+01	2.1939	-7.989820	0.000372	3.723888	0.630844	0.000037
 223	2.2089e+01	2.2043	-7.949901	0.000401	4.010341	0.679370	0.000040
 224	2.2189e+01	2.2140	-7.905501	0.000446	4.460481	0.755626	0.000045
 225	2.2288e+01	2.2234	-7.866396	0.000393	3.928497	0.665505	0.000039
 226	2.2387e+01	2.2311	-7.821181	0.000454	4.542325	0.769491	0.000045
 227	2.2487e+01	2.2429	-7.780854	0.000405	4.051263	0.686303	0.000041
 228	2.2587e+01	2.2549	-7.738083	0.000430	4.296794	0.727897	0.000043
 229	2.2686e+01	2.2636	-7.699385	0.000389	3.887576	0.658573	0.000039
 230	2.2785e+01	2.2723	-7.656614	0.000430	4.296794	0.727897	0.000043
 231	2.2885e+01	2.2841	-7.614658	0.000421	4.214950	0.714032	0.000042
 232	2.2985e+01	2.2942	-7.577590	0.000372	3.723888	0.630844	0.000037
 233	2.3084e+01	2.3043	-7.533189	0.000446	4.460481	0.755626	0.000045
 234	2.3183e+01	2.3161	-7.492455	0.000409	4.092185	0.693235	0.000041
 235	2.3283e+01	2.3251	-7.452943	0.000397	3.969419	0.672438	0.000040
 236	2.3383e+01	2.3325	-7.410987	0.000421	4.214950	0.714032	0.000042
 237	2.3482e+01	2.3431	-7.371067	0.000401	4.010341	0.679370	0.000040
 238	2.3581e+01	2.3537	-7.327481	0.000438	4.378638	0.741761	0.000044
 239	2.3681e+01	2.3629	-7.290413	0.000372	3.723888	0.630844	0.000037
 240	2.3780e+01	2.3708	-7.247642	0.000430	4.296794	0.727897	0.000043
 241	2.3880e+01	2.3842	-7.202020	0.000458	4.583247	0.776423	0.000046
 242	2.3980e+01	2.3932	-7.162508	0.000397	3.969419	0.672438	0.000040
 243	2.4079e+01	2.4052	-7.120144	0.000426	4.255872	0.720964	0.000043
 244	2.4178e+01	2.4117	-7.082261	0.000381	3.805732	0.644708	0.000038
 245	2.4278e+01	2.4253	-7.039898	0.000426	4.255872	0.720964	0.000043
 246	2.4378e+01	2.4335	-6.998756	0.000413	4.133107	0.700167	0.000041
 247	2.4477e+01	2.4448	-6.958022	0.000409	4.092185	0.693235	0.000041
 248	2.4576e+01	2.4549	-6.915251	0.000430	4.296794	0.727897	0.000043
 249	2.4676e+01	2.4657	-6.875331	0.000401	4.010341	0.679370	0.000040
 250	2.4776e+01	2.4735	-6.833782	0.000417	4.174028	0.707100	0.000042
 251	2.4875e+01	2.4857	-6.793455	0.000405	4.051263	0.686303	0.000041
 252	2.4974e+01	2.4918	-6.752314	0.000413	4.133107	0.700167	0.000041
 253	2.5074e+01	2.5031	-6.709950	0.000426	4.255872	0.720964	0.000043
 254	2.5174e+01	2.5148	-6.673697	0.000364	3.642044	0.616979	0.000036
 255	2.5273e+01	2.5234	-6.628482	0.000454	4.542325	0.769491	0.000045
 256	2.5372e+01	2.5318	-6.590191	0.000385	3.846654	0.651641	0.000038
 257	2.5472e+01	2.5438	-6.551494	0.000389	3.887576	0.658573	0.000039
 258	2.5572e+01	2.5525	-6.505872	0.000458	4.583247	0.776423	0.000046
 259	2.5671e+01	2.5622	-6.466359	0.000397	3.969419	0.672438	0.000040
 260	2.5770e+01	2.5723	-6.427662	0.000389	3.887576	0.658573	0.000039
 261	2.5870e+01	2.5833	-6.389372	0.000385	3.846654	0.651641	0.000038
 262	2.5970e+01	2.5921	-6.347008	0.000426	4.255872	0.720964	0.000043
 263	2.6069e+01	2.6010	-6.312791	0.000344	3.437435	0.582317	0.000034
 264	2.6169e+01	2.6141	-6.274094	0.000389	3.887576	0.658573	0.000039
 265	2.6268e+01	2.6220	-6.230508	0.000438	4.378638	0.741761	0.000044
 266	2.6367e+01	2.6325	-6.190181	0.000405	4.051263	0.686303	0.000041
 267	2.6467e+01	2.6421	-6.151891	0.000385	3.846654	0.651641	0.000038
 268	2.6567e+01	2.6525	-6.111564	0.000405	4.051263	0.686303	0.000041
 269	2.6666e+01	2.6620	-6.074088	0.000376	3.764810	0.637776	0.000038
 270	2.6765e+01	2.6702	-6.030503	0.000438	4.378638	0.741761	0.000044
 271	2.6865e+01	2.6845	-5.989361	0.000413	4.133107	0.700167	0.000041
 272	2.6965e+01	2.6936	-5.946590	0.000430	4.296794	0.727897	0.000043
 273	2.7064e+01	2.7028	-5.905856	0.000409	4.092185	0.693235	0.000041
 274	2.7163e+01	2.7125	-5.870010	0.000360	3.601123	0.610047	0.000036
 275	2.7263e+01	2.7219	-5.825610	0.000446	4.460481	0.755626	0.000045
 276	2.7363e+01	2.7335	-5.787319	0.000385	3.846654	0.651641	0.000038
 277	2.7462e+01	2.7415	-5.752288	0.000352	3.519279	0.596182	0.000035
 278	2.7561e+01	2.7509	-5.708295	0.000442	4.419560	0.748694	0.000044
 279	2.7661e+01	2.7633	-5.666339	0.000421	4.214950	0.714032	0.000042
 280	2.7761e+01	2.7718	-5.627234	0.000393	3.928497	0.665505	0.000039
 281	2.7860e+01	2.7831	-5.583648	0.000438	4.378638	0.741761	0.000044
 282	2.7959e+01	2.7914	-5.544543	0.000393	3.928497	0.665505	0.000039
 283	2.8059e+01	2.8023	-5.498921	0.000458	4.583247	0.776423	0.000046
 284	2.8159e+01	2.8108	-5.461445	0.000376	3.764810	0.637776	0.000038
 285	2.8258e+01	2.8201	-5.420304	0.000413	4.133107	0.700167	0.000041
 286	2.8358e+01	2.8323	-5.377125	0.000434	4.337716	0.734829	0.000043
 287	2.8457e+01	2.8397	-5.339650	0.000376	3.764810	0.637776	0.000038
 288	2.8556e+01	2.8509	-5.295249	0.000446	4.460481	0.755626	0.000045
 289	2.8656e+01	2.8599	-5.256552	0.000389	3.887576	0.658573	0.000039
 290	2.8756e+01	2.8695	-5.217447	0.000393	3.928497	0.665505	0.000039
 291	2.8855e+01	2.8823	-5.175491	0.000421	4.214950	0.714032	0.000042
 292	2.8954e+01	2.8936	-5.138830	0.000368	3.682966	0.623911	0.000037
 293	2.9054e+01	2.9016	-5.096874	0.000421	4.214950	0.714032	0.000042
 294	2.9154e+01	2.9123	-5.056547	0.000405	4.051263	0.686303	0.000041
 295	2.9253e+01	2.9205	-5.019479	0.000372	3.723888	0.630844	0.000037
 296	2.9352e+01	2.9304	-4.976300	0.000434	4.337716	0.734829	0.000043
 297	2.9452e+01	2.9451	-4.936381	0.000401	4.010341	0.679370	0.000040
 298	2.9552e+01	2.9510	-4.899313	0.000372	3.723888	0.630844	0.000037
 299	2.9651e+01	2.9612	-4.860615	0.000389	3.887576	0.658573	0.000039
 300	2.9750e+01	2.9741	-4.817029	0.000438	4.378638	0.741761	0.000044
 301	2.9850e+01	2.9816	-4.779146	0.000381	3.805732	0.644708	0.000038
 302	2.9950e+01	2.9914	-4.740856	0.000385	3.846654	0.651641	0.000038
 303	3.0049e+01	2.9996	-4.703788	0.000372	3.723888	0.630844	0.000037
 304	3.0148e+01	3.0125	-4.656536	0.000475	4.746934	0.804152	0.000047
 305	3.0248e+01	3.0175	-4.619468	0.000372	3.723888	0.630844	0.000037
 306	3.0348e+01	3.0294	-4.580771	0.000389	3.887576	0.658573	0.000039
 307	3.0447e+01	3.0419	-4.540851	0.000401	4.010341	0.679370	0.000040
 308	3.0547e+01	3.0511	-4.499709	0.000413	4.133107	0.700167	0.000041
 309	3.0646e+01	3.0611	-4.461012	0.000389	3.887576	0.658573	0.000039
 310	3.0745e+01	3.0694	-4.422722	0.000385	3.846654	0.651641	0.000038
 311	3.0845e+01	3.0811	-4.383210	0.000397	3.969419	0.672438	0.000040
 312	3.0945e+01	3.0894	-4.344919	0.000385	3.846654	0.651641	0.000038
 313	3.1044e+01	3.0997	-4.302963	0.000421	4.214950	0.714032	0.000042
 314	3.1143e+01	3.1109	-4.261821	0.000413	4.133107	0.700167	0.000041
 315	3.1243e+01	3.1176	-4.227197	0.000348	3.478357	0.589250	0.000035
 316	3.1343e+01	3.1290	-4.186870	0.000405	4.051263	0.686303	0.000041
 317	3.1442e+01	3.1391	-4.146544	0.000405	4.051263	0.686303	0.000041
 318	3.1541e+01	3.1500	-4.107031	0.000397	3.969419	0.672438	0.000040
 319	3.1641e+01	3.1585	-4.065482	0.000417	4.174028	0.707100	0.000042
 320	3.1741e+01	3.1667	-4.028007	0.000376	3.764810	0.637776	0.000038
 321	3.1840e+01	3.1797	-3.987273	0.000409	4.092185	0.693235	0.000041
 322	3.1939e+01	3.1890	-3.952241	0.000352	3.519279	0.596182	0.000035
 323	3.2039e+01	3.2047	-3.911507	0.000409	4.092185	0.693235	0.000041
 324	3.2139e+01	3.2102	-3.876475	0.000352	3.519279	0.596182	0.000035
 325	3.2238e+01	3.2201	-3.836963	0.000397	3.969419	0.672438	0.000040
 326	3.2337e+01	3.2299	-3.793785	0.000434	4.337716	0.734829	0.000043
 327	3.2437e+01	3.2374	-3.758346	0.000356	3.560201	0.603114	0.000036
 328	3.2536e+01	3.2485	-3.718834	0.000397	3.969419	0.672438	0.000040
 329	3.2636e+01	3.2604	-3.677692	0.000413	4.133107	0.700167	0.000041
 330	3.2736e+01	3.2691	-3.641439	0.000364	3.642044	0.616979	0.000036
 331	3.2835e+01	3.2791	-3.602334	0.000393	3.928497	0.665505	0.000039
 332	3.2934e+01	3.2933	-3.564044	0.000385	3.846654	0.651641	0.000038
 333	3.3034e+01	3.3025	-3.522902	0.000413	4.133107	0.700167	0.000041
 334	3.3133e+01	3.3114	-3.486241	0.000368	3.682966	0.623911	0.000037
 335	3.3233e+01	3.3175	-3.442248	0.000442	4.419560	0.748694	0.000044
 336	3.3333e+01	3.3294	-3.408846	0.000336	3.355592	0.568453	0.000034
 337	3.3432e+01	3.3399	-3.370556	0.000385	3.846654	0.651641	0.000038
 338	3.3532e+01	3.3482	-3.329414	0.000413	4.133107	0.700167	0.000041
 339	3.3631e+01	3.3603	-3.293976	0.000356	3.560201	0.603114	0.000036
 340	3.3730e+01	3.3700	-3.255278	0.000389	3.887576	0.658573	0.000039
 341	3.3830e+01	3.3804	-3.218617	0.000368	3.682966	0.623911	0.000037
 342	3.3929e+01	3.3903	-3.180327	0.000385	3.846654	0.651641	0.000038
 343	3.4029e+01	3.4010	-3.139593	0.000409	4.092185	0.693235	0.000041
 344	3.4129e+01	3.4100	-3.097636	0.000421	4.214950	0.714032	0.000042
 345	3.4228e+01	3.4180	-3.059754	0.000381	3.805732	0.644708	0.000038
 346	3.4328e+01	3.4292	-3.021871	0.000381	3.805732	0.644708	0.000038
 347	3.4427e+01	3.4367	-2.978692	0.000434	4.337716	0.734829	0.000043
 348	3.4526e+01	3.4502	-2.942439	0.000364	3.642044	0.616979	0.000036
 349	3.4626e+01	3.4559	-2.903334	0.000393	3.928497	0.665505	0.000039
 350	3.4725e+01	3.4712	-2.863007	0.000405	4.051263	0.686303	0.000041
 351	3.4825e+01	3.4785	-2.824310	0.000389	3.887576	0.658573	0.000039
 352	3.4925e+01	3.4881	-2.784797	0.000397	3.969419	0.672438	0.000040
 353	3.5024e+01	3.5018	-2.748951	0.000360	3.601123	0.610047	0.000036
 354	3.5123e+01	3.5104	-2.713105	0.000360	3.601123	0.610047	0.000036
 355	3.5223e+01	3.5195	-2.674815	0.000385	3.846654	0.651641	0.000038
 356	3.5322e+01	3.5314	-2.640191	0.000348	3.478357	0.589250	0.000035
 357	3.5422e+01	3.5406	-2.600271	0.000401	4.010341	0.679370	0.000040
 358	3.5522e+01	3.5508	-2.561166	0.000393	3.928497	0.665505	0.000039
 359	3.5621e+01	3.5592	-2.521247	0.000401	4.010341	0.679370	0.000040
 360	3.5721e+01	3.5703	-2.483771	0.000376	3.764810	0.637776	0.000038
 361	3.5820e+01	3.5793	-2.443444	0.000405	4.051263	0.686303	0.000041
 362	3.5919e+01	3.5882	-2.407191	0.000364	3.642044	0.616979	0.000036
 363	3.6019e+01	3.5979	-2.368901	0.000385	3.846654	0.651641	0.000038
 364	3.6118e+01	3.6114	-2.335091	0.000340	3.396513	0.575385	0.000034
 365	3.6218e+01	3.6158	-2.298838	0.000364	3.642044	0.616979	0.000036
 366	3.6318e+01	3.6295	-2.260955	0.000381	3.805732	0.644708	0.000038
 367	3.6417e+01	3.6376	-2.223479	0.000376	3.764810	0.637776	0.000038
 368	3.6517e+01	3.6492	-2.188448	0.000352	3.519279	0.596182	0.000035
 369	3.6616e+01	3.6573	-2.149750	0.000389	3.887576	0.658573	0.000039
 370	3.6715e+01	3.6678	-2.117978	0.000319	3.191904	0.540723	0.000032
 371	3.6815e+01	3.6797	-2.075207	0.000430	4.296794	0.727897	0.000043
 372	3.6914e+01	3.6854	-2.041397	0.000340	3.396513	0.575385	0.000034
 373	3.7014e+01	3.6984	-2.002292	0.000393	3.928497	0.665505	0.000039
 374	3.7114e+01	3.7077	-1.967668	0.000348	3.478357	0.589250	0.000035
 375	3.7213e+01	3.7144	-1.930193	0.000376	3.764810	0.637776	0.000038
 376	3.7313e+01	3.7283	-1.893532	0.000368	3.682966	0.623911	0.000037
 377	3.7412e+01	3.7366	-1.856056	0.000376	3.764810	0.637776	0.000038
 378	3.7511e+01	3.7472	-1.818173	0.000381	3.805732	0.644708	0.000038
 379	3.7611e+01	3.7589	-1.780698	0.000376	3.764810	0.637776	0.000038
 380	3.7711e+01	3.7650	-1.740778	0.000401	4.010341	0.679370	0.000040
 381	3.7810e+01	3.7786	-1.707376	0.000336	3.355592	0.568453	0.000034
 382	3.7910e+01	3.7867	-1.671530	0.000360	3.601123	0.610047	0.000036
 383	3.8009e+01	3.7998	-1.632833	0.000389	3.887576	0.658573	0.000039
 384	3.8108e+01	3.8065	-1.595357	0.000376	3.764810	0.637776	0.000038
 385	3.8208e+01	3.8149	-1.557474	0.000381	3.805732	0.644708	0.000038
 386	3.8307e+01	3.8258	-1.517962	0.000397	3.969419	0.672438	0.000040
 387	3.8407e+01	3.8375	-1.485782	0.000323	3.232826	0.547656	0.000032
 388	3.8507e+01	3.8463	-1.448714	0.000372	3.723888	0.630844	0.000037
 389	3.8606e+01	3.8584	-1.410424	0.000385	3.846654	0.651641	0.000038
 390	3.8706e+01	3.8670	-1.372948	0.000376	3.764810	0.637776	0.000038
 391	3.8805e+01	3.8763	-1.337102	0.000360	3.601123	0.610047	0.000036
 392	3.8904e+01	3.8865	-1.299626	0.000376	3.764810	0.637776	0.000038
 393	3.9004e+01	3.8966	-1.266632	0.000331	3.314670	0.561520	0.000033
 394	3.9103e+01	3.9063	-1.224268	0.000426	4.255872	0.720964	0.000043
 395	3.9203e+01	3.9175	-1.190866	0.000336	3.355592	0.568453	0.000034
 396	3.9303e+01	3.9262	-1.154612	0.000364	3.642044	0.616979	0.000036
 397	3.9402e+01	3.9370	-1.118359	0.000364	3.642044	0.616979	0.000036
 398	3.9502e+01	3.9456	-1.079254	0.000393	3.928497	0.665505	0.000039
 399	3.9601e+01	3.9561	-1.042186	0.000372	3.723888	0.630844	0.000037
 400	3.9700e+01	3.9660	-1.007154	0.000352	3.519279	0.596182	0.000035
 401	3.9800e+01	3.9782	-0.969679	0.000376	3.764810	0.637776	0.000038
 402	3.9900e+01	3.9870	-0.936684	0.000331	3.314670	0.561520	0.000033
 403	3.9999e+01	3.9956	-0.899616	0.000372	3.723888	0.630844	0.000037
 404	4.0099e+01	4.0044	-0.862548	0.000372	3.723888	0.630844	0.000037
 405	4.0198e+01	4.0171	-0.826702	0.000360	3.601123	0.610047	0.000036
 406	4.0297e+01	4.0252	-0.788412	0.000385	3.846654	0.651641	0.000038
 407	4.0397e+01	4.0340	-0.752158	0.000364	3.642044	0.616979	0.000036
 408	4.0496e+01	4.0464	-0.714683	0.000376	3.764810	0.637776	0.000038
 409	4.0596e+01	4.0560	-0.678836	0.000360	3.601123	0.610047	0.000036
 410	4.0696e+01	4.0655	-0.637287	0.000417	4.174028	0.707100	0.000042
 411	4.0795e+01	4.0754	-0.601849	0.000356	3.560201	0.603114	0.000036
 412	4.0895e+01	4.0826	-0.563966	0.000381	3.805732	0.644708	0.000038
 413	4.0994e+01	4.0959	-0.530156	0.000340	3.396513	0.575385	0.000034
 414	4.1093e+01	4.1084	-0.497162	0.000331	3.314670	0.561520	0.000033
 415	4.1193e+01	4.1145	-0.460501	0.000368	3.682966	0.623911	0.000037
 416	4.1292e+01	4.1251	-0.423433	0.000372	3.723888	0.630844	0.000037
 417	4.1392e+01	4.1344	-0.385957	0.000376	3.764810	0.637776	0.000038
 418	4.1492e+01	4.1410	-0.349704	0.000364	3.642044	0.616979	0.000036
 419	4.1591e+01	4.1567	-0.310599	0.000393	3.928497	0.665505	0.000039
 420	4.1691e+01	4.1663	-0.277604	0.000331	3.314670	0.561520	0.000033
 421	4.1790e+01	4.1763	-0.238906	0.000389	3.887576	0.658573	0.000039
 422	4.1889e+01	4.1846	-0.205097	0.000340	3.396513	0.575385	0.000034
 423	4.1989e+01	4.1970	-0.166399	0.000389	3.887576	0.658573	0.000039
 424	4.2089e+01	4.2087	-0.128517	0.000381	3.805732	0.644708	0.000038
 425	4.2188e+01	4.2136	-0.093078	0.000356	3.560201	0.603114	0.000036
 426	4.2288e+01	4.2251	-0.056417	0.000368	3.682966	0.623911	0.000037
 427	4.2387e+01	4.2347	-0.023830	0.000327	3.273748	0.554588	0.000033
 428	4.2486e+01	4.2455	0.013646	0.000376	3.764810	0.637776	0.000038
 429	4.2586e+01	4.2545	0.046233	0.000327	3.273748	0.554588	0.000033
 430	4.2685e+01	4.2651	0.080043	0.000340	3.396513	0.575385	0.000034
 431	4.2785e+01	4.2757	0.113038	0.000331	3.314670	0.561520	0.000033
 432	4.2885e+01	4.2844	0.150513	0.000376	3.764810	0.637776	0.000038
 433	4.2984e+01	4.2979	0.183508	0.000331	3.314670	0.561520	0.000033
 434	4.3084e+01	4.3053	0.219761	0.000364	3.642044	0.616979	0.000036
 435	4.3183e+01	4.3143	0.250719	0.000311	3.110060	0.526858	0.000031
 436	4.3282e+01	4.3247	0.291861	0.000413	4.133107	0.700167	0.000041
 437	4.3382e+01	4.3356	0.325670	0.000340	3.396513	0.575385	0.000034
 438	4.3481e+01	4.3444	0.362739	0.000372	3.723888	0.630844	0.000037
 439	4.3581e+01	4.3548	0.403065	0.000405	4.051263	0.686303	0.000041
 440	4.3681e+01	4.3641	0.434838	0.000319	3.191904	0.540723	0.000032
 441	4.3780e+01	4.3739	0.473128	0.000385	3.846654	0.651641	0.000038
 442	4.3880e+01	4.3837	0.507752	0.000348	3.478357	0.589250	0.000035
 443	4.3979e+01	4.3974	0.539525	0.000319	3.191904	0.540723	0.000032
 444	4.4078e+01	4.4022	0.575779	0.000364	3.642044	0.616979	0.000036
 445	4.4178e+01	4.4131	0.611217	0.000356	3.560201	0.603114	0.000036
 446	4.4278e+01	4.4234	0.645434	0.000344	3.437435	0.582317	0.000034
 447	4.4377e+01	4.4355	0.682910	0.000376	3.764810	0.637776	0.000038
 448	4.4477e+01	4.4459	0.723237	0.000405	4.051263	0.686303	0.000041
 449	4.4576e+01	4.4541	0.758676	0.000356	3.560201	0.603114	0.000036
 450	4.4675e+01	4.4599	0.796151	0.000376	3.764810	0.637776	0.000038
 451	4.4775e+01	4.4717	0.831590	0.000356	3.560201	0.603114	0.000036
 452	4.4874e+01	4.4817	0.868658	0.000372	3.723888	0.630844	0.000037
 453	4.4974e+01	4.4946	0.906948	0.000385	3.846654	0.651641	0.000038
 454	4.5074e+01	4.5031	0.939536	0.000327	3.273748	0.554588	0.000033
 455	4.5173e+01	4.5127	0.977011	0.000376	3.764810	0.637776	0.000038
 456	4.5273e+01	4.5242	1.010413	0.000336	3.355592	0.568453	0.000034
 457	4.5372e+01	4.5324	1.048296	0.000381	3.805732	0.644708	0.000038
 458	4.5471e+01	4.5438	1.085364	0.000372	3.723888	0.630844	0.000037
 459	4.5571e+01	4.5547	1.120803	0.000356	3.560201	0.603114	0.000036
 460	4.5670e+01	4.5632	1.151761	0.000311	3.110060	0.526858	0.000031
 461	4.5770e+01	4.5727	1.191681	0.000401	4.010341	0.679370	0.000040
 462	4.5870e+01	4.5831	1.222231	0.000307	3.069139	0.519926	0.000031
 463	4.5969e+01	4.5956	1.260522	0.000385	3.846654	0.651641	0.000038
 464	4.6069e+01	4.6033	1.295553	0.000352	3.519279	0.596182	0.000035
 465	4.6168e+01	4.6161	1.332621	0.000372	3.723888	0.630844	0.000037
 466	4.6267e+01	4.6224	1.367653	0.000352	3.519279	0.596182	0.000035
 467	4.6367e+01	4.6316	1.405128	0.000376	3.764810	0.637776	0.000038
 468	4.6467e+01	4.6426	1.437716	0.000327	3.273748	0.554588	0.000033
 469	4.6566e+01	4.6517	1.473154	0.000356	3.560201	0.603114	0.000036
 470	4.6666e+01	4.6632	1.504927	0.000319	3.191904	0.540723	0.000032
 471	4.6765e+01	4.6714	1.540366	0.000356	3.560201	0.603114	0.000036
 472	4.6864e+01	4.6813	1.577027	0.000368	3.682966	0.623911	0.000037
 473	4.6964e+01	4.6937	1.612873	0.000360	3.601123	0.610047	0.000036
 474	4.7063e+01	4.7034	1.647904	0.000352	3.519279	0.596182	0.000035
 475	4.7163e+01	4.7120	1.683343	0.000356	3.560201	0.603114	0.000036
 476	4.7263e+01	4.7239	1.716745	0.000336	3.355592	0.568453	0.000034
 477	4.7362e+01	4.7327	1.755035	0.000385	3.846654	0.651641	0.000038
 478	4.7462e+01	4.7428	1.787623	0.000327	3.273748	0.554588	0.000033
 479	4.7561e+01	4.7500	1.822247	0.000348	3.478357	0.589250	0.000035
 480	4.7660e+01	4.7630	1.858908	0.000368	3.682966	0.623911	0.000037
 481	4.7760e+01	4.7722	1.890680	0.000319	3.191904	0.540723	0.000032
 482	4.7859e+01	4.7816	1.928156	0.000376	3.764810	0.637776	0.000038
 483	4.7959e+01	4.7932	1.964002	0.000360	3.601123	0.610047	0.000036
 484	4.8059e+01	4.8035	1.999848	0.000360	3.601123	0.610047	0.000036
 485	4.8158e+01	4.8123	2.033658	0.000340	3.396513	0.575385	0.000034
 486	4.8258e+01	4.8231	2.070319	0.000368	3.682966	0.623911	0.000037
 487	4.8357e+01	4.8312	2.104535	0.000344	3.437435	0.582317	0.000034
 488	4.8456e+01	4.8405	2.139159	0.000348	3.478357	0.589250	0.000035
 489	4.8556e+01	4.8527	2.170932	0.000319	3.191904	0.540723	0.000032
 490	4.8656e+01	4.8643	2.203520	0.000327	3.273748	0.554588	0.000033
 491	4.8755e+01	4.8733	2.239773	0.000364	3.642044	0.616979	0.000036
 492	4.8855e+01	4.8803	2.270324	0.000307	3.069139	0.519926	0.000031
 493	4.8954e+01	4.8891	2.304540	0.000344	3.437435	0.582317	0.000034
 494	4.9053e+01	4.9038	2.342831	0.000385	3.846654	0.651641	0.000038
 495	4.9153e+01	4.9092	2.378677	0.000360	3.601123	0.610047	0.000036
 496	4.9252e+01	4.9235	2.407598	0.000291	2.905451	0.492197	0.000029
 497	4.9352e+01	4.9313	2.445888	0.000385	3.846654	0.651641	0.000038
 498	4.9452e+01	4.9397	2.478476	0.000327	3.273748	0.554588	0.000033
 499	4.9551e+01	4.9538	2.515544	0.000372	3.723888	0.630844	0.000037
 500	4.9651e+01	4.9621	2.548131	0.000327	3.273748	0.554588	0.000033
 501	4.9750e+01	4.9702	2.581126	0.000331	3.314670	0.561520	0.000033
 502	4.9849e+01	4.9807	2.614936	0.000340	3.396513	0.575385	0.000034
 503	4.9949e+01	4.9958	2.650782	0.000360	3.601123	0.610047	0.000036
 504	5.0048e+01	5.0013	2.684184	0.000336	3.355592	0.568453	0.000034
 505	5.0148e+01	5.0105	2.719215	0.000352	3.519279	0.596182	0.000035
 506	5.0248e+01	5.0217	2.753432	0.000344	3.437435	0.582317	0.000034
 507	5.0347e+01	5.0299	2.788463	0.000352	3.519279	0.596182	0.000035
 508	5.0447e+01	5.0399	2.821051	0.000327	3.273748	0.554588	0.000033
 509	5.0546e+01	5.0497	2.853231	0.000323	3.232826	0.547656	0.000032
 510	5.0645e+01	5.0628	2.885411	0.000323	3.232826	0.547656	0.000032
 511	5.0745e+01	5.0692	2.921664	0.000364	3.642044	0.616979	0.000036
 512	5.0844e+01	5.0788	2.953845	0.000323	3.232826	0.547656	0.000032
 513	5.0944e+01	5.0909	2.993357	0.000397	3.969419	0.672438	0.000040
 514	5.1044e+01	5.1006	3.026351	0.000331	3.314670	0.561520	0.000033
 515	5.1143e+01	5.1107	3.063012	0.000368	3.682966	0.623911	0.000037
 516	5.1242e+01	5.1198	3.098044	0.000352	3.519279	0.596182	0.000035
 517	5.1342e+01	5.1309	3.136741	0.000389	3.887576	0.658573	0.000039
 518	5.1441e+01	5.1406	3.169736	0.000331	3.314670	0.561520	0.000033
 519	5.1541e+01	5.1476	3.202323	0.000327	3.273748	0.554588	0.000033
 520	5.1641e+01	5.1608	3.234911	0.000327	3.273748	0.554588	0.000033
 521	5.1740e+01	5.1710	3.270757	0.000360	3.601123	0.610047	0.000036
 522	5.1840e+01	5.1812	3.298049	0.000274	2.741764	0.464467	0.000027
 523	5.1939e+01	5.1900	3.335524	0.000376	3.764810	0.637776	0.000038
 524	5.2038e+01	5.2015	3.369741	0.000344	3.437435	0.582317	0.000034
 525	5.2138e+01	5.2085	3.399070	0.000295	2.946373	0.499129	0.000029
 526	5.2237e+01	5.2175	3.438175	0.000393	3.928497	0.665505	0.000039
 527	5.2337e+01	5.2295	3.471577	0.000336	3.355592	0.568453	0.000034
 528	5.2437e+01	5.2393	3.504572	0.000331	3.314670	0.561520	0.000033
 529	5.2536e+01	5.2477	3.537974	0.000336	3.355592	0.568453	0.000034
 530	5.2636e+01	5.2586	3.573820	0.000360	3.601123	0.610047	0.000036
 531	5.2735e+01	5.2690	3.606000	0.000323	3.232826	0.547656	0.000032
 532	5.2834e+01	5.2781	3.637365	0.000315	3.150982	0.533791	0.000032
 533	5.2934e+01	5.2917	3.669953	0.000327	3.273748	0.554588	0.000033
 534	5.3033e+01	5.2995	3.700503	0.000307	3.069139	0.519926	0.000031
 535	5.3133e+01	5.3094	3.731869	0.000315	3.150982	0.533791	0.000032
 536	5.3233e+01	5.3175	3.767715	0.000360	3.601123	0.610047	0.000036
 537	5.3332e+01	5.3298	3.793785	0.000262	2.618998	0.443670	0.000026
 538	5.3431e+01	5.3415	3.830038	0.000364	3.642044	0.616979	0.000036
 539	5.3531e+01	5.3493	3.862218	0.000323	3.232826	0.547656	0.000032
 540	5.3630e+01	5.3612	3.893176	0.000311	3.110060	0.526858	0.000031
 541	5.3730e+01	5.3718	3.929430	0.000364	3.642044	0.616979	0.000036
 542	5.3830e+01	5.3793	3.961610	0.000323	3.232826	0.547656	0.000032
 543	5.3929e+01	5.3898	3.991346	0.000299	2.987295	0.506061	0.000030
 544	5.4029e+01	5.3997	4.025970	0.000348	3.478357	0.589250	0.000035
 545	5.4128e+01	5.4093	4.061409	0.000356	3.560201	0.603114	0.000036
 546	5.4227e+01	5.4189	4.092774	0.000315	3.150982	0.533791	0.000032
 547	5.4327e+01	5.4290	4.124954	0.000323	3.232826	0.547656	0.000032
 548	5.4426e+01	5.4415	4.156320	0.000315	3.150982	0.533791	0.000032
 549	5.4526e+01	5.4499	4.192573	0.000364	3.642044	0.616979	0.000036
 550	5.4626e+01	5.4577	4.220680	0.000282	2.823607	0.478332	0.000028
 551	5.4725e+01	5.4696	4.258970	0.000385	3.846654	0.651641	0.000038
 552	5.4825e+01	5.4791	4.288706	0.000299	2.987295	0.506061	0.000030
 553	5.4924e+01	5.4884	4.322923	0.000344	3.437435	0.582317	0.000034
 554	5.5023e+01	5.4981	4.355918	0.000331	3.314670	0.561520	0.000033
 555	5.5123e+01	5.5087	4.385654	0.000299	2.987295	0.506061	0.000030
 556	5.5222e+01	5.5178	4.421907	0.000364	3.642044	0.616979	0.000036
 557	5.5322e+01	5.5296	4.451236	0.000295	2.946373	0.499129	0.000029
 558	5.5422e+01	5.5389	4.485045	0.000340	3.396513	0.575385	0.000034
 559	5.5521e+01	5.5499	4.518040	0.000331	3.314670	0.561520	0.000033
 560	5.5620e+01	5.5579	4.551442	0.000336	3.355592	0.568453	0.000034
 561	5.5720e+01	5.5666	4.589732	0.000385	3.846654	0.651641	0.000038
 562	5.5819e+01	5.5785	4.618246	0.000286	2.864529	0.485264	0.000029
 563	5.5919e+01	5.5910	4.649612	0.000315	3.150982	0.533791	0.000032
 564	5.6019e+01	5.5996	4.683421	0.000340	3.396513	0.575385	0.000034
 565	5.6118e+01	5.6072	4.713564	0.000303	3.028217	0.512994	0.000030
 566	5.6218e+01	5.6182	4.746966	0.000336	3.355592	0.568453	0.000034
 567	5.6317e+01	5.6264	4.777517	0.000307	3.069139	0.519926	0.000031
 568	5.6416e+01	5.6376	4.814178	0.000368	3.682966	0.623911	0.000037
 569	5.6516e+01	5.6457	4.841470	0.000274	2.741764	0.464467	0.000027
 570	5.6615e+01	5.6566	4.874872	0.000336	3.355592	0.568453	0.000034
 571	5.6715e+01	5.6713	4.906237	0.000315	3.150982	0.533791	0.000032
 572	5.6815e+01	5.6785	4.939639	0.000336	3.355592	0.568453	0.000034
 573	5.6914e+01	5.6895	4.973856	0.000344	3.437435	0.582317	0.000034
 574	5.7014e+01	5.7005	5.004407	0.000307	3.069139	0.519926	0.000031
 575	5.7113e+01	5.7095	5.036180	0.000319	3.191904	0.540723	0.000032
 576	5.7212e+01	5.7165	5.072840	0.000368	3.682966	0.623911	0.000037
 577	5.7312e+01	5.7266	5.104206	0.000315	3.150982	0.533791	0.000032
 578	5.7411e+01	5.7365	5.137201	0.000331	3.314670	0.561520	0.000033
 579	5.7511e+01	5.7459	5.168566	0.000315	3.150982	0.533791	0.000032
 580	5.7611e+01	5.7542	5.201561	0.000331	3.314670	0.561520	0.000033
 581	5.7710e+01	5.7650	5.233333	0.000319	3.191904	0.540723	0.000032
 582	5.7809e+01	5.7780	5.260625	0.000274	2.741764	0.464467	0.000027
 583	5.7909e+01	5.7861	5.294027	0.000336	3.355592	0.568453	0.000034
 584	5.8008e+01	5.7955	5.328652	0.000348	3.478357	0.589250	0.000035
 585	5.8108e+01	5.8065	5.359610	0.000311	3.110060	0.526858	0.000031
 586	5.8208e+01	5.8164	5.395048	0.000356	3.560201	0.603114	0.000036
 587	5.8307e+01	5.8279	5.428043	0.000331	3.314670	0.561520	0.000033
 588	5.8407e+01	5.8366	5.459001	0.000311	3.110060	0.526858	0.000031
 589	5.8506e+01	5.8477	5.491996	0.000331	3.314670	0.561520	0.000033
 590	5.8605e+01	5.8555	5.522547	0.000307	3.069139	0.519926	0.000031
 591	5.8705e+01	5.8693	5.553097	0.000307	3.069139	0.519926	0.000031
 592	5.8804e+01	5.8781	5.587314	0.000344	3.437435	0.582317	0.000034
 593	5.8904e+01	5.8871	5.620716	0.000336	3.355592	0.568453	0.000034
 594	5.9004e+01	5.8950	5.652082	0.000315	3.150982	0.533791	0.000032
 595	5.9103e+01	5.9082	5.681410	0.000295	2.946373	0.499129	0.000029
 596	5.9203e+01	5.9184	5.714405	0.000331	3.314670	0.561520	0.000033
 597	5.9302e+01	5.9255	5.742919	0.000286	2.864529	0.485264	0.000029
 598	5.9401e+01	5.9396	5.775506	0.000327	3.273748	0.554588	0.000033
 599	5.9501e+01	5.9446	5.805650	0.000303	3.028217	0.512994	0.000030
 600	5.9600e+01	5.9582	5.835386	0.000299	2.987295	0.506061	0.000030
 601	5.9700e+01	5.9660	5.864307	0.000291	2.905451	0.492197	0.000029
 602	5.9800e+01	5.9782	5.895672	0.000315	3.150982	0.533791	0.000032
 603	5.9899e+01	5.9852	5.929889	0.000344	3.437435	0.582317	0.000034
 604	5.9998e+01	5.9963	5.962069	0.000323	3.232826	0.547656	0.000032
 605	6.0098e+01	6.0081	5.994249	0.000323	3.232826	0.547656	0.000032
 606	6.0197e+01	6.0140	6.025615	0.000315	3.150982	0.533791	0.000032
 607	6.0297e+01	6.0279	6.058202	0.000327	3.273748	0.554588	0.000033
 608	6.0397e+01	6.0354	6.089567	0.000315	3.150982	0.533791	0.000032
 609	6.0496e+01	6.0462	6.120526	0.000311	3.110060	0.526858	0.000031
 610	6.0596e+01	6.0571	6.152298	0.000319	3.191904	0.540723	0.000032
 611	6.0695e+01	6.0677	6.179183	0.000270	2.700842	0.457535	0.000027
 612	6.0794e+01	6.0746	6.212992	0.000340	3.396513	0.575385	0.000034
 613	6.0894e+01	6.0882	6.247209	0.000344	3.437435	0.582317	0.000034
 614	6.0993e+01	6.0940	6.275316	0.000282	2.823607	0.478332	0.000028
 615	6.1093e+01	6.1059	6.311977	0.000368	3.682966	0.623911	0.000037
 616	6.1193e+01	6.1140	6.342120	0.000303	3.028217	0.512994	0.000030
 617	6.1292e+01	6.1253	6.375929	0.000340	3.396513	0.575385	0.000034
 618	6.1392e+01	6.1360	6.410961	0.000352	3.519279	0.596182	0.000035
 619	6.1491e+01	6.1437	6.443141	0.000323	3.232826	0.547656	0.000032
 620	6.1590e+01	6.1605	6.474506	0.000315	3.150982	0.533791	0.000032
 621	6.1690e+01	6.1668	6.506279	0.000319	3.191904	0.540723	0.000032
 622	6.1789e+01	6.1755	6.536422	0.000303	3.028217	0.512994	0.000030
 623	6.1889e+01	6.1822	6.569824	0.000336	3.355592	0.568453	0.000034
 624	6.1989e+01	6.1944	6.608115	0.000385	3.846654	0.651641	0.000038
 625	6.2088e+01	6.2060	6.635406	0.000274	2.741764	0.464467	0.000027
 626	6.2188e+01	6.2151	6.665957	0.000307	3.069139	0.519926	0.000031
 627	6.2287e+01	6.2260	6.700174	0.000344	3.437435	0.582317	0.000034
 628	6.2386e+01	6.2359	6.728281	0.000282	2.823607	0.478332	0.000028
 629	6.2486e+01	6.2434	6.762090	0.000340	3.396513	0.575385	0.000034
 630	6.2586e+01	6.2543	6.791419	0.000295	2.946373	0.499129	0.000029
 631	6.2685e+01	6.2649	6.825635	0.000344	3.437435	0.582317	0.000034
 632	6.2785e+01	6.2774	6.856186	0.000307	3.069139	0.519926	0.000031
 633	6.2884e+01	6.2855	6.886737	0.000307	3.069139	0.519926	0.000031
 634	6.2983e+01	6.2953	6.916880	0.000303	3.028217	0.512994	0.000030
 635	6.3083e+01	6.3062	6.948246	0.000315	3.150982	0.533791	0.000032
 636	6.3182e+01	6.3140	6.975538	0.000274	2.741764	0.464467	0.000027
 637	6.3282e+01	6.3261	7.009754	0.000344	3.437435	0.582317	0.000034
 638	6.3382e+01	6.3348	7.040305	0.000307	3.069139	0.519926	0.000031
 639	6.3481e+01	6.3432	7.072485	0.000323	3.232826	0.547656	0.000032
 640	6.3581e+01	6.3499	7.106294	0.000340	3.396513	0.575385	0.000034
 641	6.3680e+01	6.3634	7.136438	0.000303	3.028217	0.512994	0.000030
 642	6.3779e+01	6.3742	7.163730	0.000274	2.741764	0.464467	0.000027
 643	6.3879e+01	6.3869	7.198761	0.000352	3.519279	0.596182	0.000035
 644	6.3978e+01	6.3921	7.228905	0.000303	3.028217	0.512994	0.000030
 645	6.4078e+01	6.4034	7.257826	0.000291	2.905451	0.492197	0.000029
 646	6.4177e+01	6.4120	7.288377	0.000307	3.069139	0.519926	0.000031
 647	6.4277e+01	6.4251	7.321779	0.000336	3.355592	0.568453	0.000034
 648	6.4376e+01	6.4330	7.350700	0.000291	2.905451	0.492197	0.000029
 649	6.4476e+01	6.4448	7.381658	0.000311	3.110060	0.526858	0.000031
 650	6.4576e+01	6.4559	7.414653	0.000331	3.314670	0.561520	0.000033
 651	6.4675e+01	6.4617	7.448055	0.000336	3.355592	0.568453	0.000034
 652	6.4775e+01	6.4760	7.481050	0.000331	3.314670	0.561520	0.000033
 653	6.4874e+01	6.4832	7.510378	0.000295	2.946373	0.499129	0.000029
 654	6.4974e+01	6.4947	7.541336	0.000311	3.110060	0.526858	0.000031
 655	6.5073e+01	6.5023	7.569850	0.000286	2.864529	0.485264	0.000029
 656	6.5172e+01	6.5126	7.600401	0.000307	3.069139	0.519926	0.000031
 657	6.5272e+01	6.5243	7.630952	0.000307	3.069139	0.519926	0.000031
 658	6.5371e+01	6.5347	7.662317	0.000315	3.150982	0.533791	0.000032
 659	6.5471e+01	6.5425	7.693275	0.000311	3.110060	0.526858	0.000031
 660	6.5570e+01	6.5535	7.721382	0.000282	2.823607	0.478332	0.000028
 661	6.5670e+01	6.5627	7.752747	0.000315	3.150982	0.533791	0.000032
 662	6.5769e+01	6.5719	7.784520	0.000319	3.191904	0.540723	0.000032
 663	6.5869e+01	6.5816	7.814663	0.000303	3.028217	0.512994	0.000030
 664	6.5969e+01	6.5923	7.848473	0.000340	3.396513	0.575385	0.000034
 665	6.6068e+01	6.6033	7.876579	0.000282	2.823607	0.478332	0.000028
 666	6.6168e+01	6.6115	7.906315	0.000299	2.987295	0.506061	0.000030
 667	6.6267e+01	6.6233	7.939310	0.000331	3.314670	0.561520	0.000033
 668	6.6367e+01	6.6326	7.970675	0.000315	3.150982	0.533791	0.000032
 669	6.6466e+01	6.6409	8.002041	0.000315	3.150982	0.533791	0.000032
 670	6.6566e+01	6.6508	8.030147	0.000282	2.823607	0.478332	0.000028
 671	6.6665e+01	6.6598	8.060698	0.000307	3.069139	0.519926	0.000031
 672	6.6764e+01	6.6714	8.090027	0.000295	2.946373	0.499129	0.000029
 673	6.6864e+01	6.6799	8.123021	0.000331	3.314670	0.561520	0.000033
 674	6.6963e+01	6.6920	8.147869	0.000250	2.496233	0.422873	0.000025
 675	6.7063e+01	6.7022	8.180457	0.000327	3.273748	0.554588	0.000033
 676	6.7162e+01	6.7112	8.210193	0.000299	2.987295	0.506061	0.000030
 677	6.7262e+01	6.7233	8.240336	0.000303	3.028217	0.512994	0.000030
 678	6.7362e+01	6.7334	8.271294	0.000311	3.110060	0.526858	0.000031
 679	6.7461e+01	6.7432	8.305918	0.000348	3.478357	0.589250	0.000035
 680	6.7561e+01	6.7507	8.332396	0.000266	2.659920	0.450603	0.000027
 681	6.7660e+01	6.7631	8.364983	0.000327	3.273748	0.554588	0.000033
 682	6.7760e+01	6.7705	8.398385	0.000336	3.355592	0.568453	0.000034
 683	6.7859e+01	6.7817	8.430565	0.000323	3.232826	0.547656	0.000032
 684	6.7959e+01	6.7924	8.460708	0.000303	3.028217	0.512994	0.000030
 685	6.8058e+01	6.8029	8.490444	0.000299	2.987295	0.506061	0.000030
 686	6.8157e+01	6.8116	8.525069	0.000348	3.478357	0.589250	0.000035
 687	6.8257e+01	6.8226	8.553583	0.000286	2.864529	0.485264	0.000029
 688	6.8356e+01	6.8340	8.582504	0.000291	2.905451	0.492197	0.000029
 689	6.8456e+01	6.8408	8.611833	0.000295	2.946373	0.499129	0.000029
 690	6.8555e+01	6.8502	8.641569	0.000299	2.987295	0.506061	0.000030
 691	6.8655e+01	6.8620	8.671712	0.000303	3.028217	0.512994	0.000030
 692	6.8754e+01	6.8716	8.701448	0.000299	2.987295	0.506061	0.000030
 693	6.8854e+01	6.8816	8.732406	0.000311	3.110060	0.526858	0.000031
 694	6.8954e+01	6.8904	8.764586	0.000323	3.232826	0.547656	0.000032
 695	6.9053e+01	6.9006	8.792693	0.000282	2.823607	0.478332	0.000028
 696	6.9153e+01	6.9117	8.826909	0.000344	3.437435	0.582317	0.000034
 697	6.9252e+01	6.9225	8.851350	0.000246	2.455311	0.415941	0.000025
 698	6.9352e+01	6.9311	8.881493	0.000303	3.028217	0.512994	0.000030
 699	6.9451e+01	6.9436	8.908378	0.000270	2.700842	0.457535	0.000027
 700	6.9550e+01	6.9482	8.938114	0.000299	2.987295	0.506061	0.000030
 701	6.9650e+01	6.9608	8.967850	0.000299	2.987295	0.506061	0.000030
 702	6.9749e+01	6.9692	8.997993	0.000303	3.028217	0.512994	0.000030
 703	6.9849e+01	6.9799	9.028137	0.000303	3.028217	0.512994	0.000030
 704	6.9948e+01	6.9924	9.057058	0.000291	2.905451	0.492197	0.000029
 705	7.0048e+01	7.0026	9.080684	0.000237	2.373467	0.402076	0.000024
 706	7.0147e+01	7.0130	9.115715	0.000352	3.519279	0.596182	0.000035
 707	7.0247e+01	7.0208	9.143415	0.000278	2.782686	0.471400	0.000028
 708	7.0347e+01	7.0303	9.171929	0.000286	2.864529	0.485264	0.000029
 709	7.0446e+01	7.0415	9.200035	0.000282	2.823607	0.478332	0.000028
 710	7.0546e+01	7.0509	9.228957	0.000291	2.905451	0.492197	0.000029
 711	7.0645e+01	7.0583	9.256656	0.000278	2.782686	0.471400	0.000028
 712	7.0745e+01	7.0693	9.290058	0.000336	3.355592	0.568453	0.000034
 713	7.0844e+01	7.0815	9.316535	0.000266	2.659920	0.450603	0.000027
 714	7.0944e+01	7.0901	9.345864	0.000295	2.946373	0.499129	0.000029
 715	7.1043e+01	7.0996	9.376007	0.000303	3.028217	0.512994	0.000030
 716	7.1142e+01	7.1068	9.406558	0.000307	3.069139	0.519926	0.000031
 717	7.1242e+01	7.1201	9.435479	0.000291	2.905451	0.492197	0.000029
 718	7.1341e+01	7.1294	9.466437	0.000311	3.110060	0.526858	0.000031
 719	7.1441e+01	7.1411	9.494951	0.000286	2.864529	0.485264	0.000029
 720	7.1540e+01	7.1514	9.520614	0.000258	2.578076	0.436738	0.000026
 721	7.1640e+01	7.1622	9.551979	0.000315	3.150982	0.533791	0.000032
 722	7.1740e+01	7.1694	9.584974	0.000331	3.314670	0.561520	0.000033
 723	7.1839e+01	7.1786	9.612673	0.000278	2.782686	0.471400	0.000028
 724	7.1939e+01	7.1880	9.641187	0.000286	2.864529	0.485264	0.000029
 725	7.2038e+01	7.1992	9.669294	0.000282	2.823607	0.478332	0.000028
 726	7.2138e+01	7.2088	9.702696	0.000336	3.355592	0.568453	0.000034
 727	7.2237e+01	7.2205	9.727951	0.000254	2.537155	0.429806	0.000025
 728	7.2337e+01	7.2296	9.758094	0.000303	3.028217	0.512994	0.000030
 729	7.2436e+01	7.2417	9.785794	0.000278	2.782686	0.471400	0.000028
 730	7.2535e+01	7.2489	9.816344	0.000307	3.069139	0.519926	0.000031
 731	7.2635e+01	7.2625	9.846895	0.000307	3.069139	0.519926	0.000031
 732	7.2734e+01	7.2677	9.876224	0.000295	2.946373	0.499129	0.000029
 733	7.2834e+01	7.2805	9.908404	0.000323	3.232826	0.547656	0.000032
 734	7.2933e+01	7.2900	9.936511	0.000282	2.823607	0.478332	0.000028
 735	7.3033e+01	7.2970	9.962173	0.000258	2.578076	0.436738	0.000026
 736	7.3132e+01	7.3090	9.990280	0.000282	2.823607	0.478332	0.000028
 737	7.3232e+01	7.3215	10.016350	0.000262	2.618998	0.443670	0.000026
 738	7.3332e+01	7.3264	10.046900	0.000307	3.069139	0.519926	0.000031
 739	7.3431e+01	7.3405	10.074600	0.000278	2.782686	0.471400	0.000028
 740	7.3531e+01	7.3486	10.107594	0.000331	3.314670	0.561520	0.000033
 741	7.3630e+01	7.3576	10.136923	0.000295	2.946373	0.499129	0.000029
 742	7.3730e+01	7.3667	10.165844	0.000291	2.905451	0.492197	0.000029
 743	7.3829e+01	7.3766	10.193544	0.000278	2.782686	0.471400	0.000028
 744	7.3928e+01	7.3877	10.228982	0.000356	3.560201	0.603114	0.000036
 745	7.4028e+01	7.3972	10.251386	0.000225	2.250702	0.381279	0.000023
 746	7.4127e+01	7.4059	10.281937	0.000307	3.069139	0.519926	0.000031
 747	7.4227e+01	7.4194	10.315339	0.000336	3.355592	0.568453	0.000034
 748	7.4326e+01	7.4296	10.341409	0.000262	2.618998	0.443670	0.000026
 749	7.4426e+01	7.4366	10.370738	0.000295	2.946373	0.499129	0.000029
 750	7.4525e+01	7.4502	10.395178	0.000246	2.455311	0.415941	0.000025
 751	7.4625e+01	7.4566	10.427766	0.000327	3.273748	0.554588	0.000033
 752	7.4725e+01	7.4689	10.455058	0.000274	2.741764	0.464467	0.000027
 753	7.4824e+01	7.4787	10.487238	0.000323	3.232826	0.547656	0.000032
 754	7.4924e+01	7.4870	10.515344	0.000282	2.823607	0.478332	0.000028
 755	7.5023e+01	7.5001	10.546302	0.000311	3.110060	0.526858	0.000031
 756	7.5123e+01	7.5098	10.572780	0.000266	2.659920	0.450603	0.000027
 757	7.5222e+01	7.5188	10.604552	0.000319	3.191904	0.540723	0.000032
 758	7.5322e+01	7.5293	10.631844	0.000274	2.741764	0.464467	0.000027
 759	7.5421e+01	7.5388	10.658322	0.000266	2.659920	0.450603	0.000027
 760	7.5520e+01	7.5477	10.689280	0.000311	3.110060	0.526858	0.000031
 761	7.5620e+01	7.5566	10.716164	0.000270	2.700842	0.457535	0.000027
 762	7.5719e+01	7.5684	10.745900	0.000299	2.987295	0.506061	0.000030
 763	7.5819e+01	7.5763	10.774414	0.000286	2.864529	0.485264	0.000029
 764	7.5918e+01	7.5896	10.804965	0.000307	3.069139	0.519926	0.000031
 765	7.6018e+01	7.5977	10.833886	0.000291	2.905451	0.492197	0.000029
 766	7.6118e+01	7.6065	10.855068	0.000213	2.127936	0.360482	0.000021
 767	7.6217e+01	7.6193	10.884804	0.000299	2.987295	0.506061	0.000030
 768	7.6317e+01	7.6288	10.913318	0.000286	2.864529	0.485264	0.000029
 769	7.6416e+01	7.6403	10.935314	0.000221	2.209780	0.374347	0.000022
 770	7.6516e+01	7.6474	10.970753	0.000356	3.560201	0.603114	0.000036
 771	7.6615e+01	7.6565	10.996823	0.000262	2.618998	0.443670	0.000026
 772	7.6715e+01	7.6667	11.026967	0.000303	3.028217	0.512994	0.000030
 773	7.6814e+01	7.6769	11.057925	0.000311	3.110060	0.526858	0.000031
 774	7.6913e+01	7.6872	11.084402	0.000266	2.659920	0.450603	0.000027
 775	7.7013e+01	7.6983	11.115767	0.000315	3.150982	0.533791	0.000032
 776	7.7112e+01	7.7075	11.141022	0.000254	2.537155	0.429806	0.000025
 777	7.7212e+01	7.7158	11.167092	0.000262	2.618998	0.443670	0.000026
 778	7.7311e+01	7.7274	11.201309	0.000344	3.437435	0.582317	0.000034
 779	7.7411e+01	7.7367	11.227786	0.000266	2.659920	0.450603	0.000027
 780	7.7510e+01	7.7466	11.251820	0.000241	2.414389	0.409009	0.000024
 781	7.7610e+01	7.7593	11.285222	0.000336	3.355592	0.568453	0.000034
 782	7.7710e+01	7.7670	11.314550	0.000295	2.946373	0.499129	0.000029
 783	7.7809e+01	7.7776	11.343064	0.000286	2.864529	0.485264	0.000029
 784	7.7909e+01	7.7871	11.375244	0.000323	3.232826	0.547656	0.000032
 785	7.8008e+01	7.7975	11.406202	0.000311	3.110060	0.526858	0.000031
 786	7.8108e+01	7.8055	11.435938	0.000299	2.987295	0.506061	0.000030
 787	7.8207e+01	7.8174	11.464452	0.000286	2.864529	0.485264	0.000029
 788	7.8306e+01	7.8263	11.490930	0.000266	2.659920	0.450603	0.000027
 789	7.8406e+01	7.8369	11.521888	0.000311	3.110060	0.526858	0.000031
 790	7.8505e+01	7.8477	11.553253	0.000315	3.150982	0.533791	0.000032
 791	7.8605e+01	7.8571	11.582582	0.000295	2.946373	0.499129	0.000029
 792	7.8704e+01	7.8662	11.610688	0.000282	2.823607	0.478332	0.000028
 793	7.8804e+01	7.8772	11.639610	0.000291	2.905451	0.492197	0.000029
 794	7.8903e+01	7.8857	11.667716	0.000282	2.823607	0.478332	0.000028
 795	7.9003e+01	7.8955	11.695008	0.000274	2.741764	0.464467	0.000027
 796	7.9103e+01	7.9056	11.724337	0.000295	2.946373	0.499129	0.000029
 797	7.9202e+01	7.9169	11.752036	0.000278	2.782686	0.471400	0.000028
 798	7.9302e+01	7.9259	11.784216	0.000323	3.232826	0.547656	0.000032
 799	7.9401e+01	7.9346	11.807435	0.000233	2.332545	0.395144	0.000023
 800	7.9501e+01	7.9460	11.839615	0.000323	3.232826	0.547656	0.000032
 801	7.9600e+01	7.9562	11.864463	0.000250	2.496233	0.422873	0.000025
 802	7.9700e+01	7.9682	11.896236	0.000319	3.191904	0.540723	0.000032
 803	7.9799e+01	7.9772	11.923120	0.000270	2.700842	0.457535	0.000027
 804	7.9898e+01	7.9841	11.951227	0.000282	2.823607	0.478332	0.000028
 805	7.9998e+01	7.9981	11.981370	0.000303	3.028217	0.512994	0.000030
 806	8.0097e+01	8.0029	12.011106	0.000299	2.987295	0.506061	0.000030
 807	8.0197e+01	8.0145	12.037583	0.000266	2.659920	0.450603	0.000027
 808	8.0296e+01	8.0263	12.070171	0.000327	3.273748	0.554588	0.000033
 809	8.0396e+01	8.0368	12.097055	0.000270	2.700842	0.457535	0.000027
 810	8.0496e+01	8.0460	12.126384	0.000295	2.946373	0.499129	0.000029
 811	8.0595e+01	8.0550	12.155713	0.000295	2.946373	0.499129	0.000029
 812	8.0695e+01	8.0632	12.184227	0.000286	2.864529	0.485264	0.000029
 813	8.0794e+01	8.0763	12.211519	0.000274	2.741764	0.464467	0.000027
 814	8.0894e+01	8.0857	12.238403	0.000270	2.700842	0.457535	0.000027
 815	8.0993e+01	8.0950	12.260400	0.000221	2.209780	0.374347	0.000022
 816	8.1093e+01	8.1057	12.295431	0.000352	3.519279	0.596182	0.000035
 817	8.1192e+01	8.1155	12.321094	0.000258	2.578076	0.436738	0.000026
 818	8.1291e+01	8.1243	12.352459	0.000315	3.150982	0.533791	0.000032
 819	8.1391e+01	8.1371	12.380566	0.000282	2.823607	0.478332	0.000028
 820	8.1490e+01	8.1451	12.409487	0.000291	2.905451	0.492197	0.000029
 821	8.1590e+01	8.1545	12.439631	0.000303	3.028217	0.512994	0.000030
 822	8.1689e+01	8.1654	12.467737	0.000282	2.823607	0.478332	0.000028
 823	8.1789e+01	8.1749	12.498695	0.000311	3.110060	0.526858	0.000031
 824	8.1888e+01	8.1851	12.526802	0.000282	2.823607	0.478332	0.000028
 825	8.1988e+01	8.1953	12.550428	0.000237	2.373467	0.402076	0.000024
 826	8.2088e+01	8.2034	12.580571	0.000303	3.028217	0.512994	0.000030
 827	8.2187e+01	8.2157	12.608678	0.000282	2.823607	0.478332	0.000028
 828	8.2287e+01	8.2227	12.634340	0.000258	2.578076	0.436738	0.000026
 829	8.2386e+01	8.2357	12.663262	0.000291	2.905451	0.492197	0.000029
 830	8.2486e+01	8.2450	12.691368	0.000282	2.823607	0.478332	0.000028
 831	8.2585e+01	8.2523	12.715809	0.000246	2.455311	0.415941	0.000025
 832	8.2684e+01	8.2639	12.746359	0.000307	3.069139	0.519926	0.000031
 833	8.2784e+01	8.2730	12.773651	0.000274	2.741764	0.464467	0.000027
 834	8.2883e+01	8.2829	12.800943	0.000274	2.741764	0.464467	0.000027
 835	8.2983e+01	8.2971	12.830272	0.000295	2.946373	0.499129	0.000029
 836	8.3082e+01	8.3041	12.858786	0.000286	2.864529	0.485264	0.000029
 837	8.3182e+01	8.3154	12.889337	0.000307	3.069139	0.519926	0.000031
 838	8.3281e+01	8.3233	12.916221	0.000270	2.700842	0.457535	0.000027
 839	8.3381e+01	8.3335	12.945957	0.000299	2.987295	0.506061	0.000030
 840	8.3481e+01	8.3408	12.971213	0.000254	2.537155	0.429806	0.000025
 841	8.3580e+01	8.3523	13.000541	0.000295	2.946373	0.499129	0.000029
 842	8.3680e+01	8.3633	13.028240	0.000278	2.782686	0.471400	0.000028
 843	8.3779e+01	8.3746	13.052274	0.000241	2.414389	0.409009	0.000024
 844	8.3879e+01	8.3839	13.084046	0.000319	3.191904	0.540723	0.000032
 845	8.3978e+01	8.3924	13.108894	0.000250	2.496233	0.422873	0.000025
 846	8.4078e+01	8.4039	13.139852	0.000311	3.110060	0.526858	0.000031
 847	8.4177e+01	8.4119	13.169588	0.000299	2.987295	0.506061	0.000030
 848	8.4276e+01	8.4222	13.196880	0.000274	2.741764	0.464467	0.000027
 849	8.4376e+01	8.4330	13.226616	0.000299	2.987295	0.506061	0.000030
 850	8.4475e+01	8.4449	13.258389	0.000319	3.191904	0.540723	0.000032
 851	8.4575e+01	8.4543	13.287718	0.000295	2.946373	0.499129	0.000029
 852	8.4674e+01	8.4647	13.314195	0.000266	2.659920	0.450603	0.000027
 853	8.4774e+01	8.4743	13.347190	0.000331	3.314670	0.561520	0.000033
 854	8.4874e+01	8.4835	13.371630	0.000246	2.455311	0.415941	0.000025
 855	8.4973e+01	8.4961	13.403403	0.000319	3.191904	0.540723	0.000032
 856	8.5073e+01	8.5026	13.428658	0.000254	2.537155	0.429806	0.000025
 857	8.5172e+01	8.5127	13.455950	0.000274	2.741764	0.464467	0.000027
 858	8.5272e+01	8.5233	13.485686	0.000299	2.987295	0.506061	0.000030
 859	8.5371e+01	8.5321	13.509719	0.000241	2.414389	0.409009	0.000024
 860	8.5471e+01	8.5430	13.539048	0.000295	2.946373	0.499129	0.000029
 861	8.5570e+01	8.5537	13.568377	0.000295	2.946373	0.499129	0.000029
 862	8.5669e+01	8.5606	13.597298	0.000291	2.905451	0.492197	0.000029
 863	8.5769e+01	8.5742	13.626219	0.000291	2.905451	0.492197	0.000029
 864	8.5868e+01	8.5812	13.652289	0.000262	2.618998	0.443670	0.000026
 865	8.5968e+01	8.5941	13.684469	0.000323	3.232826	0.547656	0.000032
 866	8.6067e+01	8.6011	13.708503	0.000241	2.414389	0.409009	0.000024
 867	8.6167e+01	8.6119	13.738646	0.000303	3.028217	0.512994	0.000030
 868	8.6266e+01	8.6238	13.762679	0.000241	2.414389	0.409009	0.000024
 869	8.6366e+01	8.6317	13.786712	0.000241	2.414389	0.409009	0.000024
 870	8.6466e+01	8.6437	13.814412	0.000278	2.782686	0.471400	0.000028
 871	8.6565e+01	8.6517	13.841296	0.000270	2.700842	0.457535	0.000027
 872	8.6665e+01	8.6634	13.867773	0.000266	2.659920	0.450603	0.000027
 873	8.6764e+01	8.6713	13.896287	0.000286	2.864529	0.485264	0.000029
 874	8.6864e+01	8.6817	13.924394	0.000282	2.823607	0.478332	0.000028
 875	8.6963e+01	8.6942	13.952093	0.000278	2.782686	0.471400	0.000028
 876	8.7063e+01	8.7012	13.977756	0.000258	2.578076	0.436738	0.000026
 877	8.7162e+01	8.7128	14.005863	0.000282	2.823607	0.478332	0.000028
 878	8.7261e+01	8.7231	14.033155	0.000274	2.741764	0.464467	0.000027
 879	8.7361e+01	8.7317	14.061669	0.000286	2.864529	0.485264	0.000029
 880	8.7460e+01	8.7421	14.086924	0.000254	2.537155	0.429806	0.000025
 881	8.7560e+01	8.7514	14.116660	0.000299	2.987295	0.506061	0.000030
 882	8.7659e+01	8.7627	14.145174	0.000286	2.864529	0.485264	0.000029
 883	8.7759e+01	8.7712	14.171651	0.000266	2.659920	0.450603	0.000027
 884	8.7859e+01	8.7808	14.201387	0.000299	2.987295	0.506061	0.000030
 885	8.7958e+01	8.7923	14.229901	0.000286	2.864529	0.485264	0.000029
 886	8.8058e+01	8.8018	14.254749	0.000250	2.496233	0.422873	0.000025
 887	8.8157e+01	8.8110	14.283670	0.000291	2.905451	0.492197	0.000029
 888	8.8257e+01	8.8205	14.308518	0.000250	2.496233	0.422873	0.000025
 889	8.8356e+01	8.8300	14.339069	0.000307	3.069139	0.519926	0.000031
 890	8.8456e+01	8.8416	14.365546	0.000266	2.659920	0.450603	0.000027
 891	8.8555e+01	8.8495	14.391209	0.000258	2.578076	0.436738	0.000026
 892	8.8654e+01	8.8600	14.421759	0.000307	3.069139	0.519926	0.000031
 893	8.8754e+01	8.8692	14.447829	0.000262	2.618998	0.443670	0.000026
 894	8.8853e+01	8.8801	14.478787	0.000311	3.110060	0.526858	0.000031
 895	8.8953e+01	8.8916	14.506487	0.000278	2.782686	0.471400	0.000028
 896	8.9052e+01	8.8986	14.531742	0.000254	2.537155	0.429806	0.000025
 897	8.9152e+01	8.9105	14.561478	0.000299	2.987295	0.506061	0.000030
 898	8.9251e+01	8.9201	14.589177	0.000278	2.782686	0.471400	0.000028
 899	8.9351e+01	8.9314	14.616062	0.000270	2.700842	0.457535	0.000027
 900	8.9451e+01	8.9396	14.640502	0.000246	2.455311	0.415941	0.000025
 901	8.9550e+01	8.9491	14.668202	0.000278	2.782686	0.471400	0.000028
 902	8.9650e+01	8.9600	14.699160	0.000311	3.110060	0.526858	0.000031
 903	8.9749e+01	8.9700	14.727266	0.000282	2.823607	0.478332	0.000028
 904	8.9849e+01	8.9797	14.756595	0.000295	2.946373	0.499129	0.000029
 905	8.9948e+01	8.9895	14.784294	0.000278	2.782686	0.471400	0.000028
 906	9.0047e+01	8.9991	14.809142	0.000250	2.496233	0.422873	0.000025
 907	9.0147e+01	9.0103	14.840915	0.000319	3.191904	0.540723	0.000032
 908	9.0246e+01	9.0192	14.865355	0.000246	2.455311	0.415941	0.000025
 909	9.0346e+01	9.0321	14.895906	0.000307	3.069139	0.519926	0.000031
 910	9.0445e+01	9.0395	14.924420	0.000286	2.864529	0.485264	0.000029
 911	9.0545e+01	9.0497	14.950490	0.000262	2.618998	0.443670	0.000026
 912	9.0644e+01	9.0554	14.981855	0.000315	3.150982	0.533791	0.000032
 913	9.0744e+01	9.0723	15.007518	0.000258	2.578076	0.436738	0.000026
 914	9.0844e+01	9.0786	15.034810	0.000274	2.741764	0.464467	0.000027
 915	9.0943e+01	9.0906	15.062102	0.000274	2.741764	0.464467	0.000027
 916	9.1043e+01	9.0967	15.091431	0.000295	2.946373	0.499129	0.000029
 917	9.1142e+01	9.1103	15.117500	0.000262	2.618998	0.443670	0.000026
 918	9.1242e+01	9.1217	15.143978	0.000266	2.659920	0.450603	0.000027
 919	9.1341e+01	9.1291	15.175343	0.000315	3.150982	0.533791	0.000032
 920	9.1441e+01	9.1385	15.205894	0.000307	3.069139	0.519926	0.000031
 921	9.1540e+01	9.1494	15.231149	0.000254	2.537155	0.429806	0.000025
 922	9.1639e+01	9.1584	15.258441	0.000274	2.741764	0.464467	0.000027
 923	9.1739e+01	9.1676	15.287770	0.000295	2.946373	0.499129	0.000029
 924	9.1838e+01	9.1773	15.316691	0.000291	2.905451	0.492197	0.000029
 925	9.1938e+01	9.1901	15.346427	0.000299	2.987295	0.506061	0.000030
 926	9.2037e+01	9.1982	15.373312	0.000270	2.700842	0.457535	0.000027
 927	9.2137e+01	9.2106	15.402233	0.000291	2.905451	0.492197	0.000029
 928	9.2237e+01	9.2188	15.430747	0.000286	2.864529	0.485264	0.000029
 929	9.2336e+01	9.2291	15.456002	0.000254	2.537155	0.429806	0.000025
 930	9.2436e+01	9.2412	15.484923	0.000291	2.905451	0.492197	0.000029
 931	9.2535e+01	9.2493	15.508549	0.000237	2.373467	0.402076	0.000024
 932	9.2635e+01	9.2583	15.539507	0.000311	3.110060	0.526858	0.000031
 933	9.2734e+01	9.2686	15.565985	0.000266	2.659920	0.450603	0.000027
 934	9.2834e+01	9.2812	15.592055	0.000262	2.618998	0.443670	0.000026
 935	9.2933e+01	9.2920	15.621791	0.000299	2.987295	0.506061	0.000030
 936	9.3032e+01	9.2988	15.645824	0.000241	2.414389	0.409009	0.000024
 937	9.3132e+01	9.3092	15.678004	0.000323	3.232826	0.547656	0.000032
 938	9.3231e+01	9.3182	15.704074	0.000262	2.618998	0.443670	0.000026
 939	9.3331e+01	9.3281	15.731366	0.000274	2.741764	0.464467	0.000027
 940	9.3430e+01	9.3385	15.762324	0.000311	3.110060	0.526858	0.000031
 941	9.3530e+01	9.3481	15.787579	0.000254	2.537155	0.429806	0.000025
 942	9.3629e+01	9.3585	15.817722	0.000303	3.028217	0.512994	0.000030
 943	9.3729e+01	9.3678	15.844607	0.000270	2.700842	0.457535	0.000027
 944	9.3829e+01	9.3799	15.875158	0.000307	3.069139	0.519926	0.000031
 945	9.3928e+01	9.3891	15.901635	0.000266	2.659920	0.450603	0.000027
 946	9.4028e+01	9.3976	15.927297	0.000258	2.578076	0.436738	0.000026
 947	9.4127e+01	9.4067	15.957441	0.000303	3.028217	0.512994	0.000030
 948	9.4227e+01	9.4159	15.987991	0.000307	3.069139	0.519926	0.000031
 949	9.4326e+01	9.4271	16.015283	0.000274	2.741764	0.464467	0.000027
 950	9.4425e+01	9.4357	16.048686	0.000336	3.355592	0.568453	0.000034
 951	9.4525e+01	9.4484	16.073941	0.000254	2.537155	0.429806	0.000025
 952	9.4624e+01	9.4556	16.106935	0.000331	3.314670	0.561520	0.000033
 953	9.4724e+01	9.4687	16.133413	0.000266	2.659920	0.450603	0.000027
 954	9.4823e+01	9.4784	16.166000	0.000327	3.273748	0.554588	0.000033
 955	9.4923e+01	9.4917	16.194921	0.000291	2.905451	0.492197	0.000029
 956	9.5022e+01	9.4980	16.223843	0.000291	2.905451	0.492197	0.000029
 957	9.5122e+01	9.5087	16.253579	0.000299	2.987295	0.506061	0.000030
 958	9.5222e+01	9.5153	16.282907	0.000295	2.946373	0.499129	0.000029
 959	9.5321e+01	9.5254	16.312643	0.000299	2.987295	0.506061	0.000030
 960	9.5421e+01	9.5389	16.339121	0.000266	2.659920	0.450603	0.000027
 961	9.5520e+01	9.5471	16.369671	0.000307	3.069139	0.519926	0.000031
 962	9.5620e+01	9.5569	16.395741	0.000262	2.618998	0.443670	0.000026
 963	9.5719e+01	9.5703	16.426699	0.000311	3.110060	0.526858	0.000031
 964	9.5819e+01	9.5765	16.456435	0.000299	2.987295	0.506061	0.000030
 965	9.5918e+01	9.5854	16.487801	0.000315	3.150982	0.533791	0.000032
 966	9.6017e+01	9.5986	16.513056	0.000254	2.537155	0.429806	0.000025
 967	9.6117e+01	9.6066	16.540755	0.000278	2.782686	0.471400	0.000028
 968	9.6216e+01	9.6145	16.568862	0.000282	2.823607	0.478332	0.000028
 969	9.6316e+01	9.6259	16.600227	0.000315	3.150982	0.533791	0.000032
 970	9.6415e+01	9.6362	16.627519	0.000274	2.741764	0.464467	0.000027
 971	9.6515e+01	9.6467	16.659699	0.000323	3.232826	0.547656	0.000032
 972	9.6615e+01	9.6566	16.688621	0.000291	2.905451	0.492197	0.000029
 973	9.6714e+01	9.6651	16.713876	0.000254	2.537155	0.429806	0.000025
 974	9.6814e+01	9.6777	16.746871	0.000331	3.314670	0.561520	0.000033
 975	9.6913e+01	9.6887	16.773348	0.000266	2.659920	0.450603	0.000027
 976	9.7013e+01	9.6965	16.803084	0.000299	2.987295	0.506061	0.000030
 977	9.7112e+01	9.7074	16.833635	0.000307	3.069139	0.519926	0.000031
 978	9.7212e+01	9.7161	16.864593	0.000311	3.110060	0.526858	0.000031
 979	9.7311e+01	9.7260	16.893514	0.000291	2.905451	0.492197	0.000029
 980	9.7410e+01	9.7378	16.922028	0.000286	2.864529	0.485264	0.000029
 981	9.7510e+01	9.7472	16.950135	0.000282	2.823607	0.478332	0.000028
 982	9.7609e+01	9.7562	16.980278	0.000303	3.028217	0.512994	0.000030
 983	9.7709e+01	9.7682	17.007977	0.000278	2.782686	0.471400	0.000028
 984	9.7808e+01	9.7735	17.034862	0.000270	2.700842	0.457535	0.000027
 985	9.7908e+01	9.7876	17.065413	0.000307	3.069139	0.519926	0.000031
 986	9.8007e+01	9.7955	17.098407	0.000331	3.314670	0.561520	0.000033
 987	9.8107e+01	9.8057	17.127736	0.000295	2.946373	0.499129	0.000029
 988	9.8207e+01	9.8145	17.157065	0.000295	2.946373	0.499129	0.000029
 989	9.8306e+01	9.8254	17.187615	0.000307	3.069139	0.519926	0.000031
 990	9.8406e+01	9.8378	17.218981	0.000315	3.150982	0.533791	0.000032
 991	9.8505e+01	9.8465	17.245865	0.000270	2.700842	0.457535	0.000027
 992	9.8605e+01	9.8536	17.273565	0.000278	2.782686	0.471400	0.000028
 993	9.8704e+01	9.8651	17.300857	0.000274	2.741764	0.464467	0.000027
 994	9.8803e+01	9.8743	17.331000	0.000303	3.028217	0.512994	0.000030
 995	9.8903e+01	9.8847	17.358292	0.000274	2.741764	0.464467	0.000027
 996	9.9002e+01	9.8956	17.388843	0.000307	3.069139	0.519926	0.000031
 997	9.9102e+01	9.9063	17.420208	0.000315	3.150982	0.533791	0.000032
 998	9.9201e+01	9.9146	17.449537	0.000295	2.946373	0.499129	0.000029
 999	9.9301e+01	9.9252	17.478458	0.000291	2.905451	0.492197	0.000029
1000	9.9400e+01	9.9323	17.509416	0.000311	3.110060	0.526858	0.000031
1001	9.9500e+01	9.9442	17.539967	0.000307	3.069139	0.519926	0.000031
1002	9.9600e+01	9.9552	17.570925	0.000311	3.110060	0.526858	0.000031
1003	9.9699e+01	9.9647	17.597402	0.000266	2.659920	0.450603	0.000027
1004	9.9799e+01	9.9756	17.630397	0.000331	3.314670	0.561520	0.000033
1005	9.9898e+01	9.9860	17.660540	0.000303	3.028217	0.512994	0.000030
1006	9.9998e+01	9.9976	17.687832	0.000274	2.741764	0.464467	0.000027
1007	1.0010e+02	9.9881	17.676019	0.000119	1.186734	0.201038	-0.000012
1008	1.0020e+02	9.9746	17.654430	0.000217	2.168858	0.367414	-0.000022
1009	1.0030e+02	9.9641	17.637729	0.000168	1.677796	0.284226	-0.000017
1010	1.0040e+02	9.9530	17.618584	0.000192	1.923327	0.325820	-0.000019
1011	1.0050e+02	9.9445	17.600253	0.000184	1.841483	0.311956	-0.000018
1012	1.0059e+02	9.9342	17.583960	0.000164	1.636874	0.277294	-0.000016
1013	1.0069e+02	9.9239	17.568481	0.000156	1.555030	0.263429	-0.000016
1014	1.0079e+02	9.9133	17.554631	0.000139	1.391343	0.235700	-0.000014
1015	1.0089e+02	9.9078	17.533856	0.000209	2.087014	0.353550	-0.000021
1016	1.0099e+02	9.8957	17.519192	0.000147	1.473187	0.249565	-0.000015
1017	1.0109e+02	9.8859	17.503306	0.000160	1.595952	0.270362	-0.000016
1018	1.0119e+02	9.8739	17.487419	0.000160	1.595952	0.270362	-0.000016
1019	1.0129e+02	9.8672	17.471126	0.000164	1.636874	0.277294	-0.000016
1020	1.0139e+02	9.8540	17.453610	0.000176	1.759639	0.298091	-0.000018
1021	1.0149e+02	9.8480	17.434872	0.000188	1.882405	0.318888	-0.000019
1022	1.0159e+02	9.8352	17.413283	0.000217	2.168858	0.367414	-0.000022
1023	1.0169e+02	9.8249	17.396582	0.000168	1.677796	0.284226	-0.000017
1024	1.0179e+02	9.8145	17.374178	0.000225	2.250702	0.381279	-0.000023
1025	1.0189e+02	9.8074	17.356662	0.000176	1.759639	0.298091	-0.000018
1026	1.0199e+02	9.7961	17.339147	0.000176	1.759639	0.298091	-0.000018
1027	1.0209e+02	9.7858	17.317558	0.000217	2.168858	0.367414	-0.000022
1028	1.0219e+02	9.7764	17.300042	0.000176	1.759639	0.298091	-0.000018
1029	1.0229e+02	9.7659	17.282119	0.000180	1.800561	0.305023	-0.000018
1030	1.0239e+02	9.7559	17.262159	0.000201	2.005171	0.339685	-0.000020
1031	1.0248e+02	9.7428	17.243829	0.000184	1.841483	0.311956	-0.000018
1032	1.0258e+02	9.7412	17.223461	0.000205	2.046092	0.346617	-0.000020
1033	1.0268e+02	9.7250	17.204316	0.000192	1.923327	0.325820	-0.000019
1034	1.0278e+02	9.7181	17.182727	0.000217	2.168858	0.367414	-0.000022
1035	1.0288e+02	9.7087	17.162360	0.000205	2.046092	0.346617	-0.000020
1036	1.0298e+02	9.6964	17.139549	0.000229	2.291623	0.388212	-0.000023
1037	1.0308e+02	9.6859	17.121218	0.000184	1.841483	0.311956	-0.000018
1038	1.0318e+02	9.6760	17.093927	0.000274	2.741764	0.464467	-0.000027
1039	1.0328e+02	9.6670	17.075596	0.000184	1.841483	0.311956	-0.000018
1040	1.0338e+02	9.6576	17.055636	0.000201	2.005171	0.339685	-0.000020
1041	1.0348e+02	9.6454	17.033640	0.000221	2.209780	0.374347	-0.000022
1042	1.0358e+02	9.6345	17.012051	0.000217	2.168858	0.367414	-0.000022
1043	1.0368e+02	9.6289	16.988425	0.000237	2.373467	0.402076	-0.000024
1044	1.0378e+02	9.6155	16.970502	0.000180	1.800561	0.305023	-0.000018
1045	1.0388e+02	9.6062	16.948505	0.000221	2.209780	0.374347	-0.000022
1046	1.0398e+02	9.5960	16.929360	0.000192	1.923327	0.325820	-0.000019
1047	1.0408e+02	9.5858	16.905327	0.000241	2.414389	0.409009	-0.000024
1048	1.0418e+02	9.5759	16.880886	0.000246	2.455311	0.415941	-0.000025
1049	1.0428e+02	9.5657	16.865000	0.000160	1.595952	0.270362	-0.000016
1050	1.0438e+02	9.5560	16.844226	0.000209	2.087014	0.353550	-0.000021
1051	1.0447e+02	9.5508	16.818970	0.000254	2.537155	0.429806	-0.000025
1052	1.0457e+02	9.5380	16.797381	0.000217	2.168858	0.367414	-0.000022
1053	1.0467e+02	9.5253	16.776199	0.000213	2.127936	0.360482	-0.000021
1054	1.0477e+02	9.5154	16.755832	0.000205	2.046092	0.346617	-0.000020
1055	1.0487e+02	9.5104	16.735465	0.000205	2.046092	0.346617	-0.000020
1056	1.0497e+02	9.4959	16.715098	0.000205	2.046092	0.346617	-0.000020
1057	1.0507e+02	9.4891	16.694323	0.000209	2.087014	0.353550	-0.000021
1058	1.0517e+02	9.4790	16.671512	0.000229	2.291623	0.388212	-0.000023
1059	1.0527e+02	9.4678	16.651145	0.000205	2.046092	0.346617	-0.000020
1060	1.0537e+02	9.4582	16.628334	0.000229	2.291623	0.388212	-0.000023
1061	1.0547e+02	9.4490	16.608782	0.000196	1.964249	0.332753	-0.000020
1062	1.0557e+02	9.4377	16.589229	0.000196	1.964249	0.332753	-0.000020
1063	1.0567e+02	9.4287	16.562344	0.000270	2.700842	0.457535	-0.000027
1064	1.0577e+02	9.4196	16.542385	0.000201	2.005171	0.339685	-0.000020
1065	1.0587e+02	9.4075	16.521203	0.000213	2.127936	0.360482	-0.000021
1066	1.0597e+02	9.3977	16.501243	0.000201	2.005171	0.339685	-0.000020
1067	1.0607e+02	9.3888	16.475988	0.000254	2.537155	0.429806	-0.000025
1068	1.0617e+02	9.3777	16.458472	0.000176	1.759639	0.298091	-0.000018
1069	1.0627e+02	9.3701	16.431995	0.000266	2.659920	0.450603	-0.000027
1070	1.0637e+02	9.3610	16.409591	0.000225	2.250702	0.381279	-0.000023
1071	1.0647e+02	9.3467	16.390853	0.000188	1.882405	0.318888	-0.000019
1072	1.0656e+02	9.3378	16.366413	0.000246	2.455311	0.415941	-0.000025
1073	1.0666e+02	9.3272	16.344009	0.000225	2.250702	0.381279	-0.000023
1074	1.0676e+02	9.3166	16.318346	0.000258	2.578076	0.436738	-0.000026
1075	1.0686e+02	9.3076	16.301238	0.000172	1.718718	0.291159	-0.000017
1076	1.0696e+02	9.2981	16.279649	0.000217	2.168858	0.367414	-0.000022
1077	1.0706e+02	9.2887	16.252764	0.000270	2.700842	0.457535	-0.000027
1078	1.0716e+02	9.2776	16.231582	0.000213	2.127936	0.360482	-0.000021
1079	1.0726e+02	9.2670	16.211623	0.000201	2.005171	0.339685	-0.000020
1080	1.0736e+02	9.2597	16.189219	0.000225	2.250702	0.381279	-0.000023
1081	1.0746e+02	9.2480	16.167222	0.000221	2.209780	0.374347	-0.000022
1082	1.0756e+02	9.2386	16.146448	0.000209	2.087014	0.353550	-0.000021
1083	1.0766e+02	9.2287	16.124859	0.000217	2.168858	0.367414	-0.000022
1084	1.0776e+02	9.2188	16.096752	0.000282	2.823607	0.478332	-0.000028
1085	1.0786e+02	9.2097	16.075163	0.000217	2.168858	0.367414	-0.000022
1086	1.0796e+02	9.2018	16.052352	0.000229	2.291623	0.388212	-0.000023
1087	1.0806e+02	9.1882	16.030355	0.000221	2.209780	0.374347	-0.000022
1088	1.0816e+02	9.1790	16.007137	0.000233	2.332545	0.395144	-0.000023
1089	1.0826e+02	9.1692	15.984325	0.000229	2.291623	0.388212	-0.000023
1090	1.0836e+02	9.1577	15.961922	0.000225	2.250702	0.381279	-0.000023
1091	1.0845e+02	9.1523	15.939518	0.000225	2.250702	0.381279	-0.000023
1092	1.0855e+02	9.1396	15.918336	0.000213	2.127936	0.360482	-0.000021
1093	1.0865e+02	9.1288	15.896339	0.000221	2.209780	0.374347	-0.000022
1094	1.0875e+02	9.1194	15.873528	0.000229	2.291623	0.388212	-0.000023
1095	1.0885e+02	9.1102	15.850717	0.000229	2.291623	0.388212	-0.000023
1096	1.0895e+02	9.0991	15.825054	0.000258	2.578076	0.436738	-0.000026
1097	1.0905e+02	9.0897	15.801836	0.000233	2.332545	0.395144	-0.000023
1098	1.0915e+02	9.0796	15.780654	0.000213	2.127936	0.360482	-0.000021
1099	1.0925e+02	9.0686	15.756214	0.000246	2.455311	0.415941	-0.000025
1100	1.0935e+02	9.0606	15.729329	0.000270	2.700842	0.457535	-0.000027
1101	1.0945e+02	9.0495	15.705703	0.000237	2.373467	0.402076	-0.000024
1102	1.0955e+02	9.0405	15.678818	0.000270	2.700842	0.457535	-0.000027
1103	1.0965e+02	9.0308	15.656822	0.000221	2.209780	0.374347	-0.000022
1104	1.0975e+02	9.0189	15.631567	0.000254	2.537155	0.429806	-0.000025
1105	1.0985e+02	9.0125	15.607534	0.000241	2.414389	0.409009	-0.000024
1106	1.0995e+02	8.9990	15.588388	0.000192	1.923327	0.325820	-0.000019
1107	1.1005e+02	8.9893	15.563948	0.000246	2.455311	0.415941	-0.000025
1108	1.1015e+02	8.9808	15.541951	0.000221	2.209780	0.374347	-0.000022
1109	1.1025e+02	8.9679	15.515067	0.000270	2.700842	0.457535	-0.000027
1110	1.1035e+02	8.9591	15.494292	0.000209	2.087014	0.353550	-0.000021
1111	1.1044e+02	8.9514	15.471481	0.000229	2.291623	0.388212	-0.000023
1112	1.1054e+02	8.9391	15.443782	0.000278	2.782686	0.471400	-0.000028
1113	1.1064e+02	8.9326	15.420156	0.000237	2.373467	0.402076	-0.000024
1114	1.1074e+02	8.9185	15.396123	0.000241	2.414389	0.409009	-0.000024
1115	1.1084e+02	8.9122	15.374126	0.000221	2.209780	0.374347	-0.000022
1116	1.1094e+02	8.8989	15.352130	0.000221	2.209780	0.374347	-0.000022
1117	1.1104e+02	8.8892	15.328911	0.000233	2.332545	0.395144	-0.000023
1118	1.1114e+02	8.8790	15.308544	0.000205	2.046092	0.346617	-0.000020
1119	1.1124e+02	8.8724	15.283289	0.000254	2.537155	0.429806	-0.000025
1120	1.1134e+02	8.8636	15.263736	0.000196	1.964249	0.332753	-0.000020
1121	1.1144e+02	8.8510	15.240518	0.000233	2.332545	0.395144	-0.000023
1122	1.1154e+02	8.8428	15.214855	0.000258	2.578076	0.436738	-0.000026
1123	1.1164e+02	8.8332	15.192859	0.000221	2.209780	0.374347	-0.000022
1124	1.1174e+02	8.8236	15.172084	0.000209	2.087014	0.353550	-0.000021
1125	1.1184e+02	8.8122	15.149273	0.000229	2.291623	0.388212	-0.000023
1126	1.1194e+02	8.8000	15.126055	0.000233	2.332545	0.395144	-0.000023
1127	1.1204e+02	8.7907	15.104058	0.000221	2.209780	0.374347	-0.000022
1128	1.1214e+02	8.7813	15.080840	0.000233	2.332545	0.395144	-0.000023
1129	1.1224e+02	8.7708	15.057621	0.000233	2.332545	0.395144	-0.000023
1130	1.1234e+02	8.7623	15.034403	0.000233	2.332545	0.395144	-0.000023
1131	1.1244e+02	8.7512	15.009147	0.000254	2.537155	0.429806	-0.000025
1132	1.1253e+02	8.7436	14.981855	0.000274	2.741764	0.464467	-0.000027
1133	1.1263e+02	8.7294	14.962710	0.000192	1.923327	0.325820	-0.000019
1134	1.1273e+02	8.7214	14.938270	0.000246	2.455311	0.415941	-0.000025
1135	1.1283e+02	8.7112	14.913014	0.000254	2.537155	0.429806	-0.000025
1136	1.1293e+02	8.7040	14.888574	0.000246	2.455311	0.415941	-0.000025
1137	1.1303e+02	8.6933	14.865763	0.000229	2.291623	0.388212	-0.000023
1138	1.1313e+02	8.6806	14.839693	0.000262	2.618998	0.443670	-0.000026
1139	1.1323e+02	8.6694	14.816882	0.000229	2.291623	0.388212	-0.000023
1140	1.1333e+02	8.6614	14.788368	0.000286	2.864529	0.485264	-0.000029
1141	1.1343e+02	8.6529	14.767593	0.000209	2.087014	0.353550	-0.000021
1142	1.1353e+02	8.6395	14.745189	0.000225	2.250702	0.381279	-0.000023
1143	1.1363e+02	8.6328	14.720749	0.000246	2.455311	0.415941	-0.000025
1144	1.1373e+02	8.6234	14.695901	0.000250	2.496233	0.422873	-0.000025
1145	1.1383e+02	8.6145	14.671868	0.000241	2.414389	0.409009	-0.000024
1146	1.1393e+02	8.6025	14.649057	0.000229	2.291623	0.388212	-0.000023
1147	1.1403e+02	8.5935	14.625838	0.000233	2.332545	0.395144	-0.000023
1148	1.1413e+02	8.5848	14.599768	0.000262	2.618998	0.443670	-0.000026
1149	1.1423e+02	8.5735	14.571661	0.000282	2.823607	0.478332	-0.000028
1150	1.1433e+02	8.5653	14.550480	0.000213	2.127936	0.360482	-0.000021
1151	1.1442e+02	8.5524	14.524002	0.000266	2.659920	0.450603	-0.000027
1152	1.1452e+02	8.5435	14.504450	0.000196	1.964249	0.332753	-0.000020
1153	1.1462e+02	8.5348	14.477158	0.000274	2.741764	0.464467	-0.000027
1154	1.1472e+02	8.5248	14.455976	0.000213	2.127936	0.360482	-0.000021
1155	1.1482e+02	8.5152	14.429499	0.000266	2.659920	0.450603	-0.000027
1156	1.1492e+02	8.5034	14.405466	0.000241	2.414389	0.409009	-0.000024
1157	1.1502e+02	8.4940	14.382247	0.000233	2.332545	0.395144	-0.000023
1158	1.1512e+02	8.4826	14.358621	0.000237	2.373467	0.402076	-0.000024
1159	1.1522e+02	8.4760	14.328071	0.000307	3.069139	0.519926	-0.000031
1160	1.1532e+02	8.4628	14.308518	0.000196	1.964249	0.332753	-0.000020
1161	1.1542e+02	8.4543	14.280004	0.000286	2.864529	0.485264	-0.000029
1162	1.1552e+02	8.4416	14.255971	0.000241	2.414389	0.409009	-0.000024
1163	1.1562e+02	8.4338	14.231123	0.000250	2.496233	0.422873	-0.000025
1164	1.1572e+02	8.4241	14.205460	0.000258	2.578076	0.436738	-0.000026
1165	1.1582e+02	8.4116	14.179391	0.000262	2.618998	0.443670	-0.000026
1166	1.1592e+02	8.4043	14.158616	0.000209	2.087014	0.353550	-0.000021
1167	1.1602e+02	8.3922	14.134176	0.000246	2.455311	0.415941	-0.000025
1168	1.1612e+02	8.3838	14.110957	0.000233	2.332545	0.395144	-0.000023
1169	1.1622e+02	8.3734	14.085294	0.000258	2.578076	0.436738	-0.000026
1170	1.1632e+02	8.3652	14.057595	0.000278	2.782686	0.471400	-0.000028
1171	1.1642e+02	8.3524	14.034784	0.000229	2.291623	0.388212	-0.000023
1172	1.1651e+02	8.3450	14.008307	0.000266	2.659920	0.450603	-0.000027
1173	1.1661e+02	8.3363	13.984681	0.000237	2.373467	0.402076	-0.000024
1174	1.1671e+02	8.3234	13.956982	0.000278	2.782686	0.471400	-0.000028
1175	1.1681e+02	8.3155	13.933356	0.000237	2.373467	0.402076	-0.000024
1176	1.1691e+02	8.3032	13.904434	0.000291	2.905451	0.492197	-0.000029
1177	1.1701e+02	8.2951	13.878772	0.000258	2.578076	0.436738	-0.000026
1178	1.1711e+02	8.2886	13.855553	0.000233	2.332545	0.395144	-0.000023
1179	1.1721e+02	8.2735	13.830298	0.000254	2.537155	0.429806	-0.000025
1180	1.1731e+02	8.2634	13.803413	0.000270	2.700842	0.457535	-0.000027
1181	1.1741e+02	8.2540	13.780195	0.000233	2.332545	0.395144	-0.000023
1182	1.1751e+02	8.2444	13.757384	0.000229	2.291623	0.388212	-0.000023
1183	1.1761e+02	8.2361	13.737017	0.000205	2.046092	0.346617	-0.000020
1184	1.1771e+02	8.2244	13.711354	0.000258	2.578076	0.436738	-0.000026
1185	1.1781e+02	8.2160	13.691394	0.000201	2.005171	0.339685	-0.000020
1186	1.1791e+02	8.2063	13.662066	0.000295	2.946373	0.499129	-0.000029
1187	1.1801e+02	8.1950	13.638847	0.000233	2.332545	0.395144	-0.000023
1188	1.1811e+02	8.1862	13.611962	0.000270	2.700842	0.457535	-0.000027
1189	1.1821e+02	8.1752	13.587929	0.000241	2.414389	0.409009	-0.000024
1190	1.1831e+02	8.1692	13.562267	0.000258	2.578076	0.436738	-0.000026
1191	1.1841e+02	8.1536	13.534975	0.000274	2.741764	0.464467	-0.000027
1192	1.1850e+02	8.1461	13.511349	0.000237	2.373467	0.402076	-0.000024
1193	1.1860e+02	8.1336	13.484871	0.000266	2.659920	0.450603	-0.000027
1194	1.1870e+02	8.1231	13.457172	0.000278	2.782686	0.471400	-0.000028
1195	1.1880e+02	8.1177	13.435583	0.000217	2.168858	0.367414	-0.000022
1196	1.1890e+02	8.1058	13.407884	0.000278	2.782686	0.471400	-0.000028
1197	1.1900e+02	8.0939	13.384665	0.000233	2.332545	0.395144	-0.000023
1198	1.1910e+02	8.0849	13.355337	0.000295	2.946373	0.499129	-0.000029
1199	1.1920e+02	8.0769	13.330896	0.000246	2.455311	0.415941	-0.000025
1200	1.1930e+02	8.0647	13.306048	0.000250	2.496233	0.422873	-0.000025
1201	1.1940e+02	8.0581	13.282422	0.000237	2.373467	0.402076	-0.000024
1202	1.1950e+02	8.0440	13.252279	0.000303	3.028217	0.512994	-0.000030
1203	1.1960e+02	8.0359	13.227838	0.000246	2.455311	0.415941	-0.000025
1204	1.1970e+02	8.0258	13.198102	0.000299	2.987295	0.506061	-0.000030
1205	1.1980e+02	8.0178	13.171625	0.000266	2.659920	0.450603	-0.000027
1206	1.1990e+02	8.0054	13.143518	0.000282	2.823607	0.478332	-0.000028
1207	1.2000e+02	7.9948	13.116226	0.000274	2.741764	0.464467	-0.000027
1208	1.2010e+02	7.9834	13.093008	0.000233	2.332545	0.395144	-0.000023
1209	1.2020e+02	7.9771	13.068975	0.000241	2.414389	0.409009	-0.000024
1210	1.2030e+02	7.9668	13.040461	0.000286	2.864529	0.485264	-0.000029
1211	1.2039e+02	7.9556	13.012354	0.000282	2.823607	0.478332	-0.000028
1212	1.2049e+02	7.9443	12.989136	0.000233	2.332545	0.395144	-0.000023
1213	1.2059e+02	7.9349	12.958178	0.000311	3.110060	0.526858	-0.000031
1214	1.2069e+02	7.9261	12.933737	0.000246	2.455311	0.415941	-0.000025
1215	1.2079e+02	7.9174	12.905630	0.000282	2.823607	0.478332	-0.000028
1216	1.2089e+02	7.9063	12.879968	0.000258	2.578076	0.436738	-0.000026
1217	1.2099e+02	7.8947	12.854305	0.000258	2.578076	0.436738	-0.000026
1218	1.2109e+02	7.8869	12.829865	0.000246	2.455311	0.415941	-0.000025
1219	1.2119e+02	7.8763	12.802165	0.000278	2.782686	0.471400	-0.000028
1220	1.2129e+02	7.8663	12.776503	0.000258	2.578076	0.436738	-0.000026
1221	1.2139e+02	7.8553	12.753284	0.000233	2.332545	0.395144	-0.000023
1222	1.2149e+02	7.8485	12.720290	0.000331	3.314670	0.561520	-0.000033
1223	1.2159e+02	7.8387	12.697478	0.000229	2.291623	0.388212	-0.000023
1224	1.2169e+02	7.8297	12.670186	0.000274	2.741764	0.464467	-0.000027
1225	1.2179e+02	7.8148	12.643709	0.000266	2.659920	0.450603	-0.000027
1226	1.2189e+02	7.8076	12.616417	0.000274	2.741764	0.464467	-0.000027
1227	1.2199e+02	7.7979	12.592791	0.000237	2.373467	0.402076	-0.000024
1228	1.2209e+02	7.7897	12.566314	0.000266	2.659920	0.450603	-0.000027
1229	1.2219e+02	7.7750	12.541059	0.000254	2.537155	0.429806	-0.000025
1230	1.2229e+02	7.7687	12.515396	0.000258	2.578076	0.436738	-0.000026
1231	1.2239e+02	7.7563	12.493400	0.000221	2.209780	0.374347	-0.000022
1232	1.2248e+02	7.7466	12.460405	0.000331	3.314670	0.561520	-0.000033
1233	1.2258e+02	7.7359	12.435557	0.000250	2.496233	0.422873	-0.000025
1234	1.2268e+02	7.7274	12.410302	0.000254	2.537155	0.429806	-0.000025
1235	1.2278e+02	7.7181	12.383417	0.000270	2.700842	0.457535	-0.000027
1236	1.2288e+02	7.7054	12.354496	0.000291	2.905451	0.492197	-0.000029
1237	1.2298e+02	7.6981	12.328019	0.000266	2.659920	0.450603	-0.000027
1238	1.2308e+02	7.6858	12.299505	0.000286	2.864529	0.485264	-0.000029
1239	1.2318e+02	7.6751	12.271805	0.000278	2.782686	0.471400	-0.000028
1240	1.2328e+02	7.6676	12.245735	0.000262	2.618998	0.443670	-0.000026
1241	1.2338e+02	7.6582	12.221295	0.000246	2.455311	0.415941	-0.000025
1242	1.2348e+02	7.6498	12.196447	0.000250	2.496233	0.422873	-0.000025
1243	1.2358e+02	7.6392	12.167118	0.000295	2.946373	0.499129	-0.000029
1244	1.2368e+02	7.6261	12.139419	0.000278	2.782686	0.471400	-0.000028
1245	1.2378e+02	7.6196	12.112942	0.000266	2.659920	0.450603	-0.000027
1246	1.2388e+02	7.6080	12.089723	0.000233	2.332545	0.395144	-0.000023
1247	1.2398e+02	7.5988	12.061617	0.000282	2.823607	0.478332	-0.000028
1248	1.2408e+02	7.5852	12.034732	0.000270	2.700842	0.457535	-0.000027
1249	1.2418e+02	7.5759	12.009069	0.000258	2.578076	0.436738	-0.000026
1250	1.2428e+02	7.5684	11.983814	0.000254	2.537155	0.429806	-0.000025
1251	1.2438e+02	7.5578	11.956115	0.000278	2.782686	0.471400	-0.000028
1252	1.2447e+02	7.5483	11.926379	0.000299	2.987295	0.506061	-0.000030
1253	1.2457e+02	7.5359	11.902346	0.000241	2.414389	0.409009	-0.000024
1254	1.2467e+02	7.5278	11.871795	0.000307	3.069139	0.519926	-0.000031
1255	1.2477e+02	7.5188	11.850613	0.000213	2.127936	0.360482	-0.000021
1256	1.2487e+02	7.5085	11.818433	0.000323	3.232826	0.547656	-0.000032
1257	1.2497e+02	7.4976	11.794807	0.000237	2.373467	0.402076	-0.000024
1258	1.2507e+02	7.4883	11.769552	0.000254	2.537155	0.429806	-0.000025
1259	1.2517e+02	7.4792	11.741445	0.000282	2.823607	0.478332	-0.000028
1260	1.2527e+02	7.4680	11.714968	0.000266	2.659920	0.450603	-0.000027
1261	1.2537e+02	7.4575	11.688898	0.000262	2.618998	0.443670	-0.000026
1262	1.2547e+02	7.4483	11.661199	0.000278	2.782686	0.471400	-0.000028
1263	1.2557e+02	7.4372	11.634314	0.000270	2.700842	0.457535	-0.000027
1264	1.2567e+02	7.4281	11.608244	0.000262	2.618998	0.443670	-0.000026
1265	1.2577e+02	7.4187	11.577286	0.000311	3.110060	0.526858	-0.000031
1266	1.2587e+02	7.4088	11.553253	0.000241	2.414389	0.409009	-0.000024
1267	1.2597e+02	7.4004	11.523517	0.000299	2.987295	0.506061	-0.000030
1268	1.2607e+02	7.3901	11.493781	0.000299	2.987295	0.506061	-0.000030
1269	1.2617e+02	7.3788	11.464045	0.000299	2.987295	0.506061	-0.000030
1270	1.2627e+02	7.3682	11.437975	0.000262	2.618998	0.443670	-0.000026
1271	1.2636e+02	7.3609	11.409461	0.000286	2.864529	0.485264	-0.000029
1272	1.2646e+02	7.3486	11.380133	0.000295	2.946373	0.499129	-0.000029
1273	1.2656e+02	7.3392	11.355285	0.000250	2.496233	0.422873	-0.000025
1274	1.2666e+02	7.3277	11.326363	0.000291	2.905451	0.492197	-0.000029
1275	1.2676e+02	7.3195	11.300701	0.000258	2.578076	0.436738	-0.000026
1276	1.2686e+02	7.3096	11.275853	0.000250	2.496233	0.422873	-0.000025
1277	1.2696e+02	7.2998	11.247746	0.000282	2.823607	0.478332	-0.000028
1278	1.2706e+02	7.2892	11.222084	0.000258	2.578076	0.436738	-0.000026
1279	1.2716e+02	7.2775	11.191533	0.000307	3.069139	0.519926	-0.000031
1280	1.2726e+02	7.2705	11.163426	0.000282	2.823607	0.478332	-0.000028
1281	1.2736e+02	7.2619	11.136949	0.000266	2.659920	0.450603	-0.000027
1282	1.2746e+02	7.2490	11.107213	0.000299	2.987295	0.506061	-0.000030
1283	1.2756e+02	7.2423	11.079106	0.000282	2.823607	0.478332	-0.000028
1284	1.2766e+02	7.2292	11.057110	0.000221	2.209780	0.374347	-0.000022
1285	1.2776e+02	7.2202	11.026967	0.000303	3.028217	0.512994	-0.000030
1286	1.2786e+02	7.2100	11.001304	0.000258	2.578076	0.436738	-0.000026
1287	1.2796e+02	7.1995	10.974827	0.000266	2.659920	0.450603	-0.000027
1288	1.2806e+02	7.1900	10.952830	0.000221	2.209780	0.374347	-0.000022
1289	1.2816e+02	7.1764	10.926353	0.000266	2.659920	0.450603	-0.000027
1290	1.2826e+02	7.1703	10.896617	0.000299	2.987295	0.506061	-0.000030
1291	1.2835e+02	7.1591	10.873806	0.000229	2.291623	0.388212	-0.000023
1292	1.2845e+02	7.1518	10.846514	0.000274	2.741764	0.464467	-0.000027
1293	1.2855e+02	7.1412	10.817185	0.000295	2.946373	0.499129	-0.000029
1294	1.2865e+02	7.1303	10.790301	0.000270	2.700842	0.457535	-0.000027
1295	1.2875e+02	7.1217	10.763416	0.000270	2.700842	0.457535	-0.000027
1296	1.2885e+02	7.1120	10.734495	0.000291	2.905451	0.492197	-0.000029
1297	1.2895e+02	7.0980	10.708017	0.000266	2.659920	0.450603	-0.000027
1298	1.2905e+02	7.0898	10.679096	0.000291	2.905451	0.492197	-0.000029
1299	1.2915e+02	7.0797	10.650175	0.000291	2.905451	0.492197	-0.000029
1300	1.2925e+02	7.0734	10.626141	0.000241	2.414389	0.409009	-0.000024
1301	1.2935e+02	7.0600	10.595183	0.000311	3.110060	0.526858	-0.000031
1302	1.2945e+02	7.0487	10.569928	0.000254	2.537155	0.429806	-0.000025
1303	1.2955e+02	7.0403	10.540600	0.000295	2.946373	0.499129	-0.000029
1304	1.2965e+02	7.0289	10.516159	0.000246	2.455311	0.415941	-0.000025
1305	1.2975e+02	7.0201	10.488460	0.000278	2.782686	0.471400	-0.000028
1306	1.2985e+02	7.0079	10.459131	0.000295	2.946373	0.499129	-0.000029
1307	1.2995e+02	6.9997	10.430617	0.000286	2.864529	0.485264	-0.000029
1308	1.3005e+02	6.9910	10.402510	0.000282	2.823607	0.478332	-0.000028
1309	1.3015e+02	6.9820	10.378070	0.000246	2.455311	0.415941	-0.000025
1310	1.3025e+02	6.9717	10.349963	0.000282	2.823607	0.478332	-0.000028
1311	1.3034e+02	6.9609	10.320227	0.000299	2.987295	0.506061	-0.000030
1312	1.3044e+02	6.9504	10.292121	0.000282	2.823607	0.478332	-0.000028
1313	1.3054e+02	6.9425	10.266458	0.000258	2.578076	0.436738	-0.000026
1314	1.3064e+02	6.9306	10.238351	0.000282	2.823607	0.478332	-0.000028
1315	1.3074e+02	6.9227	10.208208	0.000303	3.028217	0.512994	-0.000030
1316	1.3084e+02	6.9153	10.179287	0.000291	2.905451	0.492197	-0.000029
1317	1.3094e+02	6.9006	10.153624	0.000258	2.578076	0.436738	-0.000026
1318	1.3104e+02	6.8941	10.126740	0.000270	2.700842	0.457535	-0.000027
1319	1.3114e+02	6.8804	10.099448	0.000274	2.741764	0.464467	-0.000027
1320	1.3124e+02	6.8730	10.073378	0.000262	2.618998	0.443670	-0.000026
1321	1.3134e+02	6.8644	10.043234	0.000303	3.028217	0.512994	-0.000030
1322	1.3144e+02	6.8506	10.015128	0.000282	2.823607	0.478332	-0.000028
1323	1.3154e+02	6.8421	9.989872	0.000254	2.537155	0.429806	-0.000025
1324	1.3164e+02	6.8320	9.962580	0.000274	2.741764	0.464467	-0.000027
1325	1.3174e+02	6.8230	9.932437	0.000303	3.028217	0.512994	-0.000030
1326	1.3184e+02	6.8096	9.904738	0.000278	2.782686	0.471400	-0.000028
1327	1.3194e+02	6.8011	9.875002	0.000299	2.987295	0.506061	-0.000030
1328	1.3204e+02	6.7901	9.845266	0.000299	2.987295	0.506061	-0.000030
1329	1.3214e+02	6.7806	9.813900	0.000315	3.150982	0.533791	-0.000032
1330	1.3224e+02	6.7699	9.787423	0.000266	2.659920	0.450603	-0.000027
1331	1.3234e+02	6.7638	9.757687	0.000299	2.987295	0.506061	-0.000030
1332	1.3243e+02	6.7513	9.732025	0.000258	2.578076	0.436738	-0.000026
1333	1.3253e+02	6.7455	9.702696	0.000295	2.946373	0.499129	-0.000029
1334	1.3263e+02	6.7316	9.674589	0.000282	2.823607	0.478332	-0.000028
1335	1.3273e+02	6.7246	9.647705	0.000270	2.700842	0.457535	-0.000027
1336	1.3283e+02	6.7109	9.616339	0.000315	3.150982	0.533791	-0.000032
1337	1.3293e+02	6.7015	9.589047	0.000274	2.741764	0.464467	-0.000027
1338	1.3303e+02	6.6910	9.560533	0.000286	2.864529	0.485264	-0.000029
1339	1.3313e+02	6.6799	9.532427	0.000282	2.823607	0.478332	-0.000028
1340	1.3323e+02	6.6729	9.505949	0.000266	2.659920	0.450603	-0.000027
1341	1.3333e+02	6.6604	9.476213	0.000299	2.987295	0.506061	-0.000030
1342	1.3343e+02	6.6505	9.447699	0.000286	2.864529	0.485264	-0.000029
1343	1.3353e+02	6.6413	9.419593	0.000282	2.823607	0.478332	-0.000028
1344	1.3363e+02	6.6325	9.389857	0.000299	2.987295	0.506061	-0.000030
1345	1.3373e+02	6.6222	9.356455	0.000336	3.355592	0.568453	-0.000034
1346	1.3383e+02	6.6115	9.334051	0.000225	2.250702	0.381279	-0.000023
1347	1.3393e+02	6.6020	9.305537	0.000286	2.864529	0.485264	-0.000029
1348	1.3403e+02	6.5914	9.273764	0.000319	3.191904	0.540723	-0.000032
1349	1.3413e+02	6.5836	9.247694	0.000262	2.618998	0.443670	-0.000026
1350	1.3423e+02	6.5719	9.218773	0.000291	2.905451	0.492197	-0.000029
1351	1.3432e+02	6.5635	9.194332	0.000246	2.455311	0.415941	-0.000025
1352	1.3442e+02	6.5540	9.165004	0.000295	2.946373	0.499129	-0.000029
1353	1.3452e+02	6.5432	9.138119	0.000270	2.700842	0.457535	-0.000027
1354	1.3462e+02	6.5303	9.111235	0.000270	2.700842	0.457535	-0.000027
1355	1.3472e+02	6.5231	9.081091	0.000303	3.028217	0.512994	-0.000030
1356	1.3482e+02	6.5141	9.053799	0.000274	2.741764	0.464467	-0.000027
1357	1.3492e+02	6.5030	9.026507	0.000274	2.741764	0.464467	-0.000027
1358	1.3502e+02	6.4928	8.995549	0.000311	3.110060	0.526858	-0.000031
1359	1.3512e+02	6.4825	8.964999	0.000307	3.069139	0.519926	-0.000031
1360	1.3522e+02	6.4746	8.935263	0.000299	2.987295	0.506061	-0.000030
1361	1.3532e+02	6.4640	8.905527	0.000299	2.987295	0.506061	-0.000030
1362	1.3542e+02	6.4515	8.877827	0.000278	2.782686	0.471400	-0.000028
1363	1.3552e+02	6.4449	8.849721	0.000282	2.823607	0.478332	-0.000028
1364	1.3562e+02	6.4340	8.818763	0.000311	3.110060	0.526858	-0.000031
1365	1.3572e+02	6.4258	8.795951	0.000229	2.291623	0.388212	-0.000023
1366	1.3582e+02	6.4121	8.763771	0.000323	3.232826	0.547656	-0.000032
1367	1.3592e+02	6.4017	8.732406	0.000315	3.150982	0.533791	-0.000032
1368	1.3602e+02	6.3950	8.706743	0.000258	2.578076	0.436738	-0.000026
1369	1.3612e+02	6.3850	8.674563	0.000323	3.232826	0.547656	-0.000032
1370	1.3622e+02	6.3702	8.644013	0.000307	3.069139	0.519926	-0.000031
1371	1.3631e+02	6.3650	8.610611	0.000336	3.355592	0.568453	-0.000034
1372	1.3641e+02	6.3542	8.581689	0.000291	2.905451	0.492197	-0.000029
1373	1.3651e+02	6.3428	8.549916	0.000319	3.191904	0.540723	-0.000032
1374	1.3661e+02	6.3354	8.518958	0.000311	3.110060	0.526858	-0.000031
1375	1.3671e+02	6.3214	8.489630	0.000295	2.946373	0.499129	-0.000029
1376	1.3681e+02	6.3177	8.459894	0.000299	2.987295	0.506061	-0.000030
1377	1.3691e+02	6.3042	8.428936	0.000311	3.110060	0.526858	-0.000031
1378	1.3701e+02	6.2934	8.402866	0.000262	2.618998	0.443670	-0.000026
1379	1.3711e+02	6.2852	8.372315	0.000307	3.069139	0.519926	-0.000031
1380	1.3721e+02	6.2727	8.340542	0.000319	3.191904	0.540723	-0.000032
1381	1.3731e+02	6.2656	8.314472	0.000262	2.618998	0.443670	-0.000026
1382	1.3741e+02	6.2606	8.285551	0.000291	2.905451	0.492197	-0.000029
1383	1.3751e+02	6.2460	8.252149	0.000336	3.355592	0.568453	-0.000034
1384	1.3761e+02	6.2377	8.223228	0.000291	2.905451	0.492197	-0.000029
1385	1.3771e+02	6.2252	8.192677	0.000307	3.069139	0.519926	-0.000031
1386	1.3781e+02	6.2144	8.163348	0.000295	2.946373	0.499129	-0.000029
1387	1.3791e+02	6.2059	8.136871	0.000266	2.659920	0.450603	-0.000027
1388	1.3801e+02	6.1935	8.106728	0.000303	3.028217	0.512994	-0.000030
1389	1.3811e+02	6.1860	8.076992	0.000299	2.987295	0.506061	-0.000030
1390	1.3821e+02	6.1721	8.048478	0.000286	2.864529	0.485264	-0.000029
1391	1.3831e+02	6.1666	8.015076	0.000336	3.355592	0.568453	-0.000034
1392	1.3840e+02	6.1558	7.986969	0.000282	2.823607	0.478332	-0.000028
1393	1.3850e+02	6.1465	7.957640	0.000295	2.946373	0.499129	-0.000029
1394	1.3860e+02	6.1339	7.925460	0.000323	3.232826	0.547656	-0.000032
1395	1.3870e+02	6.1266	7.894910	0.000307	3.069139	0.519926	-0.000031
1396	1.3880e+02	6.1158	7.864766	0.000303	3.028217	0.512994	-0.000030
1397	1.3890e+02	6.1060	7.832586	0.000323	3.232826	0.547656	-0.000032
1398	1.3900e+02	6.0939	7.804887	0.000278	2.782686	0.471400	-0.000028
1399	1.3910e+02	6.0860	7.776780	0.000282	2.823607	0.478332	-0.000028
1400	1.3920e+02	6.0745	7.746230	0.000307	3.069139	0.519926	-0.000031
1401	1.3930e+02	6.0650	7.715272	0.000311	3.110060	0.526858	-0.000031
1402	1.3940e+02	6.0549	7.686758	0.000286	2.864529	0.485264	-0.000029
1403	1.3950e+02	6.0464	7.659466	0.000274	2.741764	0.464467	-0.000027
1404	1.3960e+02	6.0335	7.626878	0.000327	3.273748	0.554588	-0.000033
1405	1.3970e+02	6.0275	7.595106	0.000319	3.191904	0.540723	-0.000032
1406	1.3980e+02	6.0171	7.564148	0.000311	3.110060	0.526858	-0.000031
1407	1.3990e+02	6.0051	7.533189	0.000311	3.110060	0.526858	-0.000031
1408	1.4000e+02	5.9969	7.500602	0.000327	3.273748	0.554588	-0.000033
1409	1.4010e+02	5.9843	7.472903	0.000278	2.782686	0.471400	-0.000028
1410	1.4020e+02	5.9748	7.446426	0.000266	2.659920	0.450603	-0.000027
1411	1.4029e+02	5.9673	7.413023	0.000336	3.355592	0.568453	-0.000034
1412	1.4039e+02	5.9576	7.383695	0.000295	2.946373	0.499129	-0.000029
1413	1.4049e+02	5.9466	7.352329	0.000315	3.150982	0.533791	-0.000032
1414	1.4059e+02	5.9377	7.325852	0.000266	2.659920	0.450603	-0.000027
1415	1.4069e+02	5.9255	7.292857	0.000331	3.314670	0.561520	-0.000033
1416	1.4079e+02	5.9172	7.261085	0.000319	3.191904	0.540723	-0.000032
1417	1.4089e+02	5.9058	7.235015	0.000262	2.618998	0.443670	-0.000026
1418	1.4099e+02	5.8968	7.203649	0.000315	3.150982	0.533791	-0.000032
1419	1.4109e+02	5.8857	7.169840	0.000340	3.396513	0.575385	-0.000034
1420	1.4119e+02	5.8797	7.141326	0.000286	2.864529	0.485264	-0.000029
1421	1.4129e+02	5.8692	7.110775	0.000307	3.069139	0.519926	-0.000031
1422	1.4139e+02	5.8572	7.078188	0.000327	3.273748	0.554588	-0.000033
1423	1.4149e+02	5.8465	7.050489	0.000278	2.782686	0.471400	-0.000028
1424	1.4159e+02	5.8373	7.018716	0.000319	3.191904	0.540723	-0.000032
1425	1.4169e+02	5.8265	6.990202	0.000286	2.864529	0.485264	-0.000029
1426	1.4179e+02	5.8178	6.958429	0.000319	3.191904	0.540723	-0.000032
1427	1.4189e+02	5.8089	6.930730	0.000278	2.782686	0.471400	-0.000028
1428	1.4199e+02	5.7967	6.898142	0.000327	3.273748	0.554588	-0.000033
1429	1.4209e+02	5.7862	6.865962	0.000323	3.232826	0.547656	-0.000032
1430	1.4219e+02	5.7771	6.837448	0.000286	2.864529	0.485264	-0.000029
1431	1.4228e+02	5.7677	6.809342	0.000282	2.823607	0.478332	-0.000028
1432	1.4238e+02	5.7577	6.775940	0.000336	3.355592	0.568453	-0.000034
1433	1.4248e+02	5.7484	6.744167	0.000319	3.191904	0.540723	-0.000032
1434	1.4258e+02	5.7362	6.712802	0.000315	3.150982	0.533791	-0.000032
1435	1.4268e+02	5.7273	6.678177	0.000348	3.478357	0.589250	-0.000035
1436	1.4278e+02	5.7180	6.646405	0.000319	3.191904	0.540723	-0.000032
1437	1.4288e+02	5.7049	6.613003	0.000336	3.355592	0.568453	-0.000034
1438	1.4298e+02	5.6968	6.584896	0.000282	2.823607	0.478332	-0.000028
1439	1.4308e+02	5.6881	6.553531	0.000315	3.150982	0.533791	-0.000032
1440	1.4318e+02	5.6768	6.518907	0.000348	3.478357	0.589250	-0.000035
1441	1.4328e+02	5.6641	6.489578	0.000295	2.946373	0.499129	-0.000029
1442	1.4338e+02	5.6579	6.459027	0.000307	3.069139	0.519926	-0.000031
1443	1.4348e+02	5.6503	6.430513	0.000286	2.864529	0.485264	-0.000029
1444	1.4358e+02	5.6371	6.397926	0.000327	3.273748	0.554588	-0.000033
1445	1.4368e+02	5.6281	6.368190	0.000299	2.987295	0.506061	-0.000030
1446	1.4378e+02	5.6164	6.339676	0.000286	2.864529	0.485264	-0.000029
1447	1.4388e+02	5.6078	6.302200	0.000376	3.764810	0.637776	-0.000038
1448	1.4398e+02	5.5994	6.278574	0.000237	2.373467	0.402076	-0.000024
1449	1.4408e+02	5.5865	6.240692	0.000381	3.805732	0.644708	-0.000038
1450	1.4418e+02	5.5772	6.216658	0.000241	2.414389	0.409009	-0.000024
1451	1.4428e+02	5.5691	6.181220	0.000356	3.560201	0.603114	-0.000036
1452	1.4437e+02	5.5578	6.149854	0.000315	3.150982	0.533791	-0.000032
1453	1.4447e+02	5.5453	6.122970	0.000270	2.700842	0.457535	-0.000027
1454	1.4457e+02	5.5364	6.092826	0.000303	3.028217	0.512994	-0.000030
1455	1.4467e+02	5.5267	6.061461	0.000315	3.150982	0.533791	-0.000032
1456	1.4477e+02	5.5171	6.030910	0.000307	3.069139	0.519926	-0.000031
1457	1.4487e+02	5.5091	6.003618	0.000274	2.741764	0.464467	-0.000027
1458	1.4497e+02	5.4990	5.971438	0.000323	3.232826	0.547656	-0.000032
1459	1.4507e+02	5.4870	5.939258	0.000323	3.232826	0.547656	-0.000032
1460	1.4517e+02	5.4780	5.913595	0.000258	2.578076	0.436738	-0.000026
1461	1.4527e+02	5.4721	5.880601	0.000331	3.314670	0.561520	-0.000033
1462	1.4537e+02	5.4591	5.850865	0.000299	2.987295	0.506061	-0.000030
1463	1.4547e+02	5.4473	5.817055	0.000340	3.396513	0.575385	-0.000034
1464	1.4557e+02	5.4385	5.784468	0.000327	3.273748	0.554588	-0.000033
1465	1.4567e+02	5.4296	5.755547	0.000291	2.905451	0.492197	-0.000029
1466	1.4577e+02	5.4197	5.721737	0.000340	3.396513	0.575385	-0.000034
1467	1.4587e+02	5.4098	5.694445	0.000274	2.741764	0.464467	-0.000027
1468	1.4597e+02	5.4021	5.663895	0.000307	3.069139	0.519926	-0.000031
1469	1.4607e+02	5.3882	5.630492	0.000336	3.355592	0.568453	-0.000034
1470	1.4617e+02	5.3819	5.599127	0.000315	3.150982	0.533791	-0.000032
1471	1.4626e+02	5.3718	5.566540	0.000327	3.273748	0.554588	-0.000033
1472	1.4636e+02	5.3579	5.534767	0.000319	3.191904	0.540723	-0.000032
1473	1.4646e+02	5.3510	5.505031	0.000299	2.987295	0.506061	-0.000030
1474	1.4656e+02	5.3407	5.469999	0.000352	3.519279	0.596182	-0.000035
1475	1.4666e+02	5.3329	5.440263	0.000299	2.987295	0.506061	-0.000030
1476	1.4676e+02	5.3168	5.408083	0.000323	3.232826	0.547656	-0.000032
1477	1.4686e+02	5.3070	5.377125	0.000311	3.110060	0.526858	-0.000031
1478	1.4696e+02	5.2998	5.351463	0.000258	2.578076	0.436738	-0.000026
1479	1.4706e+02	5.2895	5.313580	0.000381	3.805732	0.644708	-0.000038
1480	1.4716e+02	5.2773	5.282622	0.000311	3.110060	0.526858	-0.000031
1481	1.4726e+02	5.2711	5.253701	0.000291	2.905451	0.492197	-0.000029
1482	1.4736e+02	5.2613	5.221113	0.000327	3.273748	0.554588	-0.000033
1483	1.4746e+02	5.2479	5.186489	0.000348	3.478357	0.589250	-0.000035
1484	1.4756e+02	5.2392	5.152680	0.000340	3.396513	0.575385	-0.000034
1485	1.4766e+02	5.2306	5.125795	0.000270	2.700842	0.457535	-0.000027
1486	1.4776e+02	5.2187	5.091171	0.000348	3.478357	0.589250	-0.000035
1487	1.4786e+02	5.2081	5.058991	0.000323	3.232826	0.547656	-0.000032
1488	1.4796e+02	5.1986	5.030069	0.000291	2.905451	0.492197	-0.000029
1489	1.4806e+02	5.1920	4.997889	0.000323	3.232826	0.547656	-0.000032
1490	1.4816e+02	5.1786	4.967746	0.000303	3.028217	0.512994	-0.000030
1491	1.4825e+02	5.1699	4.931493	0.000364	3.642044	0.616979	-0.000036
1492	1.4835e+02	5.1592	4.905423	0.000262	2.618998	0.443670	-0.000026
1493	1.4845e+02	5.1502	4.871206	0.000344	3.437435	0.582317	-0.000034
1494	1.4855e+02	5.1415	4.839433	0.000319	3.191904	0.540723	-0.000032
1495	1.4865e+02	5.1275	4.805216	0.000344	3.437435	0.582317	-0.000034
1496	1.4875e+02	5.1215	4.777517	0.000278	2.782686	0.471400	-0.000028
1497	1.4885e+02	5.1084	4.741671	0.000360	3.601123	0.610047	-0.000036
1498	1.4895e+02	5.1017	4.711120	0.000307	3.069139	0.519926	-0.000031
1499	1.4905e+02	5.0880	4.677311	0.000340	3.396513	0.575385	-0.000034
1500	1.4915e+02	5.0823	4.645945	0.000315	3.150982	0.533791	-0.000032
1501	1.4925e+02	5.0710	4.614580	0.000315	3.150982	0.533791	-0.000032
1502	1.4935e+02	5.0616	4.583622	0.000311	3.110060	0.526858	-0.000031
1503	1.4945e+02	5.0506	4.546147	0.000376	3.764810	0.637776	-0.000038
1504	1.4955e+02	5.0405	4.516411	0.000299	2.987295	0.506061	-0.000030
1505	1.4965e+02	5.0307	4.484230	0.000323	3.232826	0.547656	-0.000032
1506	1.4975e+02	5.0209	4.454087	0.000303	3.028217	0.512994	-0.000030
1507	1.4985e+02	5.0124	4.421092	0.000331	3.314670	0.561520	-0.000033
1508	1.4995e+02	5.0039	4.381987	0.000393	3.928497	0.665505	-0.000039
1509	1.5005e+02	4.9903	4.355918	0.000262	2.618998	0.443670	-0.000026
1510	1.5015e+02	4.9822	4.321701	0.000344	3.437435	0.582317	-0.000034
1511	1.5025e+02	4.9706	4.289521	0.000323	3.232826	0.547656	-0.000032
1512	1.5034e+02	4.9624	4.256119	0.000336	3.355592	0.568453	-0.000034
1513	1.5044e+02	4.9506	4.222309	0.000340	3.396513	0.575385	-0.000034
1514	1.5054e+02	4.9398	4.189314	0.000331	3.314670	0.561520	-0.000033
1515	1.5064e+02	4.9279	4.156320	0.000331	3.314670	0.561520	-0.000033
1516	1.5074e+02	4.9213	4.124547	0.000319	3.191904	0.540723	-0.000032
1517	1.5084e+02	4.9106	4.092774	0.000319	3.191904	0.540723	-0.000032
1518	1.5094e+02	4.9037	4.063446	0.000295	2.946373	0.499129	-0.000029
1519	1.5104e+02	4.8920	4.034117	0.000295	2.946373	0.499129	-0.000029
1520	1.5114e+02	4.8823	3.999493	0.000348	3.478357	0.589250	-0.000035
1521	1.5124e+02	4.8736	3.968535	0.000311	3.110060	0.526858	-0.000031
1522	1.5134e+02	4.8595	3.939206	0.000295	2.946373	0.499129	-0.000029
1523	1.5144e+02	4.8510	3.909063	0.000303	3.028217	0.512994	-0.000030
1524	1.5154e+02	4.8444	3.875661	0.000336	3.355592	0.568453	-0.000034
1525	1.5164e+02	4.8321	3.838593	0.000372	3.723888	0.630844	-0.000037
1526	1.5174e+02	4.8251	3.806820	0.000319	3.191904	0.540723	-0.000032
1527	1.5184e+02	4.8179	3.773010	0.000340	3.396513	0.575385	-0.000034
1528	1.5194e+02	4.8034	3.740016	0.000331	3.314670	0.561520	-0.000033
1529	1.5204e+02	4.7923	3.704169	0.000360	3.601123	0.610047	-0.000036
1530	1.5214e+02	4.7852	3.671175	0.000331	3.314670	0.561520	-0.000033
1531	1.5224e+02	4.7732	3.643068	0.000282	2.823607	0.478332	-0.000028
1532	1.5233e+02	4.7608	3.611703	0.000315	3.150982	0.533791	-0.000032
1533	1.5243e+02	4.7532	3.578301	0.000336	3.355592	0.568453	-0.000034
1534	1.5253e+02	4.7419	3.542862	0.000356	3.560201	0.603114	-0.000036
1535	1.5263e+02	4.7342	3.510274	0.000327	3.273748	0.554588	-0.000033
1536	1.5273e+02	4.7218	3.475243	0.000352	3.519279	0.596182	-0.000035
1537	1.5283e+02	4.7141	3.441841	0.000336	3.355592	0.568453	-0.000034
1538	1.5293e+02	4.7047	3.407624	0.000344	3.437435	0.582317	-0.000034
1539	1.5303e+02	4.6935	3.372593	0.000352	3.519279	0.596182	-0.000035
1540	1.5313e+02	4.6835	3.337154	0.000356	3.560201	0.603114	-0.000036
1541	1.5323e+02	4.6719	3.302937	0.000344	3.437435	0.582317	-0.000034
1542	1.5333e+02	4.6616	3.268720	0.000344	3.437435	0.582317	-0.000034
1543	1.5343e+02	4.6534	3.237355	0.000315	3.150982	0.533791	-0.000032
1544	1.5353e+02	4.6415	3.198657	0.000389	3.887576	0.658573	-0.000039
1545	1.5363e+02	4.6324	3.164441	0.000344	3.437435	0.582317	-0.000034
1546	1.5373e+02	4.6229	3.129816	0.000348	3.478357	0.589250	-0.000035
1547	1.5383e+02	4.6138	3.098451	0.000315	3.150982	0.533791	-0.000032
1548	1.5393e+02	4.6043	3.065864	0.000327	3.273748	0.554588	-0.000033
1549	1.5403e+02	4.5943	3.027166	0.000389	3.887576	0.658573	-0.000039
1550	1.5413e+02	4.5834	2.994579	0.000327	3.273748	0.554588	-0.000033
1551	1.5422e+02	4.5729	2.962399	0.000323	3.232826	0.547656	-0.000032
1552	1.5432e+02	4.5621	2.925331	0.000372	3.723888	0.630844	-0.000037
1553	1.5442e+02	4.5502	2.894780	0.000307	3.069139	0.519926	-0.000031
1554	1.5452e+02	4.5448	2.860156	0.000348	3.478357	0.589250	-0.000035
1555	1.5462e+02	4.5304	2.827568	0.000327	3.273748	0.554588	-0.000033
1556	1.5472e+02	4.5229	2.793352	0.000344	3.437435	0.582317	-0.000034
1557	1.5482e+02	4.5131	2.757913	0.000356	3.560201	0.603114	-0.000036
1558	1.5492e+02	4.5045	2.726547	0.000315	3.150982	0.533791	-0.000032
1559	1.5502e+02	4.4958	2.689479	0.000372	3.723888	0.630844	-0.000037
1560	1.5512e+02	4.4822	2.655262	0.000344	3.437435	0.582317	-0.000034
1561	1.5522e+02	4.4735	2.622268	0.000331	3.314670	0.561520	-0.000033
1562	1.5532e+02	4.4624	2.591310	0.000311	3.110060	0.526858	-0.000031
1563	1.5542e+02	4.4527	2.551390	0.000401	4.010341	0.679370	-0.000040
1564	1.5552e+02	4.4433	2.521654	0.000299	2.987295	0.506061	-0.000030
1565	1.5562e+02	4.4341	2.483771	0.000381	3.805732	0.644708	-0.000038
1566	1.5572e+02	4.4235	2.451591	0.000323	3.232826	0.547656	-0.000032
1567	1.5582e+02	4.4167	2.418596	0.000331	3.314670	0.561520	-0.000033
1568	1.5592e+02	4.4022	2.385194	0.000336	3.355592	0.568453	-0.000034
1569	1.5602e+02	4.3947	2.348941	0.000364	3.642044	0.616979	-0.000036
1570	1.5612e+02	4.3832	2.314724	0.000344	3.437435	0.582317	-0.000034
1571	1.5622e+02	4.3734	2.282544	0.000323	3.232826	0.547656	-0.000032
1572	1.5631e+02	4.3618	2.246698	0.000360	3.601123	0.610047	-0.000036
1573	1.5641e+02	4.3549	2.213703	0.000331	3.314670	0.561520	-0.000033
1574	1.5651e+02	4.3439	2.173784	0.000401	4.010341	0.679370	-0.000040
1575	1.5661e+02	4.3336	2.144048	0.000299	2.987295	0.506061	-0.000030
1576	1.5671e+02	4.3260	2.111460	0.000327	3.273748	0.554588	-0.000033
1577	1.5681e+02	4.3142	2.069911	0.000417	4.174028	0.707100	-0.000042
1578	1.5691e+02	4.3017	2.039768	0.000303	3.028217	0.512994	-0.000030
1579	1.5701e+02	4.2932	2.007588	0.000323	3.232826	0.547656	-0.000032
1580	1.5711e+02	4.2834	1.970112	0.000376	3.764810	0.637776	-0.000038
1581	1.5721e+02	4.2754	1.939154	0.000311	3.110060	0.526858	-0.000031
1582	1.5731e+02	4.2642	1.906159	0.000331	3.314670	0.561520	-0.000033
1583	1.5741e+02	4.2560	1.869499	0.000368	3.682966	0.623911	-0.000037
1584	1.5751e+02	4.2442	1.839763	0.000299	2.987295	0.506061	-0.000030
1585	1.5761e+02	4.2344	1.799843	0.000401	4.010341	0.679370	-0.000040
1586	1.5771e+02	4.2249	1.765219	0.000348	3.478357	0.589250	-0.000035
1587	1.5781e+02	4.2147	1.728558	0.000368	3.682966	0.623911	-0.000037
1588	1.5791e+02	4.2062	1.693119	0.000356	3.560201	0.603114	-0.000036
1589	1.5801e+02	4.1940	1.658495	0.000348	3.478357	0.589250	-0.000035
1590	1.5811e+02	4.1827	1.621427	0.000372	3.723888	0.630844	-0.000037
1591	1.5821e+02	4.1723	1.589654	0.000319	3.191904	0.540723	-0.000032
1592	1.5830e+02	4.1662	1.556252	0.000336	3.355592	0.568453	-0.000034
1593	1.5840e+02	4.1558	1.523665	0.000327	3.273748	0.554588	-0.000033
1594	1.5850e+02	4.1467	1.485782	0.000381	3.805732	0.644708	-0.000038
1595	1.5860e+02	4.1337	1.450750	0.000352	3.519279	0.596182	-0.000035
1596	1.5870e+02	4.1274	1.417756	0.000331	3.314670	0.561520	-0.000033
1597	1.5880e+02	4.1144	1.383132	0.000348	3.478357	0.589250	-0.000035
1598	1.5890e+02	4.1069	1.348508	0.000348	3.478357	0.589250	-0.000035
1599	1.5900e+02	4.0955	1.313883	0.000348	3.478357	0.589250	-0.000035
1600	1.5910e+02	4.0842	1.271520	0.000426	4.255872	0.720964	-0.000043
1601	1.5920e+02	4.0767	1.239747	0.000319	3.191904	0.540723	-0.000032
1602	1.5930e+02	4.0643	1.205530	0.000344	3.437435	0.582317	-0.000034
1603	1.5940e+02	4.0553	1.168869	0.000368	3.682966	0.623911	-0.000037
1604	1.5950e+02	4.0447	1.132616	0.000364	3.642044	0.616979	-0.000036
1605	1.5960e+02	4.0360	1.095140	0.000376	3.764810	0.637776	-0.000038
1606	1.5970e+02	4.0244	1.057258	0.000381	3.805732	0.644708	-0.000038
1607	1.5980e+02	4.0163	1.021004	0.000364	3.642044	0.616979	-0.000036
1608	1.5990e+02	4.0038	0.987195	0.000340	3.396513	0.575385	-0.000034
1609	1.6000e+02	3.9938	0.950534	0.000368	3.682966	0.623911	-0.000037
1610	1.6010e+02	3.9834	0.915502	0.000352	3.519279	0.596182	-0.000035
1611	1.6019e+02	3.9762	0.883322	0.000323	3.232826	0.547656	-0.000032
1612	1.6029e+02	3.9674	0.849513	0.000340	3.396513	0.575385	-0.000034
1613	1.6039e+02	3.9561	0.817740	0.000319	3.191904	0.540723	-0.000032
1614	1.6049e+02	3.9481	0.777821	0.000401	4.010341	0.679370	-0.000040
1615	1.6059e+02	3.9378	0.742382	0.000356	3.560201	0.603114	-0.000036
1616	1.6069e+02	3.9256	0.707350	0.000352	3.519279	0.596182	-0.000035
1617	1.6079e+02	3.9156	0.666209	0.000413	4.133107	0.700167	-0.000041
1618	1.6089e+02	3.9074	0.631585	0.000348	3.478357	0.589250	-0.000035
1619	1.6099e+02	3.8976	0.599405	0.000323	3.232826	0.547656	-0.000032
1620	1.6109e+02	3.8868	0.562336	0.000372	3.723888	0.630844	-0.000037
1621	1.6119e+02	3.8787	0.531378	0.000311	3.110060	0.526858	-0.000031
1622	1.6129e+02	3.8673	0.495125	0.000364	3.642044	0.616979	-0.000036
1623	1.6139e+02	3.8548	0.464982	0.000303	3.028217	0.512994	-0.000030
1624	1.6149e+02	3.8485	0.426284	0.000389	3.887576	0.658573	-0.000039
1625	1.6159e+02	3.8351	0.388401	0.000381	3.805732	0.644708	-0.000038
1626	1.6169e+02	3.8280	0.356628	0.000319	3.191904	0.540723	-0.000032
1627	1.6179e+02	3.8158	0.324041	0.000327	3.273748	0.554588	-0.000033
1628	1.6189e+02	3.8085	0.284121	0.000401	4.010341	0.679370	-0.000040
1629	1.6199e+02	3.7979	0.250719	0.000336	3.355592	0.568453	-0.000034
1630	1.6209e+02	3.7891	0.216095	0.000348	3.478357	0.589250	-0.000035
1631	1.6219e+02	3.7794	0.182693	0.000336	3.355592	0.568453	-0.000034
1632	1.6228e+02	3.7687	0.143588	0.000393	3.928497	0.665505	-0.000039
1633	1.6238e+02	3.7588	0.113038	0.000307	3.069139	0.519926	-0.000031
1634	1.6248e+02	3.7498	0.079228	0.000340	3.396513	0.575385	-0.000034
1635	1.6258e+02	3.7380	0.038901	0.000405	4.051263	0.686303	-0.000041
1636	1.6268e+02	3.7280	0.005906	0.000331	3.314670	0.561520	-0.000033
1637	1.6278e+02	3.7199	-0.033606	0.000397	3.969419	0.672438	-0.000040
1638	1.6288e+02	3.7086	-0.069859	0.000364	3.642044	0.616979	-0.000036
1639	1.6298e+02	3.6971	-0.106113	0.000364	3.642044	0.616979	-0.000036
1640	1.6308e+02	3.6882	-0.139107	0.000331	3.314670	0.561520	-0.000033
1641	1.6318e+02	3.6773	-0.175361	0.000364	3.642044	0.616979	-0.000036
1642	1.6328e+02	3.6732	-0.212836	0.000376	3.764810	0.637776	-0.000038
1643	1.6338e+02	3.6572	-0.249090	0.000364	3.642044	0.616979	-0.000036
1644	1.6348e+02	3.6501	-0.282085	0.000331	3.314670	0.561520	-0.000033
1645	1.6358e+02	3.6371	-0.323634	0.000417	4.174028	0.707100	-0.000042
1646	1.6368e+02	3.6262	-0.355814	0.000323	3.232826	0.547656	-0.000032
1647	1.6378e+02	3.6190	-0.392882	0.000372	3.723888	0.630844	-0.000037
1648	1.6388e+02	3.6101	-0.426691	0.000340	3.396513	0.575385	-0.000034
1649	1.6398e+02	3.5976	-0.466204	0.000397	3.969419	0.672438	-0.000040
1650	1.6408e+02	3.5876	-0.504494	0.000385	3.846654	0.651641	-0.000038
1651	1.6418e+02	3.5789	-0.537896	0.000336	3.355592	0.568453	-0.000034
1652	1.6427e+02	3.5684	-0.575371	0.000376	3.764810	0.637776	-0.000038
1653	1.6437e+02	3.5605	-0.613662	0.000385	3.846654	0.651641	-0.000038
1654	1.6447e+02	3.5506	-0.645842	0.000323	3.232826	0.547656	-0.000032
1655	1.6457e+02	3.5394	-0.684132	0.000385	3.846654	0.651641	-0.000038
1656	1.6467e+02	3.5285	-0.722015	0.000381	3.805732	0.644708	-0.000038
1657	1.6477e+02	3.5186	-0.757861	0.000360	3.601123	0.610047	-0.000036
1658	1.6487e+02	3.5089	-0.792892	0.000352	3.519279	0.596182	-0.000035
1659	1.6497e+02	3.4977	-0.828738	0.000360	3.601123	0.610047	-0.000036
1660	1.6507e+02	3.4885	-0.864585	0.000360	3.601123	0.610047	-0.000036
1661	1.6517e+02	3.4780	-0.900431	0.000360	3.601123	0.610047	-0.000036
1662	1.6527e+02	3.4705	-0.941165	0.000409	4.092185	0.693235	-0.000041
1663	1.6537e+02	3.4593	-0.978640	0.000376	3.764810	0.637776	-0.000038
1664	1.6547e+02	3.4473	-1.012857	0.000344	3.437435	0.582317	-0.000034
1665	1.6557e+02	3.4386	-1.048703	0.000360	3.601123	0.610047	-0.000036
1666	1.6567e+02	3.4290	-1.086586	0.000381	3.805732	0.644708	-0.000038
1667	1.6577e+02	3.4204	-1.126098	0.000397	3.969419	0.672438	-0.000040
1668	1.6587e+02	3.4069	-1.162759	0.000368	3.682966	0.623911	-0.000037
1669	1.6597e+02	3.3984	-1.199013	0.000364	3.642044	0.616979	-0.000036
1670	1.6607e+02	3.3891	-1.237710	0.000389	3.887576	0.658573	-0.000039
1671	1.6616e+02	3.3799	-1.272334	0.000348	3.478357	0.589250	-0.000035
1672	1.6626e+02	3.3691	-1.309403	0.000372	3.723888	0.630844	-0.000037
1673	1.6636e+02	3.3602	-1.347693	0.000385	3.846654	0.651641	-0.000038
1674	1.6646e+02	3.3524	-1.378244	0.000307	3.069139	0.519926	-0.000031
1675	1.6656e+02	3.3398	-1.420607	0.000426	4.255872	0.720964	-0.000043
1676	1.6666e+02	3.3294	-1.459305	0.000389	3.887576	0.658573	-0.000039
1677	1.6676e+02	3.3196	-1.497188	0.000381	3.805732	0.644708	-0.000038
1678	1.6686e+02	3.3068	-1.533848	0.000368	3.682966	0.623911	-0.000037
1679	1.6696e+02	3.2971	-1.570509	0.000368	3.682966	0.623911	-0.000037
1680	1.6706e+02	3.2935	-1.613688	0.000434	4.337716	0.734829	-0.000043
1681	1.6716e+02	3.2801	-1.646275	0.000327	3.273748	0.554588	-0.000033
1682	1.6726e+02	3.2694	-1.683750	0.000376	3.764810	0.637776	-0.000038
1683	1.6736e+02	3.2597	-1.719597	0.000360	3.601123	0.610047	-0.000036
1684	1.6746e+02	3.2516	-1.754221	0.000348	3.478357	0.589250	-0.000035
1685	1.6756e+02	3.2397	-1.794955	0.000409	4.092185	0.693235	-0.000041
1686	1.6766e+02	3.2287	-1.829172	0.000344	3.437435	0.582317	-0.000034
1687	1.6776e+02	3.2192	-1.868277	0.000393	3.928497	0.665505	-0.000039
1688	1.6786e+02	3.2097	-1.899235	0.000311	3.110060	0.526858	-0.000031
1689	1.6796e+02	3.1989	-1.939154	0.000401	4.010341	0.679370	-0.000040
1690	1.6806e+02	3.1906	-1.977852	0.000389	3.887576	0.658573	-0.000039
1691	1.6816e+02	3.1800	-2.011254	0.000336	3.355592	0.568453	-0.000034
1692	1.6825e+02	3.1709	-2.049544	0.000385	3.846654	0.651641	-0.000038
1693	1.6835e+02	3.1613	-2.087020	0.000376	3.764810	0.637776	-0.000038
1694	1.6845e+02	3.1487	-2.129791	0.000430	4.296794	0.727897	-0.000043
1695	1.6855e+02	3.1398	-2.165637	0.000360	3.601123	0.610047	-0.000036
1696	1.6865e+02	3.1310	-2.205964	0.000405	4.051263	0.686303	-0.000041
1697	1.6875e+02	3.1202	-2.242217	0.000364	3.642044	0.616979	-0.000036
1698	1.6885e+02	3.1118	-2.277656	0.000356	3.560201	0.603114	-0.000036
1699	1.6895e+02	3.1036	-2.316353	0.000389	3.887576	0.658573	-0.000039
1700	1.6905e+02	3.0895	-2.350978	0.000348	3.478357	0.589250	-0.000035
1701	1.6915e+02	3.0824	-2.389675	0.000389	3.887576	0.658573	-0.000039
1702	1.6925e+02	3.0729	-2.429595	0.000401	4.010341	0.679370	-0.000040
1703	1.6935e+02	3.0614	-2.470329	0.000409	4.092185	0.693235	-0.000041
1704	1.6945e+02	3.0527	-2.509026	0.000389	3.887576	0.658573	-0.000039
1705	1.6955e+02	3.0432	-2.546909	0.000381	3.805732	0.644708	-0.000038
1706	1.6965e+02	3.0299	-2.584385	0.000376	3.764810	0.637776	-0.000038
1707	1.6975e+02	3.0215	-2.627156	0.000430	4.296794	0.727897	-0.000043
1708	1.6985e+02	3.0116	-2.666261	0.000393	3.928497	0.665505	-0.000039
1709	1.6995e+02	3.0001	-2.705773	0.000397	3.969419	0.672438	-0.000040
1710	1.7005e+02	2.9906	-2.745692	0.000401	4.010341	0.679370	-0.000040
1711	1.7015e+02	2.9800	-2.783983	0.000385	3.846654	0.651641	-0.000038
1712	1.7024e+02	2.9694	-2.824717	0.000409	4.092185	0.693235	-0.000041
1713	1.7034e+02	2.9622	-2.859748	0.000352	3.519279	0.596182	-0.000035
1714	1.7044e+02	2.9516	-2.902927	0.000434	4.337716	0.734829	-0.000043
1715	1.7054e+02	2.9428	-2.939588	0.000368	3.682966	0.623911	-0.000037
1716	1.7064e+02	2.9309	-2.977470	0.000381	3.805732	0.644708	-0.000038
1717	1.7074e+02	2.9217	-3.019019	0.000417	4.174028	0.707100	-0.000042
1718	1.7084e+02	2.9105	-3.055273	0.000364	3.642044	0.616979	-0.000036
1719	1.7094e+02	2.9022	-3.093563	0.000385	3.846654	0.651641	-0.000038
1720	1.7104e+02	2.8897	-3.133075	0.000397	3.969419	0.672438	-0.000040
1721	1.7114e+02	2.8817	-3.170143	0.000372	3.723888	0.630844	-0.000037
1722	1.7124e+02	2.8716	-3.212507	0.000426	4.255872	0.720964	-0.000043
1723	1.7134e+02	2.8622	-3.252019	0.000397	3.969419	0.672438	-0.000040
1724	1.7144e+02	2.8514	-3.292346	0.000405	4.051263	0.686303	-0.000041
1725	1.7154e+02	2.8408	-3.326563	0.000344	3.437435	0.582317	-0.000034
1726	1.7164e+02	2.8321	-3.367705	0.000413	4.133107	0.700167	-0.000041
1727	1.7174e+02	2.8220	-3.406809	0.000393	3.928497	0.665505	-0.000039
1728	1.7184e+02	2.8097	-3.446322	0.000397	3.969419	0.672438	-0.000040
1729	1.7194e+02	2.8019	-3.483797	0.000376	3.764810	0.637776	-0.000038
1730	1.7204e+02	2.7935	-3.525346	0.000417	4.174028	0.707100	-0.000042
1731	1.7213e+02	2.7819	-3.560785	0.000356	3.560201	0.603114	-0.000036
1732	1.7223e+02	2.7696	-3.605185	0.000446	4.460481	0.755626	-0.000045
1733	1.7233e+02	2.7637	-3.643068	0.000381	3.805732	0.644708	-0.000038
1734	1.7243e+02	2.7512	-3.680544	0.000376	3.764810	0.637776	-0.000038
1735	1.7253e+02	2.7388	-3.720871	0.000405	4.051263	0.686303	-0.000041
1736	1.7263e+02	2.7319	-3.759161	0.000385	3.846654	0.651641	-0.000038
1737	1.7273e+02	2.7204	-3.800302	0.000413	4.133107	0.700167	-0.000041
1738	1.7283e+02	2.7116	-3.840222	0.000401	4.010341	0.679370	-0.000040
1739	1.7293e+02	2.7026	-3.879734	0.000397	3.969419	0.672438	-0.000040
1740	1.7303e+02	2.6920	-3.918024	0.000385	3.846654	0.651641	-0.000038
1741	1.7313e+02	2.6806	-3.955907	0.000381	3.805732	0.644708	-0.000038
1742	1.7323e+02	2.6718	-3.999900	0.000442	4.419560	0.748694	-0.000044
1743	1.7333e+02	2.6621	-4.041449	0.000417	4.174028	0.707100	-0.000042
1744	1.7343e+02	2.6530	-4.076073	0.000348	3.478357	0.589250	-0.000035
1745	1.7353e+02	2.6403	-4.116807	0.000409	4.092185	0.693235	-0.000041
1746	1.7363e+02	2.6340	-4.157542	0.000409	4.092185	0.693235	-0.000041
1747	1.7373e+02	2.6217	-4.195425	0.000381	3.805732	0.644708	-0.000038
1748	1.7383e+02	2.6156	-4.235752	0.000405	4.051263	0.686303	-0.000041
1749	1.7393e+02	2.6038	-4.273227	0.000376	3.764810	0.637776	-0.000038
1750	1.7403e+02	2.5897	-4.311925	0.000389	3.887576	0.658573	-0.000039
1751	1.7413e+02	2.5822	-4.355918	0.000442	4.419560	0.748694	-0.000044
1752	1.7422e+02	2.5744	-4.395430	0.000397	3.969419	0.672438	-0.000040
1753	1.7432e+02	2.5630	-4.429647	0.000344	3.437435	0.582317	-0.000034
1754	1.7442e+02	2.5522	-4.474047	0.000446	4.460481	0.755626	-0.000045
1755	1.7452e+02	2.5419	-4.514781	0.000409	4.092185	0.693235	-0.000041
1756	1.7462e+02	2.5324	-4.555923	0.000413	4.133107	0.700167	-0.000041
1757	1.7472e+02	2.5223	-4.595435	0.000397	3.969419	0.672438	-0.000040
1758	1.7482e+02	2.5126	-4.633725	0.000385	3.846654	0.651641	-0.000038
1759	1.7492e+02	2.5013	-4.674867	0.000413	4.133107	0.700167	-0.000041
1760	1.7502e+02	2.4949	-4.713157	0.000385	3.846654	0.651641	-0.000038
1761	1.7512e+02	2.4844	-4.755928	0.000430	4.296794	0.727897	-0.000043
1762	1.7522e+02	2.4723	-4.793403	0.000376	3.764810	0.637776	-0.000038
1763	1.7532e+02	2.4655	-4.831694	0.000385	3.846654	0.651641	-0.000038
1764	1.7542e+02	2.4549	-4.872021	0.000405	4.051263	0.686303	-0.000041
1765	1.7552e+02	2.4429	-4.910718	0.000389	3.887576	0.658573	-0.000039
1766	1.7562e+02	2.4347	-4.953082	0.000426	4.255872	0.720964	-0.000043
1767	1.7572e+02	2.4242	-4.992594	0.000397	3.969419	0.672438	-0.000040
1768	1.7582e+02	2.4123	-5.036994	0.000446	4.460481	0.755626	-0.000045
1769	1.7592e+02	2.4041	-5.073655	0.000368	3.682966	0.623911	-0.000037
1770	1.7602e+02	2.3951	-5.116019	0.000426	4.255872	0.720964	-0.000043
1771	1.7612e+02	2.3852	-5.163271	0.000475	4.746934	0.804152	-0.000047
1772	1.7621e+02	2.3745	-5.202783	0.000397	3.969419	0.672438	-0.000040
1773	1.7631e+02	2.3635	-5.244739	0.000421	4.214950	0.714032	-0.000042
1774	1.7641e+02	2.3526	-5.285473	0.000409	4.092185	0.693235	-0.000041
1775	1.7651e+02	2.3435	-5.327022	0.000417	4.174028	0.707100	-0.000042
1776	1.7661e+02	2.3336	-5.369793	0.000430	4.296794	0.727897	-0.000043
1777	1.7671e+02	2.3246	-5.404417	0.000348	3.478357	0.589250	-0.000035
1778	1.7681e+02	2.3109	-5.445559	0.000413	4.133107	0.700167	-0.000041
1779	1.7691e+02	2.3019	-5.487923	0.000426	4.255872	0.720964	-0.000043
1780	1.7701e+02	2.2977	-5.526620	0.000389	3.887576	0.658573	-0.000039
1781	1.7711e+02	2.2859	-5.564096	0.000376	3.764810	0.637776	-0.000038
1782	1.7721e+02	2.2726	-5.609718	0.000458	4.583247	0.776423	-0.000046
1783	1.7731e+02	2.2660	-5.652489	0.000430	4.296794	0.727897	-0.000043
1784	1.7741e+02	2.2560	-5.691594	0.000393	3.928497	0.665505	-0.000039
1785	1.7751e+02	2.2449	-5.731921	0.000405	4.051263	0.686303	-0.000041
1786	1.7761e+02	2.2356	-5.772248	0.000405	4.051263	0.686303	-0.000041
1787	1.7771e+02	2.2230	-5.816648	0.000446	4.460481	0.755626	-0.000045
1788	1.7781e+02	2.2154	-5.854938	0.000385	3.846654	0.651641	-0.000038
1789	1.7791e+02	2.2043	-5.891192	0.000364	3.642044	0.616979	-0.000036
1790	1.7801e+02	2.1941	-5.934370	0.000434	4.337716	0.734829	-0.000043
1791	1.7810e+02	2.1854	-5.971845	0.000376	3.764810	0.637776	-0.000038
1792	1.7820e+02	2.1761	-6.011765	0.000401	4.010341	0.679370	-0.000040
1793	1.7830e+02	2.1658	-6.052092	0.000405	4.051263	0.686303	-0.000041
1794	1.7840e+02	2.1558	-6.093234	0.000413	4.133107	0.700167	-0.000041
1795	1.7850e+02	2.1463	-6.134375	0.000413	4.133107	0.700167	-0.000041
1796	1.7860e+02	2.1323	-6.172665	0.000385	3.846654	0.651641	-0.000038
1797	1.7870e+02	2.1277	-6.218695	0.000462	4.624169	0.783355	-0.000046
1798	1.7880e+02	2.1121	-6.256578	0.000381	3.805732	0.644708	-0.000038
1799	1.7890e+02	2.1048	-6.298534	0.000421	4.214950	0.714032	-0.000042
1800	1.7900e+02	2.0953	-6.338046	0.000397	3.969419	0.672438	-0.000040
1801	1.7910e+02	2.0859	-6.379188	0.000413	4.133107	0.700167	-0.000041
1802	1.7920e+02	2.0791	-6.424810	0.000458	4.583247	0.776423	-0.000046
1803	1.7930e+02	2.0644	-6.463101	0.000385	3.846654	0.651641	-0.000038
1804	1.7940e+02	2.0570	-6.503835	0.000409	4.092185	0.693235	-0.000041
1805	1.7950e+02	2.0444	-6.549050	0.000454	4.542325	0.769491	-0.000045
1806	1.7960e+02	2.0360	-6.590191	0.000413	4.133107	0.700167	-0.000041
1807	1.7970e+02	2.0239	-6.628889	0.000389	3.887576	0.658573	-0.000039
1808	1.7980e+02	2.0153	-6.673289	0.000446	4.460481	0.755626	-0.000045
1809	1.7990e+02	2.0055	-6.712394	0.000393	3.928497	0.665505	-0.000039
1810	1.8000e+02	1.9971	-6.757202	0.000450	4.501403	0.762558	-0.000045
1811	1.8009e+02	1.9866	-6.796714	0.000397	3.969419	0.672438	-0.000040
1812	1.8019e+02	1.9775	-6.835004	0.000385	3.846654	0.651641	-0.000038
1813	1.8029e+02	1.9629	-6.883478	0.000487	4.869700	0.824949	-0.000049
1814	1.8039e+02	1.9539	-6.919324	0.000360	3.601123	0.610047	-0.000036
1815	1.8049e+02	1.9471	-6.960873	0.000417	4.174028	0.707100	-0.000042
1816	1.8059e+02	1.9360	-7.003644	0.000430	4.296794	0.727897	-0.000043
1817	1.8069e+02	1.9244	-7.046822	0.000434	4.337716	0.734829	-0.000043
1818	1.8079e+02	1.9151	-7.093260	0.000467	4.665091	0.790288	-0.000047
1819	1.8089e+02	1.9073	-7.130735	0.000376	3.764810	0.637776	-0.000038
1820	1.8099e+02	1.8961	-7.170247	0.000397	3.969419	0.672438	-0.000040
1821	1.8109e+02	1.8882	-7.213426	0.000434	4.337716	0.734829	-0.000043
1822	1.8119e+02	1.8780	-7.255382	0.000421	4.214950	0.714032	-0.000042
1823	1.8129e+02	1.8676	-7.298968	0.000438	4.378638	0.741761	-0.000044
1824	1.8139e+02	1.8542	-7.340516	0.000417	4.174028	0.707100	-0.000042
1825	1.8149e+02	1.8462	-7.379214	0.000389	3.887576	0.658573	-0.000039
1826	1.8159e+02	1.8369	-7.423614	0.000446	4.460481	0.755626	-0.000045
1827	1.8169e+02	1.8265	-7.463941	0.000405	4.051263	0.686303	-0.000041
1828	1.8179e+02	1.8166	-7.509156	0.000454	4.542325	0.769491	-0.000045
1829	1.8189e+02	1.8081	-7.547854	0.000389	3.887576	0.658573	-0.000039
1830	1.8199e+02	1.7992	-7.592254	0.000446	4.460481	0.755626	-0.000045
1831	1.8209e+02	1.7844	-7.633803	0.000417	4.174028	0.707100	-0.000042
1832	1.8218e+02	1.7775	-7.679833	0.000462	4.624169	0.783355	-0.000046
1833	1.8228e+02	1.7677	-7.724640	0.000450	4.501403	0.762558	-0.000045
1834	1.8238e+02	1.7555	-7.763338	0.000389	3.887576	0.658573	-0.000039
1835	1.8248e+02	1.7465	-7.807738	0.000446	4.460481	0.755626	-0.000045
1836	1.8258e+02	1.7376	-7.848473	0.000409	4.092185	0.693235	-0.000041
1837	1.8268e+02	1.7266	-7.895317	0.000471	4.706012	0.797220	-0.000047
1838	1.8278e+02	1.7178	-7.932793	0.000376	3.764810	0.637776	-0.000038
1839	1.8288e+02	1.7073	-7.978008	0.000454	4.542325	0.769491	-0.000045
1840	1.8298e+02	1.7001	-8.020779	0.000430	4.296794	0.727897	-0.000043
1841	1.8308e+02	1.6888	-8.059476	0.000389	3.887576	0.658573	-0.000039
1842	1.8318e+02	1.6759	-8.106320	0.000471	4.706012	0.797220	-0.000047
1843	1.8328e+02	1.6651	-8.146647	0.000405	4.051263	0.686303	-0.000041
1844	1.8338e+02	1.6565	-8.190233	0.000438	4.378638	0.741761	-0.000044
1845	1.8348e+02	1.6470	-8.234226	0.000442	4.419560	0.748694	-0.000044
1846	1.8358e+02	1.6394	-8.277404	0.000434	4.337716	0.734829	-0.000043
1847	1.8368e+02	1.6274	-8.320583	0.000434	4.337716	0.734829	-0.000043
1848	1.8378e+02	1.6161	-8.367427	0.000471	4.706012	0.797220	-0.000047
1849	1.8388e+02	1.6088	-8.408569	0.000413	4.133107	0.700167	-0.000041
1850	1.8398e+02	1.5955	-8.452969	0.000446	4.460481	0.755626	-0.000045
1851	1.8407e+02	1.5881	-8.493703	0.000409	4.092185	0.693235	-0.000041
1852	1.8417e+02	1.5788	-8.536474	0.000430	4.296794	0.727897	-0.000043
1853	1.8427e+02	1.5690	-8.577208	0.000409	4.092185	0.693235	-0.000041
1854	1.8437e+02	1.5630	-8.619979	0.000430	4.296794	0.727897	-0.000043
1855	1.8447e+02	1.5503	-8.661936	0.000421	4.214950	0.714032	-0.000042
1856	1.8457e+02	1.5369	-8.705929	0.000442	4.419560	0.748694	-0.000044
1857	1.8467e+02	1.5264	-8.745034	0.000393	3.928497	0.665505	-0.000039
1858	1.8477e+02	1.5203	-8.788212	0.000434	4.337716	0.734829	-0.000043
1859	1.8487e+02	1.5102	-8.831390	0.000434	4.337716	0.734829	-0.000043
1860	1.8497e+02	1.4972	-8.874976	0.000438	4.378638	0.741761	-0.000044
1861	1.8507e+02	1.4877	-8.921820	0.000471	4.706012	0.797220	-0.000047
1862	1.8517e+02	1.4776	-8.969887	0.000483	4.828778	0.818017	-0.000048
1863	1.8527e+02	1.4672	-9.011436	0.000417	4.174028	0.707100	-0.000042
1864	1.8537e+02	1.4579	-9.053799	0.000426	4.255872	0.720964	-0.000043
1865	1.8547e+02	1.4471	-9.098200	0.000446	4.460481	0.755626	-0.000045
1866	1.8557e+02	1.4391	-9.140156	0.000421	4.214950	0.714032	-0.000042
1867	1.8567e+02	1.4278	-9.182927	0.000430	4.296794	0.727897	-0.000043
1868	1.8577e+02	1.4196	-9.222846	0.000401	4.010341	0.679370	-0.000040
1869	1.8587e+02	1.4082	-9.269283	0.000467	4.665091	0.790288	-0.000047
1870	1.8597e+02	1.3982	-9.315313	0.000462	4.624169	0.783355	-0.000046
1871	1.8606e+02	1.3905	-9.358491	0.000434	4.337716	0.734829	-0.000043
1872	1.8616e+02	1.3796	-9.403299	0.000450	4.501403	0.762558	-0.000045
1873	1.8626e+02	1.3719	-9.449736	0.000467	4.665091	0.790288	-0.000047
1874	1.8636e+02	1.3610	-9.494137	0.000446	4.460481	0.755626	-0.000045
1875	1.8646e+02	1.3486	-9.540166	0.000462	4.624169	0.783355	-0.000046
1876	1.8656e+02	1.3393	-9.583345	0.000434	4.337716	0.734829	-0.000043
1877	1.8666e+02	1.3297	-9.633448	0.000503	5.033387	0.852679	-0.000050
1878	1.8676e+02	1.3203	-9.675404	0.000421	4.214950	0.714032	-0.000042
1879	1.8686e+02	1.3087	-9.720619	0.000454	4.542325	0.769491	-0.000045
1880	1.8696e+02	1.2986	-9.768278	0.000479	4.787856	0.811085	-0.000048
1881	1.8706e+02	1.2888	-9.811456	0.000434	4.337716	0.734829	-0.000043
1882	1.8716e+02	1.2782	-9.857486	0.000462	4.624169	0.783355	-0.000046
1883	1.8726e+02	1.2695	-9.899850	0.000426	4.255872	0.720964	-0.000043
1884	1.8736e+02	1.2590	-9.943028	0.000434	4.337716	0.734829	-0.000043
1885	1.8746e+02	1.2510	-9.983762	0.000409	4.092185	0.693235	-0.000041
1886	1.8756e+02	1.2392	-10.028977	0.000454	4.542325	0.769491	-0.000045
1887	1.8766e+02	1.2302	-10.076229	0.000475	4.746934	0.804152	-0.000047
1888	1.8776e+02	1.2192	-10.120629	0.000446	4.460481	0.755626	-0.000045
1889	1.8786e+02	1.2083	-10.164215	0.000438	4.378638	0.741761	-0.000044
1890	1.8796e+02	1.2022	-10.209430	0.000454	4.542325	0.769491	-0.000045
1891	1.8806e+02	1.1897	-10.253830	0.000446	4.460481	0.755626	-0.000045
1892	1.8815e+02	1.1789	-10.299045	0.000454	4.542325	0.769491	-0.000045
1893	1.8825e+02	1.1695	-10.344260	0.000454	4.542325	0.769491	-0.000045
1894	1.8835e+02	1.1614	-10.389475	0.000454	4.542325	0.769491	-0.000045
1895	1.8845e+02	1.1524	-10.433876	0.000446	4.460481	0.755626	-0.000045
1896	1.8855e+02	1.1396	-10.479091	0.000454	4.542325	0.769491	-0.000045
1897	1.8865e+02	1.1276	-10.527972	0.000491	4.910622	0.831882	-0.000049
1898	1.8875e+02	1.1218	-10.570743	0.000430	4.296794	0.727897	-0.000043
1899	1.8885e+02	1.1123	-10.618809	0.000483	4.828778	0.818017	-0.000048
1900	1.8895e+02	1.1014	-10.660358	0.000417	4.174028	0.707100	-0.000042
1901	1.8905e+02	1.0905	-10.702315	0.000421	4.214950	0.714032	-0.000042
1902	1.8915e+02	1.0817	-10.748344	0.000462	4.624169	0.783355	-0.000046
1903	1.8925e+02	1.0719	-10.794374	0.000462	4.624169	0.783355	-0.000046
1904	1.8935e+02	1.0625	-10.839996	0.000458	4.583247	0.776423	-0.000046
1905	1.8945e+02	1.0527	-10.885619	0.000458	4.583247	0.776423	-0.000046
1906	1.8955e+02	1.0406	-10.931648	0.000462	4.624169	0.783355	-0.000046
1907	1.8965e+02	1.0279	-10.979307	0.000479	4.787856	0.811085	-0.000048
1908	1.8975e+02	1.0215	-11.028189	0.000491	4.910622	0.831882	-0.000049
1909	1.8985e+02	1.0090	-11.071367	0.000434	4.337716	0.734829	-0.000043
1910	1.8995e+02	1.0018	-11.116175	0.000450	4.501403	0.762558	-0.000045
1911	1.9004e+02	0.9915	-11.162612	0.000467	4.665091	0.790288	-0.000047
1912	1.9014e+02	0.9812	-11.204975	0.000426	4.255872	0.720964	-0.000043
1913	1.9024e+02	0.9702	-11.255486	0.000507	5.074309	0.859611	-0.000051
1914	1.9034e+02	0.9627	-11.298664	0.000434	4.337716	0.734829	-0.000043
1915	1.9044e+02	0.9511	-11.343064	0.000446	4.460481	0.755626	-0.000045
1916	1.9054e+02	0.9413	-11.387465	0.000446	4.460481	0.755626	-0.000045
1917	1.9064e+02	0.9332	-11.433494	0.000462	4.624169	0.783355	-0.000046
1918	1.9074e+02	0.9212	-11.477487	0.000442	4.419560	0.748694	-0.000044
1919	1.9084e+02	0.9138	-11.526776	0.000495	4.951544	0.838814	-0.000050
1920	1.9094e+02	0.9023	-11.570362	0.000438	4.378638	0.741761	-0.000044
1921	1.9104e+02	0.8914	-11.614762	0.000446	4.460481	0.755626	-0.000045
1922	1.9114e+02	0.8807	-11.662014	0.000475	4.746934	0.804152	-0.000047
1923	1.9124e+02	0.8727	-11.711302	0.000495	4.951544	0.838814	-0.000050
1924	1.9134e+02	0.8622	-11.755702	0.000446	4.460481	0.755626	-0.000045
1925	1.9144e+02	0.8526	-11.798881	0.000434	4.337716	0.734829	-0.000043
1926	1.9154e+02	0.8386	-11.842874	0.000442	4.419560	0.748694	-0.000044
1927	1.9164e+02	0.8328	-11.898680	0.000561	5.606293	0.949732	-0.000056
1928	1.9174e+02	0.8216	-11.942673	0.000442	4.419560	0.748694	-0.000044
1929	1.9184e+02	0.8131	-11.984222	0.000417	4.174028	0.707100	-0.000042
1930	1.9194e+02	0.8028	-12.029844	0.000458	4.583247	0.776423	-0.000046
1931	1.9203e+02	0.7930	-12.077503	0.000479	4.787856	0.811085	-0.000048
1932	1.9213e+02	0.7826	-12.124347	0.000471	4.706012	0.797220	-0.000047
1933	1.9223e+02	0.7725	-12.172821	0.000487	4.869700	0.824949	-0.000049
1934	1.9233e+02	0.7627	-12.214777	0.000421	4.214950	0.714032	-0.000042
1935	1.9243e+02	0.7541	-12.262844	0.000483	4.828778	0.818017	-0.000048
1936	1.9253e+02	0.7448	-12.309688	0.000471	4.706012	0.797220	-0.000047
1937	1.9263e+02	0.7310	-12.354089	0.000446	4.460481	0.755626	-0.000045
1938	1.9273e+02	0.7207	-12.406636	0.000528	5.278918	0.894273	-0.000053
1939	1.9283e+02	0.7137	-12.452258	0.000458	4.583247	0.776423	-0.000046
1940	1.9293e+02	0.7049	-12.499103	0.000471	4.706012	0.797220	-0.000047
1941	1.9303e+02	0.6935	-12.545132	0.000462	4.624169	0.783355	-0.000046
1942	1.9313e+02	0.6818	-12.594828	0.000499	4.992465	0.845747	-0.000050
1943	1.9323e+02	0.6722	-12.638821	0.000442	4.419560	0.748694	-0.000044
1944	1.9333e+02	0.6603	-12.687702	0.000491	4.910622	0.831882	-0.000049
1945	1.9343e+02	0.6509	-12.734139	0.000467	4.665091	0.790288	-0.000047
1946	1.9353e+02	0.6445	-12.780169	0.000462	4.624169	0.783355	-0.000046
1947	1.9363e+02	0.6327	-12.823347	0.000434	4.337716	0.734829	-0.000043
1948	1.9373e+02	0.6228	-12.873043	0.000499	4.992465	0.845747	-0.000050
1949	1.9383e+02	0.6129	-12.919480	0.000467	4.665091	0.790288	-0.000047
1950	1.9393e+02	0.6026	-12.968361	0.000491	4.910622	0.831882	-0.000049
1951	1.9403e+02	0.5930	-13.011947	0.000438	4.378638	0.741761	-0.000044
1952	1.9412e+02	0.5836	-13.063272	0.000516	5.156153	0.873476	-0.000052
1953	1.9422e+02	0.5740	-13.108080	0.000450	4.501403	0.762558	-0.000045
1954	1.9432e+02	0.5624	-13.153702	0.000458	4.583247	0.776423	-0.000046
1955	1.9442e+02	0.5534	-13.200139	0.000467	4.665091	0.790288	-0.000047
1956	1.9452e+02	0.5436	-13.247798	0.000479	4.787856	0.811085	-0.000048
1957	1.9462e+02	0.5315	-13.290976	0.000434	4.337716	0.734829	-0.000043
1958	1.9472e+02	0.5260	-13.340265	0.000495	4.951544	0.838814	-0.000050
1959	1.9482e+02	0.5119	-13.379370	0.000393	3.928497	0.665505	-0.000039
1960	1.9492e+02	0.5013	-13.427844	0.000487	4.869700	0.824949	-0.000049
1961	1.9502e+02	0.4955	-13.477539	0.000499	4.992465	0.845747	-0.000050
1962	1.9512e+02	0.4834	-13.522754	0.000454	4.542325	0.769491	-0.000045
1963	1.9522e+02	0.4740	-13.566747	0.000442	4.419560	0.748694	-0.000044
1964	1.9532e+02	0.4644	-13.612777	0.000462	4.624169	0.783355	-0.000046
1965	1.9542e+02	0.4553	-13.661658	0.000491	4.910622	0.831882	-0.000049
1966	1.9552e+02	0.4430	-13.709317	0.000479	4.787856	0.811085	-0.000048
1967	1.9562e+02	0.4305	-13.752496	0.000434	4.337716	0.734829	-0.000043
1968	1.9572e+02	0.4243	-13.803006	0.000507	5.074309	0.859611	-0.000051
1969	1.9582e+02	0.4137	-13.846184	0.000434	4.337716	0.734829	-0.000043
1970	1.9592e+02	0.4044	-13.898732	0.000528	5.278918	0.894273	-0.000053
1971	1.9601e+02	0.3918	-13.943947	0.000454	4.542325	0.769491	-0.000045
1972	1.9611e+02	0.3820	-13.992420	0.000487	4.869700	0.824949	-0.000049
1973	1.9621e+02	0.3754	-14.040079	0.000479	4.787856	0.811085	-0.000048
1974	1.9631e+02	0.3648	-14.087331	0.000475	4.746934	0.804152	-0.000047
1975	1.9641e+02	0.3552	-14.134176	0.000471	4.706012	0.797220	-0.000047
1976	1.9651e+02	0.3415	-14.183057	0.000491	4.910622	0.831882	-0.000049
1977	1.9661e+02	0.3330	-14.229901	0.000471	4.706012	0.797220	-0.000047
1978	1.9671e+02	0.3250	-14.276338	0.000467	4.665091	0.790288	-0.000047
1979	1.9681e+02	0.3170	-14.327256	0.000512	5.115231	0.866544	-0.000051
1980	1.9691e+02	0.3037	-14.372878	0.000458	4.583247	0.776423	-0.000046
1981	1.9701e+02	0.2941	-14.418501	0.000458	4.583247	0.776423	-0.000046
1982	1.9711e+02	0.2851	-14.467382	0.000491	4.910622	0.831882	-0.000049
1983	1.9721e+02	0.2785	-14.515448	0.000483	4.828778	0.818017	-0.000048
1984	1.9731e+02	0.2620	-14.560663	0.000454	4.542325	0.769491	-0.000045
1985	1.9741e+02	0.2544	-14.611581	0.000512	5.115231	0.866544	-0.000051
1986	1.9751e+02	0.2457	-14.655574	0.000442	4.419560	0.748694	-0.000044
1987	1.9761e+02	0.2348	-14.704862	0.000495	4.951544	0.838814	-0.000050
1988	1.9771e+02	0.2236	-14.756595	0.000520	5.197075	0.880408	-0.000052
1989	1.9781e+02	0.2143	-14.806698	0.000503	5.033387	0.852679	-0.000050
1990	1.9791e+02	0.2032	-14.853542	0.000471	4.706012	0.797220	-0.000047
1991	1.9800e+02	0.1937	-14.897943	0.000446	4.460481	0.755626	-0.000045
1992	1.9810e+02	0.1848	-14.944787	0.000471	4.706012	0.797220	-0.000047
1993	1.9820e+02	0.1764	-14.994890	0.000503	5.033387	0.852679	-0.000050
1994	1.9830e+02	0.1644	-15.042549	0.000479	4.787856	0.811085	-0.000048
1995	1.9840e+02	0.1559	-15.088986	0.000467	4.665091	0.790288	-0.000047
1996	1.9850e+02	0.1444	-15.138682	0.000499	4.992465	0.845747	-0.000050
1997	1.9860e+02	0.1354	-15.184305	0.000458	4.583247	0.776423	-0.000046
1998	1.9870e+02	0.1255	-15.235630	0.000516	5.156153	0.873476	-0.000052
1999	1.9880e+02	0.1142	-15.282067	0.000467	4.665091	0.790288	-0.000047
2000	1.9890e+02	0.1028	-15.332577	0.000507	5.074309	0.859611	-0.000051
2001	1.9900e+02	0.0956	-15.378607	0.000462	4.624169	0.783355	-0.000046
2002	1.9910e+02	0.0827	-15.430747	0.000524	5.237997	0.887341	-0.000052
2003	1.9920e+02	0.0742	-15.479628	0.000491	4.910622	0.831882	-0.000049
2004	1.9930e+02	0.0654	-15.526472	0.000471	4.706012	0.797220	-0.000047
2005	1.9940e+02	0.0550	-15.576168	0.000499	4.992465	0.845747	-0.000050
2006	1.9950e+02	0.0460	-15.620976	0.000450	4.501403	0.762558	-0.000045
2007	1.9960e+02	0.0378	-15.669857	0.000491	4.910622	0.831882	-0.000049
2008	1.9970e+02	0.0256	-15.715479	0.000458	4.583247	0.776423	-0.000046
2009	1.9980e+02	0.0147	-15.770063	0.000548	5.483528	0.928935	-0.000055
2010	1.9990e+02	0.0063	-15.816908	0.000471	4.706012	0.797220	-0.000047
2011	2.0000e+02	-0.0074	-15.864974	0.000471	4.706012	0.797220	-0.000048

PMax (uC/cm2):	3.54e+01
Pr (uC/cm2):	1.82e+00
-Pr (uC/cm2):	0.00e+00
PLoss (uC/cm2):	0.00e+00
C (Max-Eff) (nF):	3.54e-01
K (Eff):	5.99e+02
Vert. (+/-Pr) Shift (uC/cm2):	9.12e-01
Offset (uC/cm2):	1.77e+01

A (Loop Area - uC/cm2·Volts):	-1.85e-02



Hysteresis Version: 5.48.1 - Radiant Technologies, Inc., 1999 - 9/12/24

