»»»»»»»»»»»»»»»»»»»»»»»»»»»»»»»»»»»» Hysteresis ««««««««««««««««««««««««««««««««««««
»»»  Executed Version:	5.48.1
»»»  Vision Version:	5.48.4 (R)
»»»  Vision Compiled:	9/18/24
»»»  Driver Version:	5.47.0
»»»  Windows Version:	Windows 8 or 8.1
»»»  Processor Information:	x86 (AMD or Intel) - 32 Processors
»»»  Tester Name:	PMF21124-494 (100V)
»»»  Tester S/N:	PMF21124-494
»»»  Internal Amp Type:	100V RevK 270k
»»»  Internal Amp S/N:	iAB2-596/K     
»»»  Execution Count:	1
»»»»»»»»»»»»»»»»»»»»»»»»»»»»»»»»»»»»»»»»»»««««««««««««««««««««««««««««««««««««««««««

Stored:	6/30/2025 - 13:34:57
Configured:	06/30/25 10:19:58 AM
Executed:	06/30/25 01:34:27 PM

»»»»»»»»»»»»»»»»»»»»»»»»»»»»»»»»»»» Sample Info ««««««««««««««««««««««««««««««««««««
Sample Name:	
Lot Name:	
Wafer Name:	
Die Row/Column:	0/0
Capacitor Number:	0
Sample Area (cm2):	1.00e-04
Sample Thickness (microns):	1.50e-01

Amplifier:	Internal

»»»»»»»»»»»»»»»»»»»»»»»»»»»»»»»»»»» Tester Info «««««««««««««««««««««««««««««««««««
Tester Name:	PMF21124-494 (100V)
Tester Serial Number:	PMF21124-494
Return Signal Amp. Level:	1.9 [Index: 2]

»»»»»»»»»»»»»»»»»»»»»»»»»»»»»»»» Hysteresis Info ««««««««««««««««««««««««««««««««««
Task Name:	Hyst-1804
Volts:	10.00
Field:	666.67 (kV/cm)
DCBias:	0.00
DCField:	0.00 (kV/cm)
Hysteresis Period (ms):	2.00e+02
Preset:	Enabled
Preset Delay (ms):	1.00e+03
Profile:	Standard Monopolar

»»»»»»»»»»»»»»»»»»»»»»»»»»»»»»»»»»»»»» Data «««««««««««««««««««««««««««««««««««««««
Points:	2011

Valid Data

Point	Time (ms)	Drive Voltage	Measured Polarization (uC/cm2)	Capacitance (uF)	Normalized Capacitance (uF/cm2)	Dielectric Constant	Instantaneous Current (mA)
   1	0.0000e+00	-0.0047	-18.669731	0.000463	4.625192	0.783529	0.000046
   2	9.9500e-02	0.0043	-18.623701	0.000463	4.625192	0.783529	0.000046
   3	1.9900e-01	0.0159	-18.578486	0.000454	4.543330	0.769661	0.000045
   4	2.9850e-01	0.0269	-18.528383	0.000503	5.034501	0.852868	0.000050
   5	3.9800e-01	0.0347	-18.481946	0.000467	4.666123	0.790463	0.000047
   6	4.9750e-01	0.0455	-18.433472	0.000487	4.870777	0.825132	0.000049
   7	5.9700e-01	0.0576	-18.387850	0.000458	4.584261	0.776595	0.000046
   8	6.9650e-01	0.0642	-18.339376	0.000487	4.870777	0.825132	0.000049
   9	7.9600e-01	0.0760	-18.293347	0.000463	4.625192	0.783529	0.000046
  10	8.9550e-01	0.0848	-18.239985	0.000536	5.361948	0.908339	0.000054
  11	9.9500e-01	0.0947	-18.195177	0.000450	4.502399	0.762727	0.000045
  12	1.0945e+00	0.1049	-18.145481	0.000499	4.993570	0.845934	0.000050
  13	1.1940e+00	0.1171	-18.095786	0.000499	4.993570	0.845934	0.000050
  14	1.2935e+00	0.1220	-18.048534	0.000475	4.747984	0.804330	0.000047
  15	1.3930e+00	0.1341	-18.001689	0.000471	4.707054	0.797396	0.000047
  16	1.4925e+00	0.1453	-17.952808	0.000491	4.911708	0.832066	0.000049
  17	1.5920e+00	0.1532	-17.905149	0.000479	4.788915	0.811264	0.000048
  18	1.6915e+00	0.1640	-17.855046	0.000503	5.034501	0.852868	0.000050
  19	1.7910e+00	0.1778	-17.810238	0.000450	4.502399	0.762727	0.000045
  20	1.8905e+00	0.1846	-17.758913	0.000516	5.157293	0.873669	0.000052
  21	1.9900e+00	0.1943	-17.710847	0.000483	4.829846	0.818198	0.000048
  22	2.0895e+00	0.2026	-17.661151	0.000499	4.993570	0.845934	0.000050
  23	2.1890e+00	0.2125	-17.611048	0.000503	5.034501	0.852868	0.000050
  24	2.2885e+00	0.2262	-17.557279	0.000540	5.402879	0.915272	0.000054
  25	2.3880e+00	0.2338	-17.507583	0.000499	4.993570	0.845934	0.000050
  26	2.4875e+00	0.2419	-17.459924	0.000479	4.788915	0.811264	0.000048
  27	2.5870e+00	0.2514	-17.406155	0.000540	5.402879	0.915272	0.000054
  28	2.6865e+00	0.2648	-17.358495	0.000479	4.788915	0.811264	0.000048
  29	2.7860e+00	0.2746	-17.311651	0.000471	4.707054	0.797396	0.000047
  30	2.8855e+00	0.2830	-17.253808	0.000581	5.812188	0.984611	0.000058
  31	2.9850e+00	0.2934	-17.204113	0.000499	4.993570	0.845934	0.000050
  32	3.0845e+00	0.3028	-17.155639	0.000487	4.870777	0.825132	0.000049
  33	3.1840e+00	0.3136	-17.103906	0.000520	5.198224	0.880603	0.000052
  34	3.2835e+00	0.3249	-17.055433	0.000487	4.870777	0.825132	0.000049
  35	3.3830e+00	0.3355	-17.006144	0.000495	4.952639	0.839000	0.000050
  36	3.4825e+00	0.3426	-16.952782	0.000536	5.361948	0.908339	0.000054
  37	3.5820e+00	0.3547	-16.904716	0.000483	4.829846	0.818198	0.000048
  38	3.6815e+00	0.3644	-16.849317	0.000557	5.566602	0.943008	0.000056
  39	3.7810e+00	0.3728	-16.802473	0.000471	4.707054	0.797396	0.000047
  40	3.8805e+00	0.3823	-16.749926	0.000528	5.280086	0.894471	0.000053
  41	3.9800e+00	0.3943	-16.698601	0.000516	5.157293	0.873669	0.000052
  42	4.0795e+00	0.4041	-16.649719	0.000491	4.911708	0.832066	0.000049
  43	4.1790e+00	0.4111	-16.603282	0.000467	4.666123	0.790463	0.000047
  44	4.2785e+00	0.4217	-16.556031	0.000475	4.747984	0.804330	0.000047
  45	4.3780e+00	0.4343	-16.505113	0.000512	5.116363	0.866735	0.000051
  46	4.4775e+00	0.4428	-16.457454	0.000479	4.788915	0.811264	0.000048
  47	4.5770e+00	0.4525	-16.407351	0.000503	5.034501	0.852868	0.000050
  48	4.6765e+00	0.4642	-16.362136	0.000454	4.543330	0.769661	0.000045
  49	4.7760e+00	0.4729	-16.312032	0.000503	5.034501	0.852868	0.000050
  50	4.8755e+00	0.4825	-16.261929	0.000503	5.034501	0.852868	0.000050
  51	4.9750e+00	0.4929	-16.217122	0.000450	4.502399	0.762727	0.000045
  52	5.0745e+00	0.5046	-16.167426	0.000499	4.993570	0.845934	0.000050
  53	5.1740e+00	0.5125	-16.113657	0.000540	5.402879	0.915272	0.000054
  54	5.2735e+00	0.5231	-16.063961	0.000499	4.993570	0.845934	0.000050
  55	5.3730e+00	0.5318	-16.012636	0.000516	5.157293	0.873669	0.000052
  56	5.4725e+00	0.5439	-15.962940	0.000499	4.993570	0.845934	0.000050
  57	5.5720e+00	0.5515	-15.911207	0.000520	5.198224	0.880603	0.000052
  58	5.6715e+00	0.5695	-15.864363	0.000471	4.707054	0.797396	0.000047
  59	5.7710e+00	0.5720	-15.812223	0.000524	5.239155	0.887537	0.000052
  60	5.8705e+00	0.5834	-15.761305	0.000512	5.116363	0.866735	0.000051
  61	5.9700e+00	0.5915	-15.714461	0.000471	4.707054	0.797396	0.000047
  62	6.0695e+00	0.5991	-15.665173	0.000495	4.952639	0.839000	0.000050
  63	6.1690e+00	0.6130	-15.617921	0.000475	4.747984	0.804330	0.000047
  64	6.2685e+00	0.6219	-15.569447	0.000487	4.870777	0.825132	0.000049
  65	6.3680e+00	0.6303	-15.519751	0.000499	4.993570	0.845934	0.000050
  66	6.4675e+00	0.6426	-15.469648	0.000503	5.034501	0.852868	0.000050
  67	6.5670e+00	0.6513	-15.416286	0.000536	5.361948	0.908339	0.000054
  68	6.6665e+00	0.6631	-15.372701	0.000438	4.379606	0.741925	0.000044
  69	6.7660e+00	0.6701	-15.321783	0.000512	5.116363	0.866735	0.000051
  70	6.8655e+00	0.6822	-15.273309	0.000487	4.870777	0.825132	0.000049
  71	6.9650e+00	0.6924	-15.223206	0.000503	5.034501	0.852868	0.000050
  72	7.0645e+00	0.7010	-15.177583	0.000458	4.584261	0.776595	0.000046
  73	7.1640e+00	0.7126	-15.128702	0.000491	4.911708	0.832066	0.000049
  74	7.2635e+00	0.7221	-15.085524	0.000434	4.338675	0.734992	0.000043
  75	7.3630e+00	0.7317	-15.036643	0.000491	4.911708	0.832066	0.000049
  76	7.4625e+00	0.7429	-14.990206	0.000467	4.666123	0.790463	0.000047
  77	7.5620e+00	0.7533	-14.945398	0.000450	4.502399	0.762727	0.000045
  78	7.6615e+00	0.7627	-14.894073	0.000516	5.157293	0.873669	0.000052
  79	7.7610e+00	0.7729	-14.855783	0.000385	3.847505	0.651785	0.000038
  80	7.8605e+00	0.7820	-14.804865	0.000512	5.116363	0.866735	0.000051
  81	7.9600e+00	0.7923	-14.758021	0.000471	4.707054	0.797396	0.000047
  82	8.0595e+00	0.8001	-14.715250	0.000430	4.297745	0.728058	0.000043
  83	8.1590e+00	0.8103	-14.663925	0.000516	5.157293	0.873669	0.000052
  84	8.2585e+00	0.8193	-14.621968	0.000422	4.215883	0.714190	0.000042
  85	8.3580e+00	0.8292	-14.575531	0.000467	4.666123	0.790463	0.000047
  86	8.4575e+00	0.8391	-14.527465	0.000483	4.829846	0.818198	0.000048
  87	8.5570e+00	0.8509	-14.483472	0.000442	4.420537	0.748859	0.000044
  88	8.6565e+00	0.8604	-14.435813	0.000479	4.788915	0.811264	0.000048
  89	8.7560e+00	0.8737	-14.386524	0.000495	4.952639	0.839000	0.000050
  90	8.8555e+00	0.8797	-14.343753	0.000430	4.297745	0.728058	0.000043
  91	8.9550e+00	0.8913	-14.299353	0.000446	4.461468	0.755793	0.000045
  92	9.0545e+00	0.9021	-14.250879	0.000487	4.870777	0.825132	0.000049
  93	9.1540e+00	0.9148	-14.203220	0.000479	4.788915	0.811264	0.000048
  94	9.2535e+00	0.9212	-14.158412	0.000450	4.502399	0.762727	0.000045
  95	9.3530e+00	0.9316	-14.116049	0.000426	4.256814	0.721124	0.000043
  96	9.4525e+00	0.9414	-14.067982	0.000483	4.829846	0.818198	0.000048
  97	9.5520e+00	0.9506	-14.022360	0.000458	4.584261	0.776595	0.000046
  98	9.6515e+00	0.9621	-13.981218	0.000413	4.134021	0.700322	0.000041
  99	9.7510e+00	0.9703	-13.931523	0.000499	4.993570	0.845934	0.000050
 100	9.8505e+00	0.9830	-13.884271	0.000475	4.747984	0.804330	0.000047
 101	9.9500e+00	0.9888	-13.841093	0.000434	4.338675	0.734992	0.000043
 102	1.0050e+01	1.0019	-13.791804	0.000495	4.952639	0.839000	0.000050
 103	1.0149e+01	1.0085	-13.747811	0.000442	4.420537	0.748859	0.000044
 104	1.0248e+01	1.0198	-13.699337	0.000487	4.870777	0.825132	0.000049
 105	1.0348e+01	1.0354	-13.659010	0.000405	4.052159	0.686454	0.000041
 106	1.0447e+01	1.0384	-13.609315	0.000499	4.993570	0.845934	0.000050
 107	1.0547e+01	1.0514	-13.568173	0.000413	4.134021	0.700322	0.000041
 108	1.0646e+01	1.0612	-13.526624	0.000417	4.174952	0.707256	0.000042
 109	1.0746e+01	1.0696	-13.482224	0.000446	4.461468	0.755793	0.000045
 110	1.0845e+01	1.0799	-13.439045	0.000434	4.338675	0.734992	0.000043
 111	1.0945e+01	1.0894	-13.394238	0.000450	4.502399	0.762727	0.000045
 112	1.1044e+01	1.1000	-13.355540	0.000389	3.888436	0.658719	0.000039
 113	1.1144e+01	1.1158	-13.311547	0.000442	4.420537	0.748859	0.000044
 114	1.1243e+01	1.1198	-13.268776	0.000430	4.297745	0.728058	0.000043
 115	1.1343e+01	1.1330	-13.221117	0.000479	4.788915	0.811264	0.000048
 116	1.1443e+01	1.1394	-13.181605	0.000397	3.970297	0.672587	0.000040
 117	1.1542e+01	1.1493	-13.134761	0.000471	4.707054	0.797396	0.000047
 118	1.1642e+01	1.1611	-13.092397	0.000426	4.256814	0.721124	0.000043
 119	1.1741e+01	1.1691	-13.050033	0.000426	4.256814	0.721124	0.000043
 120	1.1841e+01	1.1798	-13.005633	0.000446	4.461468	0.755793	0.000045
 121	1.1940e+01	1.1911	-12.963269	0.000426	4.256814	0.721124	0.000043
 122	1.2040e+01	1.1988	-12.920498	0.000430	4.297745	0.728058	0.000043
 123	1.2139e+01	1.2090	-12.876913	0.000438	4.379606	0.741925	0.000044
 124	1.2239e+01	1.2189	-12.831290	0.000458	4.584261	0.776595	0.000046
 125	1.2338e+01	1.2295	-12.788519	0.000430	4.297745	0.728058	0.000043
 126	1.2438e+01	1.2402	-12.744934	0.000438	4.379606	0.741925	0.000044
 127	1.2537e+01	1.2497	-12.699311	0.000458	4.584261	0.776595	0.000046
 128	1.2636e+01	1.2592	-12.658170	0.000413	4.134021	0.700322	0.000041
 129	1.2736e+01	1.2685	-12.611325	0.000471	4.707054	0.797396	0.000047
 130	1.2835e+01	1.2766	-12.568962	0.000426	4.256814	0.721124	0.000043
 131	1.2935e+01	1.2914	-12.525376	0.000438	4.379606	0.741925	0.000044
 132	1.3034e+01	1.2997	-12.481790	0.000438	4.379606	0.741925	0.000044
 133	1.3134e+01	1.3062	-12.432909	0.000491	4.911708	0.832066	0.000049
 134	1.3233e+01	1.3188	-12.393804	0.000393	3.929366	0.665653	0.000039
 135	1.3333e+01	1.3277	-12.342072	0.000520	5.198224	0.880603	0.000052
 136	1.3432e+01	1.3368	-12.297672	0.000446	4.461468	0.755793	0.000045
 137	1.3532e+01	1.3489	-12.255715	0.000422	4.215883	0.714190	0.000042
 138	1.3632e+01	1.3591	-12.210500	0.000454	4.543330	0.769661	0.000045
 139	1.3731e+01	1.3699	-12.169359	0.000413	4.134021	0.700322	0.000041
 140	1.3831e+01	1.3795	-12.126995	0.000426	4.256814	0.721124	0.000043
 141	1.3930e+01	1.3866	-12.084224	0.000430	4.297745	0.728058	0.000043
 142	1.4030e+01	1.3986	-12.036565	0.000479	4.788915	0.811264	0.000048
 143	1.4129e+01	1.4065	-11.996238	0.000405	4.052159	0.686454	0.000041
 144	1.4229e+01	1.4186	-11.953060	0.000434	4.338675	0.734992	0.000043
 145	1.4328e+01	1.4300	-11.906623	0.000467	4.666123	0.790463	0.000047
 146	1.4428e+01	1.4379	-11.860186	0.000467	4.666123	0.790463	0.000047
 147	1.4527e+01	1.4481	-11.820674	0.000397	3.970297	0.672587	0.000040
 148	1.4627e+01	1.4588	-11.777495	0.000434	4.338675	0.734992	0.000043
 149	1.4726e+01	1.4685	-11.729429	0.000483	4.829846	0.818198	0.000048
 150	1.4825e+01	1.4802	-11.687065	0.000426	4.256814	0.721124	0.000043
 151	1.4925e+01	1.4874	-11.646331	0.000409	4.093090	0.693388	0.000041
 152	1.5024e+01	1.4987	-11.597042	0.000495	4.952639	0.839000	0.000050
 153	1.5124e+01	1.5071	-11.557938	0.000393	3.929366	0.665653	0.000039
 154	1.5223e+01	1.5203	-11.515167	0.000430	4.297745	0.728058	0.000043
 155	1.5323e+01	1.5270	-11.463434	0.000520	5.198224	0.880603	0.000052
 156	1.5422e+01	1.5404	-11.420256	0.000434	4.338675	0.734992	0.000043
 157	1.5522e+01	1.5471	-11.379114	0.000413	4.134021	0.700322	0.000041
 158	1.5621e+01	1.5596	-11.331455	0.000479	4.788915	0.811264	0.000048
 159	1.5721e+01	1.5672	-11.285833	0.000458	4.584261	0.776595	0.000046
 160	1.5820e+01	1.5765	-11.241840	0.000442	4.420537	0.748859	0.000044
 161	1.5920e+01	1.5884	-11.196217	0.000458	4.584261	0.776595	0.000046
 162	1.6020e+01	1.5985	-11.151002	0.000454	4.543330	0.769661	0.000045
 163	1.6119e+01	1.6087	-11.108231	0.000430	4.297745	0.728058	0.000043
 164	1.6218e+01	1.6158	-11.054462	0.000540	5.402879	0.915272	0.000054
 165	1.6318e+01	1.6256	-11.012099	0.000426	4.256814	0.721124	0.000043
 166	1.6418e+01	1.6363	-10.965254	0.000471	4.707054	0.797396	0.000047
 167	1.6517e+01	1.6434	-10.918817	0.000467	4.666123	0.790463	0.000047
 168	1.6616e+01	1.6544	-10.876453	0.000426	4.256814	0.721124	0.000043
 169	1.6716e+01	1.6682	-10.829202	0.000475	4.747984	0.804330	0.000047
 170	1.6816e+01	1.6769	-10.781543	0.000479	4.788915	0.811264	0.000048
 171	1.6915e+01	1.6858	-10.733476	0.000483	4.829846	0.818198	0.000048
 172	1.7015e+01	1.6993	-10.691113	0.000426	4.256814	0.721124	0.000043
 173	1.7114e+01	1.7076	-10.642639	0.000487	4.870777	0.825132	0.000049
 174	1.7213e+01	1.7168	-10.599461	0.000434	4.338675	0.734992	0.000043
 175	1.7313e+01	1.7249	-10.554246	0.000454	4.543330	0.769661	0.000045
 176	1.7413e+01	1.7379	-10.506179	0.000483	4.829846	0.818198	0.000048
 177	1.7512e+01	1.7500	-10.460557	0.000458	4.584261	0.776595	0.000046
 178	1.7611e+01	1.7590	-10.414934	0.000458	4.584261	0.776595	0.000046
 179	1.7711e+01	1.7680	-10.365239	0.000499	4.993570	0.845934	0.000050
 180	1.7811e+01	1.7755	-10.320431	0.000450	4.502399	0.762727	0.000045
 181	1.7910e+01	1.7863	-10.273586	0.000471	4.707054	0.797396	0.000047
 182	1.8009e+01	1.7947	-10.225113	0.000487	4.870777	0.825132	0.000049
 183	1.8109e+01	1.8068	-10.181120	0.000442	4.420537	0.748859	0.000044
 184	1.8209e+01	1.8179	-10.137534	0.000438	4.379606	0.741925	0.000044
 185	1.8308e+01	1.8275	-10.092726	0.000450	4.502399	0.762727	0.000045
 186	1.8407e+01	1.8355	-10.047104	0.000458	4.584261	0.776595	0.000046
 187	1.8507e+01	1.8456	-10.000260	0.000471	4.707054	0.797396	0.000047
 188	1.8607e+01	1.8560	-9.953008	0.000475	4.747984	0.804330	0.000047
 189	1.8706e+01	1.8658	-9.902497	0.000508	5.075432	0.859801	0.000051
 190	1.8805e+01	1.8760	-9.858504	0.000442	4.420537	0.748859	0.000044
 191	1.8905e+01	1.8836	-9.815326	0.000434	4.338675	0.734992	0.000043
 192	1.9005e+01	1.8984	-9.761150	0.000544	5.443810	0.922206	0.000054
 193	1.9104e+01	1.9054	-9.715935	0.000454	4.543330	0.769661	0.000045
 194	1.9203e+01	1.9170	-9.670312	0.000458	4.584261	0.776595	0.000046
 195	1.9303e+01	1.9283	-9.620209	0.000503	5.034501	0.852868	0.000050
 196	1.9402e+01	1.9360	-9.571328	0.000491	4.911708	0.832066	0.000049
 197	1.9502e+01	1.9463	-9.528557	0.000430	4.297745	0.728058	0.000043
 198	1.9602e+01	1.9564	-9.476417	0.000524	5.239155	0.887537	0.000052
 199	1.9701e+01	1.9677	-9.430387	0.000463	4.625192	0.783529	0.000046
 200	1.9800e+01	1.9748	-9.384765	0.000458	4.584261	0.776595	0.000046
 201	1.9900e+01	1.9842	-9.335477	0.000495	4.952639	0.839000	0.000050
 202	2.0000e+01	1.9974	-9.289447	0.000463	4.625192	0.783529	0.000046
 203	2.0099e+01	2.0058	-9.240158	0.000495	4.952639	0.839000	0.000050
 204	2.0198e+01	2.0184	-9.192092	0.000483	4.829846	0.818198	0.000048
 205	2.0298e+01	2.0260	-9.146877	0.000454	4.543330	0.769661	0.000045
 206	2.0398e+01	2.0316	-9.095959	0.000512	5.116363	0.866735	0.000051
 207	2.0497e+01	2.0461	-9.045856	0.000503	5.034501	0.852868	0.000050
 208	2.0596e+01	2.0525	-9.001456	0.000446	4.461468	0.755793	0.000045
 209	2.0696e+01	2.0658	-8.956648	0.000450	4.502399	0.762727	0.000045
 210	2.0796e+01	2.0747	-8.906952	0.000499	4.993570	0.845934	0.000050
 211	2.0895e+01	2.0864	-8.865403	0.000417	4.174952	0.707256	0.000042
 212	2.0994e+01	2.0953	-8.817744	0.000479	4.788915	0.811264	0.000048
 213	2.1094e+01	2.1059	-8.773751	0.000442	4.420537	0.748859	0.000044
 214	2.1194e+01	2.1152	-8.726907	0.000471	4.707054	0.797396	0.000047
 215	2.1293e+01	2.1247	-8.685765	0.000413	4.134021	0.700322	0.000041
 216	2.1392e+01	2.1341	-8.640958	0.000450	4.502399	0.762727	0.000045
 217	2.1492e+01	2.1442	-8.593706	0.000475	4.747984	0.804330	0.000047
 218	2.1591e+01	2.1557	-8.550527	0.000434	4.338675	0.734992	0.000043
 219	2.1691e+01	2.1645	-8.503683	0.000471	4.707054	0.797396	0.000047
 220	2.1791e+01	2.1743	-8.456839	0.000471	4.707054	0.797396	0.000047
 221	2.1890e+01	2.1838	-8.404292	0.000528	5.280086	0.894471	0.000053
 222	2.1989e+01	2.1940	-8.363965	0.000405	4.052159	0.686454	0.000041
 223	2.2089e+01	2.2053	-8.313047	0.000512	5.116363	0.866735	0.000051
 224	2.2189e+01	2.2156	-8.267832	0.000454	4.543330	0.769661	0.000045
 225	2.2288e+01	2.2259	-8.221395	0.000467	4.666123	0.790463	0.000047
 226	2.2387e+01	2.2343	-8.174143	0.000475	4.747984	0.804330	0.000047
 227	2.2487e+01	2.2456	-8.126891	0.000475	4.747984	0.804330	0.000047
 228	2.2587e+01	2.2540	-8.081269	0.000458	4.584261	0.776595	0.000046
 229	2.2686e+01	2.2655	-8.038905	0.000426	4.256814	0.721124	0.000043
 230	2.2785e+01	2.2742	-7.994098	0.000450	4.502399	0.762727	0.000045
 231	2.2885e+01	2.2850	-7.945624	0.000487	4.870777	0.825132	0.000049
 232	2.2985e+01	2.2916	-7.900409	0.000454	4.543330	0.769661	0.000045
 233	2.3084e+01	2.3044	-7.856008	0.000446	4.461468	0.755793	0.000045
 234	2.3183e+01	2.3129	-7.809571	0.000467	4.666123	0.790463	0.000047
 235	2.3283e+01	2.3230	-7.763542	0.000463	4.625192	0.783529	0.000046
 236	2.3383e+01	2.3353	-7.716290	0.000475	4.747984	0.804330	0.000047
 237	2.3482e+01	2.3444	-7.673926	0.000426	4.256814	0.721124	0.000043
 238	2.3581e+01	2.3546	-7.628304	0.000458	4.584261	0.776595	0.000046
 239	2.3681e+01	2.3647	-7.587977	0.000405	4.052159	0.686454	0.000041
 240	2.3780e+01	2.3741	-7.539096	0.000491	4.911708	0.832066	0.000049
 241	2.3880e+01	2.3837	-7.495918	0.000434	4.338675	0.734992	0.000043
 242	2.3980e+01	2.3931	-7.452332	0.000438	4.379606	0.741925	0.000044
 243	2.4079e+01	2.4035	-7.411190	0.000413	4.134021	0.700322	0.000041
 244	2.4178e+01	2.4139	-7.370456	0.000409	4.093090	0.693388	0.000041
 245	2.4278e+01	2.4205	-7.325648	0.000450	4.502399	0.762727	0.000045
 246	2.4378e+01	2.4354	-7.286951	0.000389	3.888436	0.658719	0.000039
 247	2.4477e+01	2.4445	-7.242958	0.000442	4.420537	0.748859	0.000044
 248	2.4576e+01	2.4541	-7.200187	0.000430	4.297745	0.728058	0.000043
 249	2.4676e+01	2.4610	-7.159045	0.000413	4.134021	0.700322	0.000041
 250	2.4776e+01	2.4751	-7.115867	0.000434	4.338675	0.734992	0.000043
 251	2.4875e+01	2.4840	-7.071059	0.000450	4.502399	0.762727	0.000045
 252	2.4974e+01	2.4941	-7.030732	0.000405	4.052159	0.686454	0.000041
 253	2.5074e+01	2.5047	-6.987961	0.000430	4.297745	0.728058	0.000043
 254	2.5174e+01	2.5113	-6.947227	0.000409	4.093090	0.693388	0.000041
 255	2.5273e+01	2.5219	-6.906493	0.000409	4.093090	0.693388	0.000041
 256	2.5372e+01	2.5317	-6.864944	0.000417	4.174952	0.707256	0.000042
 257	2.5472e+01	2.5424	-6.821766	0.000434	4.338675	0.734992	0.000043
 258	2.5572e+01	2.5542	-6.778587	0.000434	4.338675	0.734992	0.000043
 259	2.5671e+01	2.5642	-6.738260	0.000405	4.052159	0.686454	0.000041
 260	2.5770e+01	2.5721	-6.695082	0.000434	4.338675	0.734992	0.000043
 261	2.5870e+01	2.5842	-6.651089	0.000442	4.420537	0.748859	0.000044
 262	2.5970e+01	2.5915	-6.614836	0.000364	3.642850	0.617116	0.000036
 263	2.6069e+01	2.6026	-6.572065	0.000430	4.297745	0.728058	0.000043
 264	2.6169e+01	2.6141	-6.530108	0.000422	4.215883	0.714190	0.000042
 265	2.6268e+01	2.6244	-6.486115	0.000442	4.420537	0.748859	0.000044
 266	2.6367e+01	2.6326	-6.444567	0.000417	4.174952	0.707256	0.000042
 267	2.6467e+01	2.6424	-6.404647	0.000401	4.011228	0.679520	0.000040
 268	2.6567e+01	2.6533	-6.364320	0.000405	4.052159	0.686454	0.000041
 269	2.6666e+01	2.6648	-6.319920	0.000446	4.461468	0.755793	0.000045
 270	2.6765e+01	2.6704	-6.280815	0.000393	3.929366	0.665653	0.000039
 271	2.6865e+01	2.6836	-6.237229	0.000438	4.379606	0.741925	0.000044
 272	2.6965e+01	2.6933	-6.198124	0.000393	3.929366	0.665653	0.000039
 273	2.7064e+01	2.7035	-6.156168	0.000422	4.215883	0.714190	0.000042
 274	2.7163e+01	2.7143	-6.119914	0.000364	3.642850	0.617116	0.000036
 275	2.7263e+01	2.7220	-6.077144	0.000430	4.297745	0.728058	0.000043
 276	2.7363e+01	2.7300	-6.039261	0.000381	3.806574	0.644851	0.000038
 277	2.7462e+01	2.7413	-6.001378	0.000381	3.806574	0.644851	0.000038
 278	2.7561e+01	2.7497	-5.960236	0.000413	4.134021	0.700322	0.000041
 279	2.7661e+01	2.7630	-5.920317	0.000401	4.011228	0.679520	0.000040
 280	2.7761e+01	2.7728	-5.889766	0.000307	3.069818	0.520041	0.000031
 281	2.7860e+01	2.7834	-5.846995	0.000430	4.297745	0.728058	0.000043
 282	2.7959e+01	2.7914	-5.807890	0.000393	3.929366	0.665653	0.000039
 283	2.8059e+01	2.8027	-5.765119	0.000430	4.297745	0.728058	0.000043
 284	2.8159e+01	2.8130	-5.730088	0.000352	3.520057	0.596314	0.000035
 285	2.8258e+01	2.8222	-5.688131	0.000422	4.215883	0.714190	0.000042
 286	2.8358e+01	2.8326	-5.646582	0.000417	4.174952	0.707256	0.000042
 287	2.8457e+01	2.8424	-5.614810	0.000319	3.192610	0.540843	0.000032
 288	2.8556e+01	2.8506	-5.575705	0.000393	3.929366	0.665653	0.000039
 289	2.8656e+01	2.8614	-5.536600	0.000393	3.929366	0.665653	0.000039
 290	2.8756e+01	2.8712	-5.498310	0.000385	3.847505	0.651785	0.000038
 291	2.8855e+01	2.8848	-5.458798	0.000397	3.970297	0.672587	0.000040
 292	2.8954e+01	2.8936	-5.422137	0.000368	3.683781	0.624049	0.000037
 293	2.9054e+01	2.8988	-5.378958	0.000434	4.338675	0.734992	0.000043
 294	2.9154e+01	2.9106	-5.339854	0.000393	3.929366	0.665653	0.000039
 295	2.9253e+01	2.9224	-5.300341	0.000397	3.970297	0.672587	0.000040
 296	2.9352e+01	2.9297	-5.259200	0.000413	4.134021	0.700322	0.000041
 297	2.9452e+01	2.9445	-5.219280	0.000401	4.011228	0.679520	0.000040
 298	2.9552e+01	2.9512	-5.177731	0.000417	4.174952	0.707256	0.000042
 299	2.9651e+01	2.9607	-5.137812	0.000401	4.011228	0.679520	0.000040
 300	2.9750e+01	2.9720	-5.097485	0.000405	4.052159	0.686454	0.000041
 301	2.9850e+01	2.9827	-5.058380	0.000393	3.929366	0.665653	0.000039
 302	2.9950e+01	2.9887	-5.013979	0.000446	4.461468	0.755793	0.000045
 303	3.0049e+01	3.0028	-4.975282	0.000389	3.888436	0.658719	0.000039
 304	3.0148e+01	3.0110	-4.932918	0.000426	4.256814	0.721124	0.000043
 305	3.0248e+01	3.0228	-4.898294	0.000348	3.479127	0.589380	0.000035
 306	3.0348e+01	3.0300	-4.859189	0.000393	3.929366	0.665653	0.000039
 307	3.0447e+01	3.0401	-4.819677	0.000397	3.970297	0.672587	0.000040
 308	3.0547e+01	3.0524	-4.779757	0.000401	4.011228	0.679520	0.000040
 309	3.0646e+01	3.0614	-4.741875	0.000381	3.806574	0.644851	0.000038
 310	3.0745e+01	3.0756	-4.700326	0.000417	4.174952	0.707256	0.000042
 311	3.0845e+01	3.0801	-4.664072	0.000364	3.642850	0.617116	0.000036
 312	3.0945e+01	3.0894	-4.627411	0.000368	3.683781	0.624049	0.000037
 313	3.1044e+01	3.1001	-4.587084	0.000405	4.052159	0.686454	0.000041
 314	3.1143e+01	3.1110	-4.545128	0.000422	4.215883	0.714190	0.000042
 315	3.1243e+01	3.1230	-4.508875	0.000364	3.642850	0.617116	0.000036
 316	3.1343e+01	3.1304	-4.467733	0.000413	4.134021	0.700322	0.000041
 317	3.1442e+01	3.1396	-4.429443	0.000385	3.847505	0.651785	0.000038
 318	3.1541e+01	3.1478	-4.393597	0.000360	3.601919	0.610182	0.000036
 319	3.1641e+01	3.1603	-4.355714	0.000381	3.806574	0.644851	0.000038
 320	3.1741e+01	3.1678	-4.314165	0.000417	4.174952	0.707256	0.000042
 321	3.1840e+01	3.1830	-4.276689	0.000377	3.765643	0.637917	0.000038
 322	3.1939e+01	3.1918	-4.237585	0.000393	3.929366	0.665653	0.000039
 323	3.2039e+01	3.2005	-4.195628	0.000422	4.215883	0.714190	0.000042
 324	3.2139e+01	3.2078	-4.155709	0.000401	4.011228	0.679520	0.000040
 325	3.2238e+01	3.2177	-4.114567	0.000413	4.134021	0.700322	0.000041
 326	3.2337e+01	3.2307	-4.074240	0.000405	4.052159	0.686454	0.000041
 327	3.2437e+01	3.2384	-4.034728	0.000397	3.970297	0.672587	0.000040
 328	3.2536e+01	3.2461	-3.991142	0.000438	4.379606	0.741925	0.000044
 329	3.2636e+01	3.2585	-3.950815	0.000405	4.052159	0.686454	0.000041
 330	3.2736e+01	3.2687	-3.908859	0.000422	4.215883	0.714190	0.000042
 331	3.2835e+01	3.2809	-3.870569	0.000385	3.847505	0.651785	0.000038
 332	3.2934e+01	3.2896	-3.828613	0.000422	4.215883	0.714190	0.000042
 333	3.3034e+01	3.3006	-3.786656	0.000422	4.215883	0.714190	0.000042
 334	3.3133e+01	3.3083	-3.745515	0.000413	4.134021	0.700322	0.000041
 335	3.3233e+01	3.3189	-3.704781	0.000409	4.093090	0.693388	0.000041
 336	3.3333e+01	3.3279	-3.665268	0.000397	3.970297	0.672587	0.000040
 337	3.3432e+01	3.3363	-3.626163	0.000393	3.929366	0.665653	0.000039
 338	3.3532e+01	3.3499	-3.583392	0.000430	4.297745	0.728058	0.000043
 339	3.3631e+01	3.3572	-3.541029	0.000426	4.256814	0.721124	0.000043
 340	3.3730e+01	3.3687	-3.499480	0.000417	4.174952	0.707256	0.000042
 341	3.3830e+01	3.3808	-3.459153	0.000405	4.052159	0.686454	0.000041
 342	3.3929e+01	3.3900	-3.421270	0.000381	3.806574	0.644851	0.000038
 343	3.4029e+01	3.3994	-3.376870	0.000446	4.461468	0.755793	0.000045
 344	3.4129e+01	3.4084	-3.336135	0.000409	4.093090	0.693388	0.000041
 345	3.4228e+01	3.4195	-3.293365	0.000430	4.297745	0.728058	0.000043
 346	3.4328e+01	3.4284	-3.252630	0.000409	4.093090	0.693388	0.000041
 347	3.4427e+01	3.4376	-3.212303	0.000405	4.052159	0.686454	0.000041
 348	3.4526e+01	3.4478	-3.171976	0.000405	4.052159	0.686454	0.000041
 349	3.4626e+01	3.4608	-3.131242	0.000409	4.093090	0.693388	0.000041
 350	3.4725e+01	3.4692	-3.090101	0.000413	4.134021	0.700322	0.000041
 351	3.4825e+01	3.4794	-3.046515	0.000438	4.379606	0.741925	0.000044
 352	3.4925e+01	3.4882	-3.007410	0.000393	3.929366	0.665653	0.000039
 353	3.5024e+01	3.4981	-2.969935	0.000377	3.765643	0.637917	0.000038
 354	3.5123e+01	3.5111	-2.925942	0.000442	4.420537	0.748859	0.000044
 355	3.5223e+01	3.5187	-2.884800	0.000413	4.134021	0.700322	0.000041
 356	3.5322e+01	3.5284	-2.844473	0.000405	4.052159	0.686454	0.000041
 357	3.5422e+01	3.5377	-2.799665	0.000450	4.502399	0.762727	0.000045
 358	3.5522e+01	3.5480	-2.758116	0.000417	4.174952	0.707256	0.000042
 359	3.5621e+01	3.5595	-2.716975	0.000413	4.134021	0.700322	0.000041
 360	3.5721e+01	3.5648	-2.670538	0.000467	4.666123	0.790463	0.000047
 361	3.5820e+01	3.5797	-2.629396	0.000413	4.134021	0.700322	0.000041
 362	3.5919e+01	3.5879	-2.589477	0.000401	4.011228	0.679520	0.000040
 363	3.6019e+01	3.5967	-2.547113	0.000426	4.256814	0.721124	0.000043
 364	3.6118e+01	3.6086	-2.501083	0.000463	4.625192	0.783529	0.000046
 365	3.6218e+01	3.6172	-2.460756	0.000405	4.052159	0.686454	0.000041
 366	3.6318e+01	3.6272	-2.415541	0.000454	4.543330	0.769661	0.000045
 367	3.6417e+01	3.6396	-2.377251	0.000385	3.847505	0.651785	0.000038
 368	3.6517e+01	3.6488	-2.333665	0.000438	4.379606	0.741925	0.000044
 369	3.6616e+01	3.6583	-2.289672	0.000442	4.420537	0.748859	0.000044
 370	3.6715e+01	3.6686	-2.250160	0.000397	3.970297	0.672587	0.000040
 371	3.6815e+01	3.6758	-2.204945	0.000454	4.543330	0.769661	0.000045
 372	3.6914e+01	3.6848	-2.160952	0.000442	4.420537	0.748859	0.000044
 373	3.7014e+01	3.6993	-2.121033	0.000401	4.011228	0.679520	0.000040
 374	3.7114e+01	3.7072	-2.076632	0.000446	4.461468	0.755793	0.000045
 375	3.7213e+01	3.7193	-2.037120	0.000397	3.970297	0.672587	0.000040
 376	3.7313e+01	3.7247	-1.994349	0.000430	4.297745	0.728058	0.000043
 377	3.7412e+01	3.7342	-1.955652	0.000389	3.888436	0.658719	0.000039
 378	3.7511e+01	3.7470	-1.914917	0.000409	4.093090	0.693388	0.000041
 379	3.7611e+01	3.7586	-1.874590	0.000405	4.052159	0.686454	0.000041
 380	3.7711e+01	3.7695	-1.833856	0.000409	4.093090	0.693388	0.000041
 381	3.7810e+01	3.7774	-1.795566	0.000385	3.847505	0.651785	0.000038
 382	3.7910e+01	3.7883	-1.754017	0.000417	4.174952	0.707256	0.000042
 383	3.8009e+01	3.7949	-1.712468	0.000417	4.174952	0.707256	0.000042
 384	3.8108e+01	3.8068	-1.677437	0.000352	3.520057	0.596314	0.000035
 385	3.8208e+01	3.8160	-1.629370	0.000483	4.829846	0.818198	0.000048
 386	3.8307e+01	3.8263	-1.593524	0.000360	3.601919	0.610182	0.000036
 387	3.8407e+01	3.8372	-1.552790	0.000409	4.093090	0.693388	0.000041
 388	3.8507e+01	3.8430	-1.510019	0.000430	4.297745	0.728058	0.000043
 389	3.8606e+01	3.8570	-1.466841	0.000434	4.338675	0.734992	0.000043
 390	3.8706e+01	3.8661	-1.426514	0.000405	4.052159	0.686454	0.000041
 391	3.8805e+01	3.8766	-1.384150	0.000426	4.256814	0.721124	0.000043
 392	3.8904e+01	3.8838	-1.345045	0.000393	3.929366	0.665653	0.000039
 393	3.9004e+01	3.8983	-1.300645	0.000446	4.461468	0.755793	0.000045
 394	3.9103e+01	3.9069	-1.264391	0.000364	3.642850	0.617116	0.000036
 395	3.9203e+01	3.9158	-1.220398	0.000442	4.420537	0.748859	0.000044
 396	3.9303e+01	3.9248	-1.182108	0.000385	3.847505	0.651785	0.000038
 397	3.9402e+01	3.9362	-1.141374	0.000409	4.093090	0.693388	0.000041
 398	3.9502e+01	3.9475	-1.099825	0.000417	4.174952	0.707256	0.000042
 399	3.9601e+01	3.9543	-1.059498	0.000405	4.052159	0.686454	0.000041
 400	3.9700e+01	3.9659	-1.018764	0.000409	4.093090	0.693388	0.000041
 401	3.9800e+01	3.9736	-0.977215	0.000417	4.174952	0.707256	0.000042
 402	3.9900e+01	3.9859	-0.935666	0.000417	4.174952	0.707256	0.000042
 403	3.9999e+01	3.9967	-0.894117	0.000417	4.174952	0.707256	0.000042
 404	4.0099e+01	4.0065	-0.856641	0.000377	3.765643	0.637917	0.000038
 405	4.0198e+01	4.0142	-0.815500	0.000413	4.134021	0.700322	0.000041
 406	4.0297e+01	4.0232	-0.776802	0.000389	3.888436	0.658719	0.000039
 407	4.0397e+01	4.0345	-0.737290	0.000397	3.970297	0.672587	0.000040
 408	4.0496e+01	4.0440	-0.700629	0.000368	3.683781	0.624049	0.000037
 409	4.0596e+01	4.0569	-0.661524	0.000393	3.929366	0.665653	0.000039
 410	4.0696e+01	4.0647	-0.622419	0.000393	3.929366	0.665653	0.000039
 411	4.0795e+01	4.0747	-0.590647	0.000319	3.192610	0.540843	0.000032
 412	4.0895e+01	4.0835	-0.549505	0.000413	4.134021	0.700322	0.000041
 413	4.0994e+01	4.0930	-0.510808	0.000389	3.888436	0.658719	0.000039
 414	4.1093e+01	4.1051	-0.474961	0.000360	3.601919	0.610182	0.000036
 415	4.1193e+01	4.1138	-0.436264	0.000389	3.888436	0.658719	0.000039
 416	4.1292e+01	4.1249	-0.403269	0.000332	3.315403	0.561644	0.000033
 417	4.1392e+01	4.1370	-0.361313	0.000422	4.215883	0.714190	0.000042
 418	4.1492e+01	4.1421	-0.329540	0.000319	3.192610	0.540843	0.000032
 419	4.1591e+01	4.1531	-0.290435	0.000393	3.929366	0.665653	0.000039
 420	4.1691e+01	4.1656	-0.252960	0.000377	3.765643	0.637917	0.000038
 421	4.1790e+01	4.1756	-0.214670	0.000385	3.847505	0.651785	0.000038
 422	4.1889e+01	4.1856	-0.179638	0.000352	3.520057	0.596314	0.000035
 423	4.1989e+01	4.1970	-0.142977	0.000368	3.683781	0.624049	0.000037
 424	4.2089e+01	4.2057	-0.105909	0.000372	3.724712	0.630983	0.000037
 425	4.2188e+01	4.2173	-0.069656	0.000364	3.642850	0.617116	0.000036
 426	4.2288e+01	4.2217	-0.031365	0.000385	3.847505	0.651785	0.000038
 427	4.2387e+01	4.2371	0.007332	0.000389	3.888436	0.658719	0.000039
 428	4.2486e+01	4.2451	0.043586	0.000364	3.642850	0.617116	0.000036
 429	4.2586e+01	4.2557	0.079024	0.000356	3.560988	0.603248	0.000036
 430	4.2685e+01	4.2662	0.116093	0.000372	3.724712	0.630983	0.000037
 431	4.2785e+01	4.2731	0.153568	0.000377	3.765643	0.637917	0.000038
 432	4.2885e+01	4.2883	0.188192	0.000348	3.479127	0.589380	0.000035
 433	4.2984e+01	4.2949	0.222409	0.000344	3.438196	0.582446	0.000034
 434	4.3084e+01	4.3034	0.261514	0.000393	3.929366	0.665653	0.000039
 435	4.3183e+01	4.3147	0.299397	0.000381	3.806574	0.644851	0.000038
 436	4.3282e+01	4.3261	0.335650	0.000364	3.642850	0.617116	0.000036
 437	4.3382e+01	4.3325	0.372311	0.000368	3.683781	0.624049	0.000037
 438	4.3481e+01	4.3443	0.408972	0.000368	3.683781	0.624049	0.000037
 439	4.3581e+01	4.3537	0.444818	0.000360	3.601919	0.610182	0.000036
 440	4.3681e+01	4.3644	0.480257	0.000356	3.560988	0.603248	0.000036
 441	4.3780e+01	4.3778	0.514474	0.000344	3.438196	0.582446	0.000034
 442	4.3880e+01	4.3807	0.547468	0.000332	3.315403	0.561644	0.000033
 443	4.3979e+01	4.3955	0.583722	0.000364	3.642850	0.617116	0.000036
 444	4.4078e+01	4.4030	0.619161	0.000356	3.560988	0.603248	0.000036
 445	4.4178e+01	4.4109	0.650933	0.000319	3.192610	0.540843	0.000032
 446	4.4278e+01	4.4242	0.682706	0.000319	3.192610	0.540843	0.000032
 447	4.4377e+01	4.4336	0.716923	0.000344	3.438196	0.582446	0.000034
 448	4.4477e+01	4.4431	0.749918	0.000332	3.315403	0.561644	0.000033
 449	4.4576e+01	4.4537	0.780468	0.000307	3.069818	0.520041	0.000031
 450	4.4675e+01	4.4633	0.817944	0.000377	3.765643	0.637917	0.000038
 451	4.4775e+01	4.4736	0.854197	0.000364	3.642850	0.617116	0.000036
 452	4.4874e+01	4.4842	0.889636	0.000356	3.560988	0.603248	0.000036
 453	4.4974e+01	4.4930	0.920594	0.000311	3.110748	0.526975	0.000031
 454	4.5074e+01	4.5040	0.954404	0.000340	3.397265	0.575512	0.000034
 455	4.5173e+01	4.5163	0.987806	0.000336	3.356334	0.568578	0.000034
 456	4.5273e+01	4.5237	1.019171	0.000315	3.151679	0.533909	0.000032
 457	4.5372e+01	4.5306	1.053795	0.000348	3.479127	0.589380	0.000035
 458	4.5471e+01	4.5437	1.085568	0.000319	3.192610	0.540843	0.000032
 459	4.5571e+01	4.5541	1.123043	0.000377	3.765643	0.637917	0.000038
 460	4.5670e+01	4.5596	1.155631	0.000327	3.274472	0.554711	0.000033
 461	4.5770e+01	4.5716	1.189033	0.000336	3.356334	0.568578	0.000034
 462	4.5870e+01	4.5837	1.224064	0.000352	3.520057	0.596314	0.000035
 463	4.5969e+01	4.5930	1.259911	0.000360	3.601919	0.610182	0.000036
 464	4.6069e+01	4.6037	1.296164	0.000364	3.642850	0.617116	0.000036
 465	4.6168e+01	4.6162	1.336084	0.000401	4.011228	0.679520	0.000040
 466	4.6267e+01	4.6241	1.368264	0.000323	3.233541	0.547777	0.000032
 467	4.6367e+01	4.6375	1.405332	0.000372	3.724712	0.630983	0.000037
 468	4.6467e+01	4.6429	1.437512	0.000323	3.233541	0.547777	0.000032
 469	4.6566e+01	4.6523	1.475802	0.000385	3.847505	0.651785	0.000038
 470	4.6666e+01	4.6632	1.507167	0.000315	3.151679	0.533909	0.000032
 471	4.6765e+01	4.6722	1.544236	0.000372	3.724712	0.630983	0.000037
 472	4.6864e+01	4.6827	1.576823	0.000327	3.274472	0.554711	0.000033
 473	4.6964e+01	4.6909	1.609410	0.000327	3.274472	0.554711	0.000033
 474	4.7063e+01	4.6999	1.647701	0.000385	3.847505	0.651785	0.000038
 475	4.7163e+01	4.7131	1.676622	0.000291	2.906094	0.492306	0.000029
 476	4.7263e+01	4.7213	1.712061	0.000356	3.560988	0.603248	0.000036
 477	4.7362e+01	4.7311	1.745870	0.000340	3.397265	0.575512	0.000034
 478	4.7462e+01	4.7430	1.779272	0.000336	3.356334	0.568578	0.000034
 479	4.7561e+01	4.7536	1.816340	0.000372	3.724712	0.630983	0.000037
 480	4.7660e+01	4.7630	1.848928	0.000327	3.274472	0.554711	0.000033
 481	4.7760e+01	4.7702	1.883145	0.000344	3.438196	0.582446	0.000034
 482	4.7859e+01	4.7811	1.916139	0.000332	3.315403	0.561644	0.000033
 483	4.7959e+01	4.7919	1.951578	0.000356	3.560988	0.603248	0.000036
 484	4.8059e+01	4.8029	1.980907	0.000295	2.947025	0.499240	0.000029
 485	4.8158e+01	4.8149	2.018382	0.000377	3.765643	0.637917	0.000038
 486	4.8258e+01	4.8240	2.050155	0.000319	3.192610	0.540843	0.000032
 487	4.8357e+01	4.8316	2.083150	0.000332	3.315403	0.561644	0.000033
 488	4.8456e+01	4.8408	2.122255	0.000393	3.929366	0.665653	0.000039
 489	4.8556e+01	4.8505	2.151991	0.000299	2.987956	0.506173	0.000030
 490	4.8656e+01	4.8602	2.189059	0.000372	3.724712	0.630983	0.000037
 491	4.8755e+01	4.8713	2.227349	0.000385	3.847505	0.651785	0.000038
 492	4.8855e+01	4.8819	2.258307	0.000311	3.110748	0.526975	0.000031
 493	4.8954e+01	4.8930	2.297412	0.000393	3.929366	0.665653	0.000039
 494	4.9053e+01	4.9026	2.330407	0.000332	3.315403	0.561644	0.000033
 495	4.9153e+01	4.9136	2.366660	0.000364	3.642850	0.617116	0.000036
 496	4.9252e+01	4.9230	2.405765	0.000393	3.929366	0.665653	0.000039
 497	4.9352e+01	4.9353	2.439575	0.000340	3.397265	0.575512	0.000034
 498	4.9452e+01	4.9411	2.475421	0.000360	3.601919	0.610182	0.000036
 499	4.9551e+01	4.9497	2.511674	0.000364	3.642850	0.617116	0.000036
 500	4.9651e+01	4.9616	2.547113	0.000356	3.560988	0.603248	0.000036
 501	4.9750e+01	4.9751	2.581330	0.000344	3.438196	0.582446	0.000034
 502	4.9849e+01	4.9813	2.618398	0.000372	3.724712	0.630983	0.000037
 503	4.9949e+01	4.9934	2.657503	0.000393	3.929366	0.665653	0.000039
 504	5.0048e+01	5.0005	2.692534	0.000352	3.520057	0.596314	0.000035
 505	5.0148e+01	5.0123	2.729602	0.000372	3.724712	0.630983	0.000037
 506	5.0248e+01	5.0222	2.764227	0.000348	3.479127	0.589380	0.000035
 507	5.0347e+01	5.0310	2.800480	0.000364	3.642850	0.617116	0.000036
 508	5.0447e+01	5.0394	2.834697	0.000344	3.438196	0.582446	0.000034
 509	5.0546e+01	5.0506	2.870950	0.000364	3.642850	0.617116	0.000036
 510	5.0645e+01	5.0620	2.906389	0.000356	3.560988	0.603248	0.000036
 511	5.0745e+01	5.0727	2.941828	0.000356	3.560988	0.603248	0.000036
 512	5.0844e+01	5.0808	2.975637	0.000340	3.397265	0.575512	0.000034
 513	5.0944e+01	5.0892	3.017186	0.000417	4.174952	0.707256	0.000042
 514	5.1044e+01	5.1000	3.054254	0.000372	3.724712	0.630983	0.000037
 515	5.1143e+01	5.1101	3.089693	0.000356	3.560988	0.603248	0.000036
 516	5.1242e+01	5.1212	3.127983	0.000385	3.847505	0.651785	0.000038
 517	5.1342e+01	5.1293	3.160978	0.000332	3.315403	0.561644	0.000033
 518	5.1441e+01	5.1374	3.197639	0.000368	3.683781	0.624049	0.000037
 519	5.1541e+01	5.1511	3.236744	0.000393	3.929366	0.665653	0.000039
 520	5.1641e+01	5.1588	3.267702	0.000311	3.110748	0.526975	0.000031
 521	5.1740e+01	5.1698	3.304770	0.000372	3.724712	0.630983	0.000037
 522	5.1840e+01	5.1769	3.341431	0.000368	3.683781	0.624049	0.000037
 523	5.1939e+01	5.1868	3.377277	0.000360	3.601919	0.610182	0.000036
 524	5.2038e+01	5.1983	3.413938	0.000368	3.683781	0.624049	0.000037
 525	5.2138e+01	5.2077	3.448562	0.000348	3.479127	0.589380	0.000035
 526	5.2237e+01	5.2218	3.492555	0.000442	4.420537	0.748859	0.000044
 527	5.2337e+01	5.2287	3.527179	0.000348	3.479127	0.589380	0.000035
 528	5.2437e+01	5.2416	3.563840	0.000368	3.683781	0.624049	0.000037
 529	5.2536e+01	5.2470	3.607833	0.000442	4.420537	0.748859	0.000044
 530	5.2636e+01	5.2602	3.644901	0.000372	3.724712	0.630983	0.000037
 531	5.2735e+01	5.2662	3.682377	0.000377	3.765643	0.637917	0.000038
 532	5.2834e+01	5.2776	3.719037	0.000368	3.683781	0.624049	0.000037
 533	5.2934e+01	5.2923	3.756106	0.000372	3.724712	0.630983	0.000037
 534	5.3033e+01	5.2990	3.797247	0.000413	4.134021	0.700322	0.000041
 535	5.3133e+01	5.3076	3.829427	0.000323	3.233541	0.547777	0.000032
 536	5.3233e+01	5.3175	3.868940	0.000397	3.970297	0.672587	0.000040
 537	5.3332e+01	5.3289	3.907230	0.000385	3.847505	0.651785	0.000038
 538	5.3431e+01	5.3381	3.947557	0.000405	4.052159	0.686454	0.000041
 539	5.3531e+01	5.3490	3.982181	0.000348	3.479127	0.589380	0.000035
 540	5.3630e+01	5.3591	4.020064	0.000381	3.806574	0.644851	0.000038
 541	5.3730e+01	5.3695	4.059169	0.000393	3.929366	0.665653	0.000039
 542	5.3830e+01	5.3789	4.093385	0.000344	3.438196	0.582446	0.000034
 543	5.3929e+01	5.3869	4.133305	0.000401	4.011228	0.679520	0.000040
 544	5.4029e+01	5.3986	4.174039	0.000409	4.093090	0.693388	0.000041
 545	5.4128e+01	5.4092	4.207441	0.000336	3.356334	0.568578	0.000034
 546	5.4227e+01	5.4169	4.244917	0.000377	3.765643	0.637917	0.000038
 547	5.4327e+01	5.4276	4.277097	0.000323	3.233541	0.547777	0.000032
 548	5.4426e+01	5.4382	4.312536	0.000356	3.560988	0.603248	0.000036
 549	5.4526e+01	5.4471	4.350011	0.000377	3.765643	0.637917	0.000038
 550	5.4626e+01	5.4563	4.380562	0.000307	3.069818	0.520041	0.000031
 551	5.4725e+01	5.4688	4.417223	0.000368	3.683781	0.624049	0.000037
 552	5.4825e+01	5.4777	4.457550	0.000405	4.052159	0.686454	0.000041
 553	5.4924e+01	5.4894	4.491359	0.000340	3.397265	0.575512	0.000034
 554	5.5023e+01	5.4975	4.525168	0.000340	3.397265	0.575512	0.000034
 555	5.5123e+01	5.5093	4.564681	0.000397	3.970297	0.672587	0.000040
 556	5.5222e+01	5.5164	4.598897	0.000344	3.438196	0.582446	0.000034
 557	5.5322e+01	5.5285	4.640446	0.000417	4.174952	0.707256	0.000042
 558	5.5422e+01	5.5389	4.677515	0.000372	3.724712	0.630983	0.000037
 559	5.5521e+01	5.5517	4.710102	0.000327	3.274472	0.554711	0.000033
 560	5.5620e+01	5.5585	4.749207	0.000393	3.929366	0.665653	0.000039
 561	5.5720e+01	5.5700	4.789941	0.000409	4.093090	0.693388	0.000041
 562	5.5819e+01	5.5804	4.825787	0.000360	3.601919	0.610182	0.000036
 563	5.5919e+01	5.5871	4.861226	0.000356	3.560988	0.603248	0.000036
 564	5.6019e+01	5.5968	4.895443	0.000344	3.438196	0.582446	0.000034
 565	5.6118e+01	5.6081	4.931289	0.000360	3.601919	0.610182	0.000036
 566	5.6218e+01	5.6168	4.967135	0.000360	3.601919	0.610182	0.000036
 567	5.6317e+01	5.6284	5.004203	0.000372	3.724712	0.630983	0.000037
 568	5.6416e+01	5.6385	5.035976	0.000319	3.192610	0.540843	0.000032
 569	5.6516e+01	5.6484	5.074266	0.000385	3.847505	0.651785	0.000038
 570	5.6615e+01	5.6575	5.109298	0.000352	3.520057	0.596314	0.000035
 571	5.6715e+01	5.6686	5.146366	0.000372	3.724712	0.630983	0.000037
 572	5.6815e+01	5.6783	5.182212	0.000360	3.601919	0.610182	0.000036
 573	5.6914e+01	5.6872	5.214799	0.000327	3.274472	0.554711	0.000033
 574	5.7014e+01	5.6991	5.251053	0.000364	3.642850	0.617116	0.000036
 575	5.7113e+01	5.7087	5.283233	0.000323	3.233541	0.547777	0.000032
 576	5.7212e+01	5.7186	5.318264	0.000352	3.520057	0.596314	0.000035
 577	5.7312e+01	5.7259	5.350852	0.000327	3.274472	0.554711	0.000033
 578	5.7411e+01	5.7394	5.384661	0.000340	3.397265	0.575512	0.000034
 579	5.7511e+01	5.7481	5.422137	0.000377	3.765643	0.637917	0.000038
 580	5.7611e+01	5.7572	5.450651	0.000287	2.865163	0.485372	0.000029
 581	5.7710e+01	5.7671	5.484053	0.000336	3.356334	0.568578	0.000034
 582	5.7809e+01	5.7796	5.518270	0.000344	3.438196	0.582446	0.000034
 583	5.7909e+01	5.7911	5.550450	0.000323	3.233541	0.547777	0.000032
 584	5.8008e+01	5.7983	5.579778	0.000295	2.947025	0.499240	0.000029
 585	5.8108e+01	5.8085	5.612773	0.000332	3.315403	0.561644	0.000033
 586	5.8208e+01	5.8160	5.648212	0.000356	3.560988	0.603248	0.000036
 587	5.8307e+01	5.8260	5.683243	0.000352	3.520057	0.596314	0.000035
 588	5.8407e+01	5.8346	5.711350	0.000282	2.824232	0.478438	0.000028
 589	5.8506e+01	5.8462	5.747603	0.000364	3.642850	0.617116	0.000036
 590	5.8605e+01	5.8559	5.778969	0.000315	3.151679	0.533909	0.000032
 591	5.8705e+01	5.8697	5.808705	0.000299	2.987956	0.506173	0.000030
 592	5.8804e+01	5.8765	5.840478	0.000319	3.192610	0.540843	0.000032
 593	5.8904e+01	5.8887	5.875509	0.000352	3.520057	0.596314	0.000035
 594	5.9004e+01	5.8949	5.908096	0.000327	3.274472	0.554711	0.000033
 595	5.9103e+01	5.9073	5.939869	0.000319	3.192610	0.540843	0.000032
 596	5.9203e+01	5.9180	5.972864	0.000332	3.315403	0.561644	0.000033
 597	5.9302e+01	5.9264	6.003822	0.000311	3.110748	0.526975	0.000031
 598	5.9401e+01	5.9347	6.036817	0.000332	3.315403	0.561644	0.000033
 599	5.9501e+01	5.9480	6.068182	0.000315	3.151679	0.533909	0.000032
 600	5.9600e+01	5.9562	6.101584	0.000336	3.356334	0.568578	0.000034
 601	5.9700e+01	5.9632	6.130505	0.000291	2.906094	0.492306	0.000029
 602	5.9800e+01	5.9743	6.162685	0.000323	3.233541	0.547777	0.000032
 603	5.9899e+01	5.9872	6.198939	0.000364	3.642850	0.617116	0.000036
 604	5.9998e+01	5.9963	6.230304	0.000315	3.151679	0.533909	0.000032
 605	6.0098e+01	6.0036	6.260448	0.000303	3.028887	0.513107	0.000030
 606	6.0197e+01	6.0165	6.293035	0.000327	3.274472	0.554711	0.000033
 607	6.0297e+01	6.0265	6.327659	0.000348	3.479127	0.589380	0.000035
 608	6.0397e+01	6.0336	6.354544	0.000270	2.701439	0.457636	0.000027
 609	6.0496e+01	6.0472	6.388761	0.000344	3.438196	0.582446	0.000034
 610	6.0596e+01	6.0551	6.419311	0.000307	3.069818	0.520041	0.000031
 611	6.0695e+01	6.0670	6.448233	0.000291	2.906094	0.492306	0.000029
 612	6.0794e+01	6.0755	6.473895	0.000258	2.578647	0.436835	0.000026
 613	6.0894e+01	6.0835	6.503224	0.000295	2.947025	0.499240	0.000029
 614	6.0993e+01	6.0948	6.534589	0.000315	3.151679	0.533909	0.000032
 615	6.1093e+01	6.1037	6.564325	0.000299	2.987956	0.506173	0.000030
 616	6.1193e+01	6.1144	6.591210	0.000270	2.701439	0.457636	0.000027
 617	6.1292e+01	6.1260	6.622575	0.000315	3.151679	0.533909	0.000032
 618	6.1392e+01	6.1355	6.651497	0.000291	2.906094	0.492306	0.000029
 619	6.1491e+01	6.1439	6.683269	0.000319	3.192610	0.540843	0.000032
 620	6.1590e+01	6.1562	6.710561	0.000274	2.742370	0.464570	0.000027
 621	6.1690e+01	6.1633	6.748037	0.000377	3.765643	0.637917	0.000038
 622	6.1789e+01	6.1715	6.774107	0.000262	2.619578	0.443768	0.000026
 623	6.1889e+01	6.1846	6.803028	0.000291	2.906094	0.492306	0.000029
 624	6.1989e+01	6.1979	6.831135	0.000282	2.824232	0.478438	0.000028
 625	6.2088e+01	6.2025	6.863722	0.000327	3.274472	0.554711	0.000033
 626	6.2188e+01	6.2142	6.888977	0.000254	2.537716	0.429901	0.000025
 627	6.2287e+01	6.2278	6.921565	0.000327	3.274472	0.554711	0.000033
 628	6.2386e+01	6.2334	6.948042	0.000266	2.660509	0.450702	0.000027
 629	6.2486e+01	6.2432	6.977778	0.000299	2.987956	0.506173	0.000030
 630	6.2586e+01	6.2528	7.005885	0.000282	2.824232	0.478438	0.000028
 631	6.2685e+01	6.2632	7.041731	0.000360	3.601919	0.610182	0.000036
 632	6.2785e+01	6.2737	7.075133	0.000336	3.356334	0.568578	0.000034
 633	6.2884e+01	6.2858	7.106905	0.000319	3.192610	0.540843	0.000032
 634	6.2983e+01	6.2957	7.139086	0.000323	3.233541	0.547777	0.000032
 635	6.3083e+01	6.3037	7.163526	0.000246	2.455854	0.416033	0.000025
 636	6.3182e+01	6.3195	7.197336	0.000340	3.397265	0.575512	0.000034
 637	6.3282e+01	6.3233	7.231145	0.000340	3.397265	0.575512	0.000034
 638	6.3382e+01	6.3345	7.259659	0.000287	2.865163	0.485372	0.000029
 639	6.3481e+01	6.3441	7.291024	0.000315	3.151679	0.533909	0.000032
 640	6.3581e+01	6.3563	7.319131	0.000282	2.824232	0.478438	0.000028
 641	6.3680e+01	6.3637	7.348460	0.000295	2.947025	0.499240	0.000029
 642	6.3779e+01	6.3702	7.379010	0.000307	3.069818	0.520041	0.000031
 643	6.3879e+01	6.3847	7.408339	0.000295	2.947025	0.499240	0.000029
 644	6.3978e+01	6.3937	7.436038	0.000278	2.783301	0.471504	0.000028
 645	6.4078e+01	6.4050	7.462923	0.000270	2.701439	0.457636	0.000027
 646	6.4177e+01	6.4146	7.497140	0.000344	3.438196	0.582446	0.000034
 647	6.4277e+01	6.4226	7.529320	0.000323	3.233541	0.547777	0.000032
 648	6.4376e+01	6.4324	7.559870	0.000307	3.069818	0.520041	0.000031
 649	6.4476e+01	6.4429	7.589199	0.000295	2.947025	0.499240	0.000029
 650	6.4576e+01	6.4544	7.618528	0.000295	2.947025	0.499240	0.000029
 651	6.4675e+01	6.4651	7.649078	0.000307	3.069818	0.520041	0.000031
 652	6.4775e+01	6.4715	7.680036	0.000311	3.110748	0.526975	0.000031
 653	6.4874e+01	6.4819	7.707736	0.000278	2.783301	0.471504	0.000028
 654	6.4974e+01	6.4922	7.739101	0.000315	3.151679	0.533909	0.000032
 655	6.5073e+01	6.5029	7.768430	0.000295	2.947025	0.499240	0.000029
 656	6.5172e+01	6.5124	7.798166	0.000299	2.987956	0.506173	0.000030
 657	6.5272e+01	6.5226	7.826680	0.000287	2.865163	0.485372	0.000029
 658	6.5371e+01	6.5311	7.858860	0.000323	3.233541	0.547777	0.000032
 659	6.5471e+01	6.5430	7.889411	0.000307	3.069818	0.520041	0.000031
 660	6.5570e+01	6.5515	7.924035	0.000348	3.479127	0.589380	0.000035
 661	6.5670e+01	6.5609	7.952956	0.000291	2.906094	0.492306	0.000029
 662	6.5769e+01	6.5732	7.987580	0.000348	3.479127	0.589380	0.000035
 663	6.5869e+01	6.5830	8.016501	0.000291	2.906094	0.492306	0.000029
 664	6.5969e+01	6.5907	8.049904	0.000336	3.356334	0.568578	0.000034
 665	6.6068e+01	6.6009	8.080454	0.000307	3.069818	0.520041	0.000031
 666	6.6168e+01	6.6103	8.113449	0.000332	3.315403	0.561644	0.000033
 667	6.6267e+01	6.6241	8.146444	0.000332	3.315403	0.561644	0.000033
 668	6.6367e+01	6.6328	8.181068	0.000348	3.479127	0.589380	0.000035
 669	6.6466e+01	6.6406	8.212433	0.000315	3.151679	0.533909	0.000032
 670	6.6566e+01	6.6521	8.242577	0.000303	3.028887	0.513107	0.000030
 671	6.6665e+01	6.6639	8.273535	0.000311	3.110748	0.526975	0.000031
 672	6.6764e+01	6.6749	8.310195	0.000368	3.683781	0.624049	0.000037
 673	6.6864e+01	6.6839	8.341561	0.000315	3.151679	0.533909	0.000032
 674	6.6963e+01	6.6936	8.372519	0.000311	3.110748	0.526975	0.000031
 675	6.7063e+01	6.7028	8.404699	0.000323	3.233541	0.547777	0.000032
 676	6.7162e+01	6.7104	8.436064	0.000315	3.151679	0.533909	0.000032
 677	6.7262e+01	6.7231	8.469059	0.000332	3.315403	0.561644	0.000033
 678	6.7362e+01	6.7312	8.501646	0.000327	3.274472	0.554711	0.000033
 679	6.7461e+01	6.7400	8.534641	0.000332	3.315403	0.561644	0.000033
 680	6.7561e+01	6.7513	8.565192	0.000307	3.069818	0.520041	0.000031
 681	6.7660e+01	6.7580	8.602667	0.000377	3.765643	0.637917	0.000038
 682	6.7760e+01	6.7744	8.632403	0.000299	2.987956	0.506173	0.000030
 683	6.7859e+01	6.7822	8.664176	0.000319	3.192610	0.540843	0.000032
 684	6.7959e+01	6.7907	8.695541	0.000315	3.151679	0.533909	0.000032
 685	6.8058e+01	6.8040	8.731795	0.000364	3.642850	0.617116	0.000036
 686	6.8157e+01	6.8093	8.763975	0.000323	3.233541	0.547777	0.000032
 687	6.8257e+01	6.8208	8.795748	0.000319	3.192610	0.540843	0.000032
 688	6.8356e+01	6.8288	8.829557	0.000340	3.397265	0.575512	0.000034
 689	6.8456e+01	6.8457	8.858478	0.000291	2.906094	0.492306	0.000029
 690	6.8555e+01	6.8510	8.892288	0.000340	3.397265	0.575512	0.000034
 691	6.8655e+01	6.8615	8.925283	0.000332	3.315403	0.561644	0.000033
 692	6.8754e+01	6.8708	8.958277	0.000332	3.315403	0.561644	0.000033
 693	6.8854e+01	6.8829	8.988828	0.000307	3.069818	0.520041	0.000031
 694	6.8954e+01	6.8924	9.025082	0.000364	3.642850	0.617116	0.000036
 695	6.9053e+01	6.8996	9.057669	0.000327	3.274472	0.554711	0.000033
 696	6.9153e+01	6.9132	9.097181	0.000397	3.970297	0.672587	0.000040
 697	6.9252e+01	6.9216	9.132213	0.000352	3.520057	0.596314	0.000035
 698	6.9352e+01	6.9308	9.163985	0.000319	3.192610	0.540843	0.000032
 699	6.9451e+01	6.9422	9.201868	0.000381	3.806574	0.644851	0.000038
 700	6.9550e+01	6.9491	9.233641	0.000319	3.192610	0.540843	0.000032
 701	6.9650e+01	6.9643	9.270709	0.000372	3.724712	0.630983	0.000037
 702	6.9749e+01	6.9701	9.303704	0.000332	3.315403	0.561644	0.000033
 703	6.9849e+01	6.9802	9.335884	0.000323	3.233541	0.547777	0.000032
 704	6.9948e+01	6.9909	9.363991	0.000282	2.824232	0.478438	0.000028
 705	7.0048e+01	7.0013	9.398615	0.000348	3.479127	0.589380	0.000035
 706	7.0147e+01	7.0123	9.435683	0.000372	3.724712	0.630983	0.000037
 707	7.0247e+01	7.0211	9.468270	0.000327	3.274472	0.554711	0.000033
 708	7.0347e+01	7.0296	9.504116	0.000360	3.601919	0.610182	0.000036
 709	7.0446e+01	7.0396	9.539148	0.000352	3.520057	0.596314	0.000035
 710	7.0546e+01	7.0487	9.574179	0.000352	3.520057	0.596314	0.000035
 711	7.0645e+01	7.0605	9.605545	0.000315	3.151679	0.533909	0.000032
 712	7.0745e+01	7.0712	9.641798	0.000364	3.642850	0.617116	0.000036
 713	7.0844e+01	7.0806	9.672756	0.000311	3.110748	0.526975	0.000031
 714	7.0944e+01	7.0919	9.705344	0.000327	3.274472	0.554711	0.000033
 715	7.1043e+01	7.0980	9.740375	0.000352	3.520057	0.596314	0.000035
 716	7.1142e+01	7.1111	9.770518	0.000303	3.028887	0.513107	0.000030
 717	7.1242e+01	7.1203	9.802291	0.000319	3.192610	0.540843	0.000032
 718	7.1341e+01	7.1268	9.831212	0.000291	2.906094	0.492306	0.000029
 719	7.1441e+01	7.1398	9.863800	0.000327	3.274472	0.554711	0.000033
 720	7.1540e+01	7.1486	9.892721	0.000291	2.906094	0.492306	0.000029
 721	7.1640e+01	7.1624	9.928975	0.000364	3.642850	0.617116	0.000036
 722	7.1740e+01	7.1704	9.962377	0.000336	3.356334	0.568578	0.000034
 723	7.1839e+01	7.1777	9.995779	0.000336	3.356334	0.568578	0.000034
 724	7.1939e+01	7.1889	10.029996	0.000344	3.438196	0.582446	0.000034
 725	7.2038e+01	7.2021	10.065027	0.000352	3.520057	0.596314	0.000035
 726	7.2138e+01	7.2095	10.094763	0.000299	2.987956	0.506173	0.000030
 727	7.2237e+01	7.2176	10.129387	0.000348	3.479127	0.589380	0.000035
 728	7.2337e+01	7.2303	10.163197	0.000340	3.397265	0.575512	0.000034
 729	7.2436e+01	7.2398	10.198228	0.000352	3.520057	0.596314	0.000035
 730	7.2535e+01	7.2473	10.230001	0.000319	3.192610	0.540843	0.000032
 731	7.2635e+01	7.2594	10.262181	0.000323	3.233541	0.547777	0.000032
 732	7.2734e+01	7.2691	10.294768	0.000327	3.274472	0.554711	0.000033
 733	7.2834e+01	7.2786	10.327356	0.000327	3.274472	0.554711	0.000033
 734	7.2933e+01	7.2872	10.359536	0.000323	3.233541	0.547777	0.000032
 735	7.3033e+01	7.2976	10.394160	0.000348	3.479127	0.589380	0.000035
 736	7.3132e+01	7.3079	10.427155	0.000332	3.315403	0.561644	0.000033
 737	7.3232e+01	7.3174	10.460964	0.000340	3.397265	0.575512	0.000034
 738	7.3332e+01	7.3280	10.489071	0.000282	2.824232	0.478438	0.000028
 739	7.3431e+01	7.3397	10.521251	0.000323	3.233541	0.547777	0.000032
 740	7.3531e+01	7.3463	10.551801	0.000307	3.069818	0.520041	0.000031
 741	7.3630e+01	7.3574	10.589684	0.000381	3.806574	0.644851	0.000038
 742	7.3730e+01	7.3711	10.618606	0.000291	2.906094	0.492306	0.000029
 743	7.3829e+01	7.3779	10.648749	0.000303	3.028887	0.513107	0.000030
 744	7.3928e+01	7.3874	10.678892	0.000303	3.028887	0.513107	0.000030
 745	7.4028e+01	7.3971	10.705777	0.000270	2.701439	0.457636	0.000027
 746	7.4127e+01	7.4052	10.738772	0.000332	3.315403	0.561644	0.000033
 747	7.4227e+01	7.4196	10.767693	0.000291	2.906094	0.492306	0.000029
 748	7.4326e+01	7.4284	10.795392	0.000278	2.783301	0.471504	0.000028
 749	7.4426e+01	7.4378	10.825128	0.000299	2.987956	0.506173	0.000030
 750	7.4525e+01	7.4464	10.852828	0.000278	2.783301	0.471504	0.000028
 751	7.4625e+01	7.4554	10.883378	0.000307	3.069818	0.520041	0.000031
 752	7.4725e+01	7.4673	10.918002	0.000348	3.479127	0.589380	0.000035
 753	7.4824e+01	7.4788	10.944072	0.000262	2.619578	0.443768	0.000026
 754	7.4924e+01	7.4883	10.975845	0.000319	3.192610	0.540843	0.000032
 755	7.5023e+01	7.4986	11.002322	0.000266	2.660509	0.450702	0.000027
 756	7.5123e+01	7.5098	11.033280	0.000311	3.110748	0.526975	0.000031
 757	7.5222e+01	7.5190	11.064646	0.000315	3.151679	0.533909	0.000032
 758	7.5322e+01	7.5272	11.092752	0.000282	2.824232	0.478438	0.000028
 759	7.5421e+01	7.5375	11.122488	0.000299	2.987956	0.506173	0.000030
 760	7.5520e+01	7.5432	11.153039	0.000307	3.069818	0.520041	0.000031
 761	7.5620e+01	7.5596	11.183182	0.000303	3.028887	0.513107	0.000030
 762	7.5719e+01	7.5693	11.210067	0.000270	2.701439	0.457636	0.000027
 763	7.5819e+01	7.5761	11.242654	0.000327	3.274472	0.554711	0.000033
 764	7.5918e+01	7.5870	11.269132	0.000266	2.660509	0.450702	0.000027
 765	7.6018e+01	7.5956	11.299682	0.000307	3.069818	0.520041	0.000031
 766	7.6118e+01	7.6084	11.326974	0.000274	2.742370	0.464570	0.000027
 767	7.6217e+01	7.6176	11.356303	0.000295	2.947025	0.499240	0.000029
 768	7.6317e+01	7.6252	11.386446	0.000303	3.028887	0.513107	0.000030
 769	7.6416e+01	7.6360	11.418219	0.000319	3.192610	0.540843	0.000032
 770	7.6516e+01	7.6469	11.441030	0.000229	2.292130	0.388297	0.000023
 771	7.6615e+01	7.6565	11.474840	0.000340	3.397265	0.575512	0.000034
 772	7.6715e+01	7.6670	11.502132	0.000274	2.742370	0.464570	0.000027
 773	7.6814e+01	7.6832	11.534719	0.000327	3.274472	0.554711	0.000033
 774	7.6913e+01	7.6820	11.562826	-0.000282	-2.824232	-0.478438	0.000028
 775	7.7013e+01	7.6968	11.585230	0.000225	2.251200	0.381364	0.000023
 776	7.7112e+01	7.7076	11.615780	0.000307	3.069818	0.520041	0.000031
 777	7.7212e+01	7.7157	11.645109	0.000295	2.947025	0.499240	0.000029
 778	7.7311e+01	7.7254	11.672401	0.000274	2.742370	0.464570	0.000027
 779	7.7411e+01	7.7372	11.699285	0.000270	2.701439	0.457636	0.000027
 780	7.7510e+01	7.7465	11.720467	0.000213	2.128407	0.360562	0.000021
 781	7.7610e+01	7.7551	11.751425	0.000311	3.110748	0.526975	0.000031
 782	7.7710e+01	7.7686	11.779125	0.000278	2.783301	0.471504	0.000028
 783	7.7809e+01	7.7757	11.801528	0.000225	2.251200	0.381364	0.000023
 784	7.7909e+01	7.7879	11.829635	0.000282	2.824232	0.478438	0.000028
 785	7.8008e+01	7.7969	11.857334	0.000278	2.783301	0.471504	0.000028
 786	7.8108e+01	7.8062	11.880960	0.000237	2.373992	0.402165	0.000024
 787	7.8207e+01	7.8181	11.916399	0.000356	3.560988	0.603248	0.000036
 788	7.8306e+01	7.8283	11.940025	0.000237	2.373992	0.402165	0.000024
 789	7.8406e+01	7.8369	11.971390	0.000315	3.151679	0.533909	0.000032
 790	7.8505e+01	7.8453	11.990943	0.000196	1.964683	0.332826	0.000020
 791	7.8605e+01	7.8576	12.021901	0.000311	3.110748	0.526975	0.000031
 792	7.8704e+01	7.8680	12.048378	0.000266	2.660509	0.450702	0.000027
 793	7.8804e+01	7.8760	12.074855	0.000266	2.660509	0.450702	0.000027
 794	7.8903e+01	7.8844	12.099703	0.000250	2.496785	0.422967	0.000025
 795	7.9003e+01	7.8936	12.126180	0.000266	2.660509	0.450702	0.000027
 796	7.9103e+01	7.9053	12.157138	0.000311	3.110748	0.526975	0.000031
 797	7.9202e+01	7.9128	12.184023	0.000270	2.701439	0.457636	0.000027
 798	7.9302e+01	7.9266	12.212944	0.000291	2.906094	0.492306	0.000029
 799	7.9401e+01	7.9337	12.243088	0.000303	3.028887	0.513107	0.000030
 800	7.9501e+01	7.9453	12.274453	0.000315	3.151679	0.533909	0.000032
 801	7.9600e+01	7.9561	12.301338	0.000270	2.701439	0.457636	0.000027
 802	7.9700e+01	7.9676	12.332296	0.000311	3.110748	0.526975	0.000031
 803	7.9799e+01	7.9758	12.359180	0.000270	2.701439	0.457636	0.000027
 804	7.9898e+01	7.9852	12.385658	0.000266	2.660509	0.450702	0.000027
 805	7.9998e+01	7.9917	12.412135	0.000266	2.660509	0.450702	0.000027
 806	8.0097e+01	8.0036	12.442686	0.000307	3.069818	0.520041	0.000031
 807	8.0197e+01	8.0145	12.469978	0.000274	2.742370	0.464570	0.000027
 808	8.0296e+01	8.0244	12.493603	0.000237	2.373992	0.402165	0.000024
 809	8.0396e+01	8.0355	12.524561	0.000311	3.110748	0.526975	0.000031
 810	8.0496e+01	8.0457	12.552668	0.000282	2.824232	0.478438	0.000028
 811	8.0595e+01	8.0566	12.581589	0.000291	2.906094	0.492306	0.000029
 812	8.0695e+01	8.0633	12.609696	0.000282	2.824232	0.478438	0.000028
 813	8.0794e+01	8.0746	12.635766	0.000262	2.619578	0.443768	0.000026
 814	8.0894e+01	8.0863	12.660614	0.000250	2.496785	0.422967	0.000025
 815	8.0993e+01	8.0949	12.689943	0.000295	2.947025	0.499240	0.000029
 816	8.1093e+01	8.1055	12.718864	0.000291	2.906094	0.492306	0.000029
 817	8.1192e+01	8.1128	12.749007	0.000303	3.028887	0.513107	0.000030
 818	8.1291e+01	8.1243	12.771818	0.000229	2.292130	0.388297	0.000023
 819	8.1391e+01	8.1345	12.803591	0.000319	3.192610	0.540843	0.000032
 820	8.1490e+01	8.1445	12.828439	0.000250	2.496785	0.422967	0.000025
 821	8.1590e+01	8.1550	12.853694	0.000254	2.537716	0.429901	0.000025
 822	8.1689e+01	8.1619	12.887096	0.000336	3.356334	0.568578	0.000034
 823	8.1789e+01	8.1738	12.911944	0.000250	2.496785	0.422967	0.000025
 824	8.1888e+01	8.1851	12.943717	0.000319	3.192610	0.540843	0.000032
 825	8.1988e+01	8.1936	12.971416	0.000278	2.783301	0.471504	0.000028
 826	8.2088e+01	8.2040	12.997486	0.000262	2.619578	0.443768	0.000026
 827	8.2187e+01	8.2129	13.028444	0.000311	3.110748	0.526975	0.000031
 828	8.2287e+01	8.2221	13.057773	0.000295	2.947025	0.499240	0.000029
 829	8.2386e+01	8.2330	13.089953	0.000323	3.233541	0.547777	0.000032
 830	8.2486e+01	8.2462	13.117652	0.000278	2.783301	0.471504	0.000028
 831	8.2585e+01	8.2513	13.145759	0.000282	2.824232	0.478438	0.000028
 832	8.2684e+01	8.2639	13.179976	0.000344	3.438196	0.582446	0.000034
 833	8.2784e+01	8.2739	13.208897	0.000291	2.906094	0.492306	0.000029
 834	8.2883e+01	8.2839	13.239448	0.000307	3.069818	0.520041	0.000031
 835	8.2983e+01	8.2952	13.269998	0.000307	3.069818	0.520041	0.000031
 836	8.3082e+01	8.3035	13.298105	0.000282	2.824232	0.478438	0.000028
 837	8.3182e+01	8.3118	13.330692	0.000327	3.274472	0.554711	0.000033
 838	8.3281e+01	8.3252	13.355948	0.000254	2.537716	0.429901	0.000025
 839	8.3381e+01	8.3344	13.391794	0.000360	3.601919	0.610182	0.000036
 840	8.3481e+01	8.3434	13.422344	0.000307	3.069818	0.520041	0.000031
 841	8.3580e+01	8.3521	13.452080	0.000299	2.987956	0.506173	0.000030
 842	8.3680e+01	8.3620	13.483446	0.000315	3.151679	0.533909	0.000032
 843	8.3779e+01	8.3747	13.514404	0.000311	3.110748	0.526975	0.000031
 844	8.3879e+01	8.3844	13.541288	0.000270	2.701439	0.457636	0.000027
 845	8.3978e+01	8.3925	13.577949	0.000368	3.683781	0.624049	0.000037
 846	8.4078e+01	8.4033	13.604427	0.000266	2.660509	0.450702	0.000027
 847	8.4177e+01	8.4171	13.637829	0.000336	3.356334	0.568578	0.000034
 848	8.4276e+01	8.4235	13.669601	0.000319	3.192610	0.540843	0.000032
 849	8.4376e+01	8.4338	13.697708	0.000282	2.824232	0.478438	0.000028
 850	8.4475e+01	8.4455	13.730703	0.000332	3.315403	0.561644	0.000033
 851	8.4575e+01	8.4518	13.761253	0.000307	3.069818	0.520041	0.000031
 852	8.4674e+01	8.4627	13.795063	0.000340	3.397265	0.575512	0.000034
 853	8.4774e+01	8.4727	13.821133	0.000262	2.619578	0.443768	0.000026
 854	8.4874e+01	8.4830	13.854128	0.000332	3.315403	0.561644	0.000033
 855	8.4973e+01	8.4950	13.883456	0.000295	2.947025	0.499240	0.000029
 856	8.5073e+01	8.5024	13.913192	0.000299	2.987956	0.506173	0.000030
 857	8.5172e+01	8.5120	13.944150	0.000311	3.110748	0.526975	0.000031
 858	8.5272e+01	8.5242	13.978774	0.000348	3.479127	0.589380	0.000035
 859	8.5371e+01	8.5320	14.008510	0.000299	2.987956	0.506173	0.000030
 860	8.5471e+01	8.5416	14.043542	0.000352	3.520057	0.596314	0.000035
 861	8.5570e+01	8.5507	14.074907	0.000315	3.151679	0.533909	0.000032
 862	8.5669e+01	8.5602	14.106273	0.000315	3.151679	0.533909	0.000032
 863	8.5769e+01	8.5718	14.141304	0.000352	3.520057	0.596314	0.000035
 864	8.5868e+01	8.5833	14.176335	0.000352	3.520057	0.596314	0.000035
 865	8.5968e+01	8.5946	14.209330	0.000332	3.315403	0.561644	0.000033
 866	8.6067e+01	8.6028	14.241510	0.000323	3.233541	0.547777	0.000032
 867	8.6167e+01	8.6117	14.274912	0.000336	3.356334	0.568578	0.000034
 868	8.6266e+01	8.6215	14.307500	0.000327	3.274472	0.554711	0.000033
 869	8.6366e+01	8.6328	14.342124	0.000348	3.479127	0.589380	0.000035
 870	8.6466e+01	8.6436	14.373489	0.000315	3.151679	0.533909	0.000032
 871	8.6565e+01	8.6523	14.408113	0.000348	3.479127	0.589380	0.000035
 872	8.6665e+01	8.6629	14.437849	0.000299	2.987956	0.506173	0.000030
 873	8.6764e+01	8.6710	14.472066	0.000344	3.438196	0.582446	0.000034
 874	8.6864e+01	8.6813	14.506690	0.000348	3.479127	0.589380	0.000035
 875	8.6963e+01	8.6929	14.541314	0.000348	3.479127	0.589380	0.000035
 876	8.7063e+01	8.7025	14.575124	0.000340	3.397265	0.575512	0.000034
 877	8.7162e+01	8.7123	14.604860	0.000299	2.987956	0.506173	0.000030
 878	8.7261e+01	8.7209	14.641113	0.000364	3.642850	0.617116	0.000036
 879	8.7361e+01	8.7317	14.674515	0.000336	3.356334	0.568578	0.000034
 880	8.7460e+01	8.7402	14.701807	0.000274	2.742370	0.464570	0.000027
 881	8.7560e+01	8.7511	14.735617	0.000340	3.397265	0.575512	0.000034
 882	8.7659e+01	8.7623	14.767390	0.000319	3.192610	0.540843	0.000032
 883	8.7759e+01	8.7723	14.800384	0.000332	3.315403	0.561644	0.000033
 884	8.7859e+01	8.7796	14.830120	0.000299	2.987956	0.506173	0.000030
 885	8.7958e+01	8.7913	14.864744	0.000348	3.479127	0.589380	0.000035
 886	8.8058e+01	8.8007	14.888778	0.000241	2.414923	0.409099	0.000024
 887	8.8157e+01	8.8104	14.923402	0.000348	3.479127	0.589380	0.000035
 888	8.8257e+01	8.8202	14.958026	0.000348	3.479127	0.589380	0.000035
 889	8.8356e+01	8.8271	14.983688	0.000258	2.578647	0.436835	0.000026
 890	8.8456e+01	8.8388	15.021979	0.000385	3.847505	0.651785	0.000038
 891	8.8555e+01	8.8509	15.052529	0.000307	3.069818	0.520041	0.000031
 892	8.8654e+01	8.8604	15.092042	0.000397	3.970297	0.672587	0.000040
 893	8.8754e+01	8.8692	15.119741	0.000278	2.783301	0.471504	0.000028
 894	8.8853e+01	8.8818	15.154365	0.000348	3.479127	0.589380	0.000035
 895	8.8953e+01	8.8918	15.184916	0.000307	3.069818	0.520041	0.000031
 896	8.9052e+01	8.9020	15.218725	0.000340	3.397265	0.575512	0.000034
 897	8.9152e+01	8.9100	15.251312	0.000327	3.274472	0.554711	0.000033
 898	8.9251e+01	8.9213	15.281863	0.000307	3.069818	0.520041	0.000031
 899	8.9351e+01	8.9313	15.320561	0.000389	3.888436	0.658719	0.000039
 900	8.9451e+01	8.9407	15.351519	0.000311	3.110748	0.526975	0.000031
 901	8.9550e+01	8.9502	15.384513	0.000332	3.315403	0.561644	0.000033
 902	8.9650e+01	8.9577	15.417508	0.000332	3.315403	0.561644	0.000033
 903	8.9749e+01	8.9689	15.449281	0.000319	3.192610	0.540843	0.000032
 904	8.9849e+01	8.9788	15.485534	0.000364	3.642850	0.617116	0.000036
 905	8.9948e+01	8.9907	15.518529	0.000332	3.315403	0.561644	0.000033
 906	9.0047e+01	8.9993	15.546228	0.000278	2.783301	0.471504	0.000028
 907	9.0147e+01	9.0079	15.582482	0.000364	3.642850	0.617116	0.000036
 908	9.0246e+01	9.0207	15.613440	0.000311	3.110748	0.526975	0.000031
 909	9.0346e+01	9.0283	15.641954	0.000287	2.865163	0.485372	0.000029
 910	9.0445e+01	9.0397	15.674541	0.000327	3.274472	0.554711	0.000033
 911	9.0545e+01	9.0483	15.705092	0.000307	3.069818	0.520041	0.000031
 912	9.0644e+01	9.0576	15.739716	0.000348	3.479127	0.589380	0.000035
 913	9.0744e+01	9.0698	15.767008	0.000274	2.742370	0.464570	0.000027
 914	9.0844e+01	9.0791	15.796744	0.000299	2.987956	0.506173	0.000030
 915	9.0943e+01	9.0885	15.830146	0.000336	3.356334	0.568578	0.000034
 916	9.1043e+01	9.0999	15.857438	0.000274	2.742370	0.464570	0.000027
 917	9.1142e+01	9.1100	15.891248	0.000340	3.397265	0.575512	0.000034
 918	9.1242e+01	9.1219	15.918132	0.000270	2.701439	0.457636	0.000027
 919	9.1341e+01	9.1284	15.948683	0.000307	3.069818	0.520041	0.000031
 920	9.1441e+01	9.1375	15.981678	0.000332	3.315403	0.561644	0.000033
 921	9.1540e+01	9.1473	16.008155	0.000266	2.660509	0.450702	0.000027
 922	9.1639e+01	9.1577	16.043186	0.000352	3.520057	0.596314	0.000035
 923	9.1739e+01	9.1704	16.070071	0.000270	2.701439	0.457636	0.000027
 924	9.1838e+01	9.1783	16.101844	0.000319	3.192610	0.540843	0.000032
 925	9.1938e+01	9.1874	16.132802	0.000311	3.110748	0.526975	0.000031
 926	9.2037e+01	9.1996	16.162538	0.000299	2.987956	0.506173	0.000030
 927	9.2137e+01	9.2090	16.195533	0.000332	3.315403	0.561644	0.000033
 928	9.2237e+01	9.2184	16.223639	0.000282	2.824232	0.478438	0.000028
 929	9.2336e+01	9.2291	16.255819	0.000323	3.233541	0.547777	0.000032
 930	9.2436e+01	9.2389	16.284333	0.000287	2.865163	0.485372	0.000029
 931	9.2535e+01	9.2495	16.312847	0.000287	2.865163	0.485372	0.000029
 932	9.2635e+01	9.2578	16.345842	0.000332	3.315403	0.561644	0.000033
 933	9.2734e+01	9.2694	16.376393	0.000307	3.069818	0.520041	0.000031
 934	9.2834e+01	9.2763	16.405721	0.000295	2.947025	0.499240	0.000029
 935	9.2933e+01	9.2874	16.433421	0.000278	2.783301	0.471504	0.000028
 936	9.3032e+01	9.2982	16.466008	0.000327	3.274472	0.554711	0.000033
 937	9.3132e+01	9.3082	16.500225	0.000344	3.438196	0.582446	0.000034
 938	9.3231e+01	9.3170	16.527517	0.000274	2.742370	0.464570	0.000027
 939	9.3331e+01	9.3271	16.560511	0.000332	3.315403	0.561644	0.000033
 940	9.3430e+01	9.3372	16.590247	0.000299	2.987956	0.506173	0.000030
 941	9.3530e+01	9.3469	16.620798	0.000307	3.069818	0.520041	0.000031
 942	9.3629e+01	9.3580	16.650127	0.000295	2.947025	0.499240	0.000029
 943	9.3729e+01	9.3669	16.680270	0.000303	3.028887	0.513107	0.000030
 944	9.3829e+01	9.3799	16.711636	0.000315	3.151679	0.533909	0.000032
 945	9.3928e+01	9.3858	16.740149	0.000287	2.865163	0.485372	0.000029
 946	9.4028e+01	9.3970	16.769071	0.000291	2.906094	0.492306	0.000029
 947	9.4127e+01	9.4106	16.797992	0.000291	2.906094	0.492306	0.000029
 948	9.4227e+01	9.4168	16.823247	0.000254	2.537716	0.429901	0.000025
 949	9.4326e+01	9.4263	16.853391	0.000303	3.028887	0.513107	0.000030
 950	9.4425e+01	9.4364	16.883534	0.000303	3.028887	0.513107	0.000030
 951	9.4525e+01	9.4473	16.912455	0.000291	2.906094	0.492306	0.000029
 952	9.4624e+01	9.4596	16.941784	0.000295	2.947025	0.499240	0.000029
 953	9.4724e+01	9.4688	16.971927	0.000303	3.028887	0.513107	0.000030
 954	9.4823e+01	9.4751	17.003293	0.000315	3.151679	0.533909	0.000032
 955	9.4923e+01	9.4882	17.030585	0.000274	2.742370	0.464570	0.000027
 956	9.5022e+01	9.4977	17.059506	0.000291	2.906094	0.492306	0.000029
 957	9.5122e+01	9.5068	17.088020	0.000287	2.865163	0.485372	0.000029
 958	9.5222e+01	9.5194	17.117756	0.000299	2.987956	0.506173	0.000030
 959	9.5321e+01	9.5294	17.148714	0.000311	3.110748	0.526975	0.000031
 960	9.5421e+01	9.5374	17.174784	0.000262	2.619578	0.443768	0.000026
 961	9.5520e+01	9.5459	17.206964	0.000323	3.233541	0.547777	0.000032
 962	9.5620e+01	9.5527	17.231812	0.000250	2.496785	0.422967	0.000025
 963	9.5719e+01	9.5654	17.264807	0.000332	3.315403	0.561644	0.000033
 964	9.5819e+01	9.5764	17.298209	0.000336	3.356334	0.568578	0.000034
 965	9.5918e+01	9.5884	17.326315	0.000282	2.824232	0.478438	0.000028
 966	9.6017e+01	9.5966	17.359310	0.000332	3.315403	0.561644	0.000033
 967	9.6117e+01	9.6046	17.389046	0.000299	2.987956	0.506173	0.000030
 968	9.6216e+01	9.6161	17.422448	0.000336	3.356334	0.568578	0.000034
 969	9.6316e+01	9.6246	17.453406	0.000311	3.110748	0.526975	0.000031
 970	9.6415e+01	9.6359	17.485586	0.000323	3.233541	0.547777	0.000032
 971	9.6515e+01	9.6472	17.520210	0.000348	3.479127	0.589380	0.000035
 972	9.6615e+01	9.6574	17.553205	0.000332	3.315403	0.561644	0.000033
 973	9.6714e+01	9.6645	17.578460	0.000254	2.537716	0.429901	0.000025
 974	9.6814e+01	9.6767	17.614307	0.000360	3.601919	0.610182	0.000036
 975	9.6913e+01	9.6857	17.643635	0.000295	2.947025	0.499240	0.000029
 976	9.7013e+01	9.6958	17.674186	0.000307	3.069818	0.520041	0.000031
 977	9.7112e+01	9.7070	17.703922	0.000299	2.987956	0.506173	0.000030
 978	9.7212e+01	9.7168	17.733251	0.000295	2.947025	0.499240	0.000029
 979	9.7311e+01	9.7272	17.769504	0.000364	3.642850	0.617116	0.000036
 980	9.7410e+01	9.7358	17.800462	0.000311	3.110748	0.526975	0.000031
 981	9.7510e+01	9.7472	17.828161	0.000278	2.783301	0.471504	0.000028
 982	9.7609e+01	9.7559	17.863193	0.000352	3.520057	0.596314	0.000035
 983	9.7709e+01	9.7662	17.892522	0.000295	2.947025	0.499240	0.000029
 984	9.7808e+01	9.7742	17.924702	0.000323	3.233541	0.547777	0.000032
 985	9.7908e+01	9.7873	17.957289	0.000327	3.274472	0.554711	0.000033
 986	9.8007e+01	9.7943	17.985803	0.000287	2.865163	0.485372	0.000029
 987	9.8107e+01	9.8055	18.020020	0.000344	3.438196	0.582446	0.000034
 988	9.8207e+01	9.8156	18.049348	0.000295	2.947025	0.499240	0.000029
 989	9.8306e+01	9.8254	18.085195	0.000360	3.601919	0.610182	0.000036
 990	9.8406e+01	9.8340	18.114931	0.000299	2.987956	0.506173	0.000030
 991	9.8505e+01	9.8450	18.147925	0.000332	3.315403	0.561644	0.000033
 992	9.8605e+01	9.8538	18.180920	0.000332	3.315403	0.561644	0.000033
 993	9.8704e+01	9.8664	18.214322	0.000336	3.356334	0.568578	0.000034
 994	9.8803e+01	9.8737	18.246910	0.000327	3.274472	0.554711	0.000033
 995	9.8903e+01	9.8853	18.284792	0.000381	3.806574	0.644851	0.000038
 996	9.9002e+01	9.8931	18.318602	0.000340	3.397265	0.575512	0.000034
 997	9.9102e+01	9.9073	18.351189	0.000327	3.274472	0.554711	0.000033
 998	9.9201e+01	9.9148	18.384184	0.000332	3.315403	0.561644	0.000033
 999	9.9301e+01	9.9239	18.420845	0.000368	3.683781	0.624049	0.000037
1000	9.9400e+01	9.9365	18.454654	0.000340	3.397265	0.575512	0.000034
1001	9.9500e+01	9.9465	18.490093	0.000356	3.560988	0.603248	0.000036
1002	9.9600e+01	9.9567	18.525939	0.000360	3.601919	0.610182	0.000036
1003	9.9699e+01	9.9622	18.562600	0.000368	3.683781	0.624049	0.000037
1004	9.9799e+01	9.9768	18.597632	0.000352	3.520057	0.596314	0.000035
1005	9.9898e+01	9.9854	18.633070	0.000356	3.560988	0.603248	0.000036
1006	9.9998e+01	9.9963	18.669731	0.000368	3.683781	0.624049	0.000037
1007	1.0010e+02	9.9854	18.656289	0.000135	1.350720	0.228818	-0.000014
1008	1.0020e+02	9.9750	18.645291	0.000111	1.105134	0.187215	-0.000011
1009	1.0030e+02	9.9634	18.633070	0.000123	1.227927	0.208016	-0.000012
1010	1.0040e+02	9.9552	18.620035	0.000131	1.309789	0.221884	-0.000013
1011	1.0050e+02	9.9421	18.609037	0.000111	1.105134	0.187215	-0.000011
1012	1.0059e+02	9.9335	18.595187	0.000139	1.391651	0.235752	-0.000014
1013	1.0069e+02	9.9236	18.584189	0.000111	1.105134	0.187215	-0.000011
1014	1.0079e+02	9.9126	18.568303	0.000160	1.596305	0.270421	-0.000016
1015	1.0089e+02	9.9017	18.557712	0.000106	1.064203	0.180281	-0.000011
1016	1.0099e+02	9.8956	18.544677	0.000131	1.309789	0.221884	-0.000013
1017	1.0109e+02	9.8867	18.528383	0.000164	1.637236	0.277355	-0.000016
1018	1.0119e+02	9.8740	18.513312	0.000151	1.514443	0.256554	-0.000015
1019	1.0129e+02	9.8658	18.499869	0.000135	1.350720	0.228818	-0.000014
1020	1.0139e+02	9.8535	18.491722	0.000082	0.818618	0.138678	-0.000008
1021	1.0149e+02	9.8438	18.472170	0.000196	1.964683	0.332826	-0.000020
1022	1.0159e+02	9.8352	18.457098	0.000151	1.514443	0.256554	-0.000015
1023	1.0169e+02	9.8269	18.442434	0.000147	1.473512	0.249620	-0.000015
1024	1.0179e+02	9.8160	18.429806	0.000127	1.268858	0.214950	-0.000013
1025	1.0189e+02	9.8049	18.408217	0.000217	2.169338	0.367496	-0.000022
1026	1.0199e+02	9.7950	18.397626	0.000106	1.064203	0.180281	-0.000011
1027	1.0209e+02	9.7856	18.384999	0.000127	1.268858	0.214950	-0.000013
1028	1.0219e+02	9.7742	18.366668	0.000184	1.841891	0.312025	-0.000018
1029	1.0229e+02	9.7640	18.353226	0.000135	1.350720	0.228818	-0.000014
1030	1.0239e+02	9.7543	18.341006	0.000123	1.227927	0.208016	-0.000012
1031	1.0248e+02	9.7424	18.332044	0.000090	0.900480	0.152545	-0.000009
1032	1.0258e+02	9.7352	18.314936	0.000172	1.719098	0.291223	-0.000017
1033	1.0268e+02	9.7244	18.299457	0.000156	1.555374	0.263488	-0.000016
1034	1.0278e+02	9.7192	18.287644	0.000119	1.186996	0.201083	-0.000012
1035	1.0288e+02	9.7053	18.271757	0.000160	1.596305	0.270421	-0.000016
1036	1.0298e+02	9.6949	18.255871	0.000160	1.596305	0.270421	-0.000016
1037	1.0308e+02	9.6852	18.242836	0.000131	1.309789	0.221884	-0.000013
1038	1.0318e+02	9.6780	18.226542	0.000164	1.637236	0.277355	-0.000016
1039	1.0328e+02	9.6655	18.209027	0.000176	1.760029	0.298157	-0.000018
1040	1.0338e+02	9.6539	18.194770	0.000143	1.432582	0.242686	-0.000014
1041	1.0348e+02	9.6460	18.180920	0.000139	1.391651	0.235752	-0.000014
1042	1.0358e+02	9.6342	18.167478	0.000135	1.350720	0.228818	-0.000014
1043	1.0368e+02	9.6256	18.148740	0.000188	1.882821	0.318959	-0.000019
1044	1.0378e+02	9.6170	18.133668	0.000151	1.514443	0.256554	-0.000015
1045	1.0388e+02	9.6052	18.119819	0.000139	1.391651	0.235752	-0.000014
1046	1.0398e+02	9.5936	18.101488	0.000184	1.841891	0.312025	-0.000018
1047	1.0408e+02	9.5855	18.090897	0.000106	1.064203	0.180281	-0.000011
1048	1.0418e+02	9.5764	18.066864	0.000241	2.414923	0.409099	-0.000024
1049	1.0428e+02	9.5663	18.053422	0.000135	1.350720	0.228818	-0.000014
1050	1.0438e+02	9.5557	18.033462	0.000201	2.005614	0.339760	-0.000020
1051	1.0447e+02	9.5477	18.014724	0.000188	1.882821	0.318959	-0.000019
1052	1.0457e+02	9.5368	17.993950	0.000209	2.087476	0.353628	-0.000021
1053	1.0467e+02	9.5296	17.975619	0.000184	1.841891	0.312025	-0.000018
1054	1.0477e+02	9.5185	17.960140	0.000156	1.555374	0.263488	-0.000016
1055	1.0487e+02	9.5074	17.938959	0.000213	2.128407	0.360562	-0.000021
1056	1.0497e+02	9.4955	17.925109	0.000139	1.391651	0.235752	-0.000014
1057	1.0507e+02	9.4867	17.907186	0.000180	1.800960	0.305091	-0.000018
1058	1.0517e+02	9.4758	17.888855	0.000184	1.841891	0.312025	-0.000018
1059	1.0527e+02	9.4662	17.872562	0.000164	1.637236	0.277355	-0.000016
1060	1.0537e+02	9.4581	17.855046	0.000176	1.760029	0.298157	-0.000018
1061	1.0547e+02	9.4459	17.839974	0.000151	1.514443	0.256554	-0.000015
1062	1.0557e+02	9.4361	17.818385	0.000217	2.169338	0.367496	-0.000022
1063	1.0567e+02	9.4263	17.803314	0.000151	1.514443	0.256554	-0.000015
1064	1.0577e+02	9.4202	17.786205	0.000172	1.719098	0.291223	-0.000017
1065	1.0587e+02	9.4062	17.772356	0.000139	1.391651	0.235752	-0.000014
1066	1.0597e+02	9.3963	17.748730	0.000237	2.373992	0.402165	-0.000024
1067	1.0607e+02	9.3876	17.730399	0.000184	1.841891	0.312025	-0.000018
1068	1.0617e+02	9.3777	17.712884	0.000176	1.760029	0.298157	-0.000018
1069	1.0627e+02	9.3689	17.690480	0.000225	2.251200	0.381364	-0.000023
1070	1.0637e+02	9.3589	17.674593	0.000160	1.596305	0.270421	-0.000016
1071	1.0647e+02	9.3468	17.654226	0.000205	2.046545	0.346694	-0.000020
1072	1.0656e+02	9.3391	17.638747	0.000156	1.555374	0.263488	-0.000016
1073	1.0666e+02	9.3246	17.621639	0.000172	1.719098	0.291223	-0.000017
1074	1.0676e+02	9.3179	17.596384	0.000254	2.537716	0.429901	-0.000025
1075	1.0686e+02	9.3078	17.581312	0.000151	1.514443	0.256554	-0.000015
1076	1.0696e+02	9.2971	17.559723	0.000217	2.169338	0.367496	-0.000022
1077	1.0706e+02	9.2872	17.541800	0.000180	1.800960	0.305091	-0.000018
1078	1.0716e+02	9.2780	17.518988	0.000229	2.292130	0.388297	-0.000023
1079	1.0726e+02	9.2685	17.497399	0.000217	2.169338	0.367496	-0.000022
1080	1.0736e+02	9.2578	17.475810	0.000217	2.169338	0.367496	-0.000022
1081	1.0746e+02	9.2468	17.452999	0.000229	2.292130	0.388297	-0.000023
1082	1.0756e+02	9.2368	17.431002	0.000221	2.210269	0.374430	-0.000022
1083	1.0766e+02	9.2303	17.408599	0.000225	2.251200	0.381364	-0.000023
1084	1.0776e+02	9.2194	17.387417	0.000213	2.128407	0.360562	-0.000021
1085	1.0786e+02	9.2090	17.361754	0.000258	2.578647	0.436835	-0.000026
1086	1.0796e+02	9.1975	17.338536	0.000233	2.333061	0.395231	-0.000023
1087	1.0806e+02	9.1895	17.314095	0.000246	2.455854	0.416033	-0.000025
1088	1.0816e+02	9.1773	17.294135	0.000201	2.005614	0.339760	-0.000020
1089	1.0826e+02	9.1724	17.270102	0.000241	2.414923	0.409099	-0.000024
1090	1.0836e+02	9.1579	17.250957	0.000192	1.923752	0.325892	-0.000019
1091	1.0845e+02	9.1486	17.222850	0.000282	2.824232	0.478438	-0.000028
1092	1.0855e+02	9.1384	17.204927	0.000180	1.800960	0.305091	-0.000018
1093	1.0865e+02	9.1284	17.181709	0.000233	2.333061	0.395231	-0.000023
1094	1.0875e+02	9.1199	17.156046	0.000258	2.578647	0.436835	-0.000026
1095	1.0885e+02	9.1082	17.133235	0.000229	2.292130	0.388297	-0.000023
1096	1.0895e+02	9.1016	17.113275	0.000201	2.005614	0.339760	-0.000020
1097	1.0905e+02	9.0882	17.089649	0.000237	2.373992	0.402165	-0.000024
1098	1.0915e+02	9.0783	17.068468	0.000213	2.128407	0.360562	-0.000021
1099	1.0925e+02	9.0699	17.042805	0.000258	2.578647	0.436835	-0.000026
1100	1.0935e+02	9.0589	17.020809	0.000221	2.210269	0.374430	-0.000022
1101	1.0945e+02	9.0496	16.994739	0.000262	2.619578	0.443768	-0.000026
1102	1.0955e+02	9.0390	16.973964	0.000209	2.087476	0.353628	-0.000021
1103	1.0965e+02	9.0304	16.949524	0.000246	2.455854	0.416033	-0.000025
1104	1.0975e+02	9.0206	16.921010	0.000287	2.865163	0.485372	-0.000029
1105	1.0985e+02	9.0088	16.901864	0.000192	1.923752	0.325892	-0.000019
1106	1.0995e+02	9.0005	16.878646	0.000233	2.333061	0.395231	-0.000023
1107	1.1005e+02	8.9883	16.852983	0.000258	2.578647	0.436835	-0.000026
1108	1.1015e+02	8.9796	16.829765	0.000233	2.333061	0.395231	-0.000023
1109	1.1025e+02	8.9709	16.807768	0.000221	2.210269	0.374430	-0.000022
1110	1.1035e+02	8.9614	16.782513	0.000254	2.537716	0.429901	-0.000025
1111	1.1044e+02	8.9494	16.754406	0.000282	2.824232	0.478438	-0.000028
1112	1.1054e+02	8.9410	16.732003	0.000225	2.251200	0.381364	-0.000023
1113	1.1064e+02	8.9307	16.709599	0.000225	2.251200	0.381364	-0.000023
1114	1.1074e+02	8.9217	16.678233	0.000315	3.151679	0.533909	-0.000032
1115	1.1084e+02	8.9104	16.652164	0.000262	2.619578	0.443768	-0.000026
1116	1.1094e+02	8.8986	16.627723	0.000246	2.455854	0.416033	-0.000025
1117	1.1104e+02	8.8895	16.596765	0.000311	3.110748	0.526975	-0.000031
1118	1.1114e+02	8.8789	16.574361	0.000225	2.251200	0.381364	-0.000023
1119	1.1124e+02	8.8704	16.545440	0.000291	2.906094	0.492306	-0.000029
1120	1.1134e+02	8.8586	16.520999	0.000246	2.455854	0.416033	-0.000025
1121	1.1144e+02	8.8480	16.494929	0.000262	2.619578	0.443768	-0.000026
1122	1.1154e+02	8.8387	16.468045	0.000270	2.701439	0.457636	-0.000027
1123	1.1164e+02	8.8316	16.439938	0.000282	2.824232	0.478438	-0.000028
1124	1.1174e+02	8.8215	16.415090	0.000250	2.496785	0.422967	-0.000025
1125	1.1184e+02	8.8119	16.388206	0.000270	2.701439	0.457636	-0.000027
1126	1.1194e+02	8.8038	16.364580	0.000237	2.373992	0.402165	-0.000024
1127	1.1204e+02	8.7911	16.335658	0.000291	2.906094	0.492306	-0.000029
1128	1.1214e+02	8.7817	16.307552	0.000282	2.824232	0.478438	-0.000028
1129	1.1224e+02	8.7726	16.281482	0.000262	2.619578	0.443768	-0.000026
1130	1.1234e+02	8.7598	16.252560	0.000291	2.906094	0.492306	-0.000029
1131	1.1244e+02	8.7531	16.228935	0.000237	2.373992	0.402165	-0.000024
1132	1.1253e+02	8.7431	16.200828	0.000282	2.824232	0.478438	-0.000028
1133	1.1263e+02	8.7337	16.180461	0.000205	2.046545	0.346694	-0.000020
1134	1.1273e+02	8.7214	16.152762	0.000278	2.783301	0.471504	-0.000028
1135	1.1283e+02	8.7122	16.129543	0.000233	2.333061	0.395231	-0.000023
1136	1.1293e+02	8.7013	16.101844	0.000278	2.783301	0.471504	-0.000028
1137	1.1303e+02	8.6942	16.080662	0.000213	2.128407	0.360562	-0.000021
1138	1.1313e+02	8.6818	16.054592	0.000262	2.619578	0.443768	-0.000026
1139	1.1323e+02	8.6689	16.027707	0.000270	2.701439	0.457636	-0.000027
1140	1.1333e+02	8.6618	16.003674	0.000241	2.414923	0.409099	-0.000024
1141	1.1343e+02	8.6514	15.978419	0.000254	2.537716	0.429901	-0.000025
1142	1.1353e+02	8.6398	15.953571	0.000250	2.496785	0.422967	-0.000025
1143	1.1363e+02	8.6330	15.923020	0.000307	3.069818	0.520041	-0.000031
1144	1.1373e+02	8.6230	15.897765	0.000254	2.537716	0.429901	-0.000025
1145	1.1383e+02	8.6142	15.871695	0.000262	2.619578	0.443768	-0.000026
1146	1.1393e+02	8.6015	15.842774	0.000291	2.906094	0.492306	-0.000029
1147	1.1403e+02	8.5922	15.817519	0.000254	2.537716	0.429901	-0.000025
1148	1.1413e+02	8.5836	15.788190	0.000295	2.947025	0.499240	-0.000029
1149	1.1423e+02	8.5700	15.764564	0.000237	2.373992	0.402165	-0.000024
1150	1.1433e+02	8.5611	15.738494	0.000262	2.619578	0.443768	-0.000026
1151	1.1442e+02	8.5506	15.712424	0.000262	2.619578	0.443768	-0.000026
1152	1.1452e+02	8.5458	15.686762	0.000258	2.578647	0.436835	-0.000026
1153	1.1462e+02	8.5330	15.656618	0.000303	3.028887	0.513107	-0.000030
1154	1.1472e+02	8.5226	15.627697	0.000291	2.906094	0.492306	-0.000029
1155	1.1482e+02	8.5145	15.602442	0.000254	2.537716	0.429901	-0.000025
1156	1.1492e+02	8.5040	15.574335	0.000282	2.824232	0.478438	-0.000028
1157	1.1502e+02	8.4940	15.543784	0.000307	3.069818	0.520041	-0.000031
1158	1.1512e+02	8.4801	15.519751	0.000241	2.414923	0.409099	-0.000024
1159	1.1522e+02	8.4717	15.496125	0.000237	2.373992	0.402165	-0.000024
1160	1.1532e+02	8.4612	15.467611	0.000287	2.865163	0.485372	-0.000029
1161	1.1542e+02	8.4497	15.445208	0.000225	2.251200	0.381364	-0.000023
1162	1.1552e+02	8.4431	15.420767	0.000246	2.455854	0.416033	-0.000025
1163	1.1562e+02	8.4338	15.394697	0.000262	2.619578	0.443768	-0.000026
1164	1.1572e+02	8.4235	15.371479	0.000233	2.333061	0.395231	-0.000023
1165	1.1582e+02	8.4126	15.346631	0.000250	2.496785	0.422967	-0.000025
1166	1.1592e+02	8.4046	15.321375	0.000254	2.537716	0.429901	-0.000025
1167	1.1602e+02	8.3956	15.295713	0.000258	2.578647	0.436835	-0.000026
1168	1.1612e+02	8.3851	15.272902	0.000229	2.292130	0.388297	-0.000023
1169	1.1622e+02	8.3720	15.245610	0.000274	2.742370	0.464570	-0.000027
1170	1.1632e+02	8.3637	15.221984	0.000237	2.373992	0.402165	-0.000024
1171	1.1642e+02	8.3512	15.200395	0.000217	2.169338	0.367496	-0.000022
1172	1.1651e+02	8.3447	15.172288	0.000282	2.824232	0.478438	-0.000028
1173	1.1661e+02	8.3342	15.148255	0.000241	2.414923	0.409099	-0.000024
1174	1.1671e+02	8.3203	15.118926	0.000295	2.947025	0.499240	-0.000029
1175	1.1681e+02	8.3170	15.098559	0.000205	2.046545	0.346694	-0.000020
1176	1.1691e+02	8.3032	15.073304	0.000254	2.537716	0.429901	-0.000025
1177	1.1701e+02	8.2932	15.049678	0.000237	2.373992	0.402165	-0.000024
1178	1.1711e+02	8.2834	15.024423	0.000254	2.537716	0.429901	-0.000025
1179	1.1721e+02	8.2754	14.996723	0.000278	2.783301	0.471504	-0.000028
1180	1.1731e+02	8.2656	14.973098	0.000237	2.373992	0.402165	-0.000024
1181	1.1741e+02	8.2539	14.948657	0.000246	2.455854	0.416033	-0.000025
1182	1.1751e+02	8.2415	14.922994	0.000258	2.578647	0.436835	-0.000026
1183	1.1761e+02	8.2331	14.900998	0.000221	2.210269	0.374430	-0.000022
1184	1.1771e+02	8.2232	14.876557	0.000246	2.455854	0.416033	-0.000025
1185	1.1781e+02	8.2138	14.857412	0.000192	1.923752	0.325892	-0.000019
1186	1.1791e+02	8.2031	14.830935	0.000266	2.660509	0.450702	-0.000027
1187	1.1801e+02	8.1934	14.802828	0.000282	2.824232	0.478438	-0.000028
1188	1.1811e+02	8.1839	14.782054	0.000209	2.087476	0.353628	-0.000021
1189	1.1821e+02	8.1738	14.754355	0.000278	2.783301	0.471504	-0.000028
1190	1.1831e+02	8.1659	14.730321	0.000241	2.414923	0.409099	-0.000024
1191	1.1841e+02	8.1543	14.702622	0.000278	2.783301	0.471504	-0.000028
1192	1.1850e+02	8.1426	14.678996	0.000237	2.373992	0.402165	-0.000024
1193	1.1860e+02	8.1360	14.655778	0.000233	2.333061	0.395231	-0.000023
1194	1.1870e+02	8.1243	14.632966	0.000229	2.292130	0.388297	-0.000023
1195	1.1880e+02	8.1125	14.610155	0.000229	2.292130	0.388297	-0.000023
1196	1.1890e+02	8.1046	14.586122	0.000241	2.414923	0.409099	-0.000024
1197	1.1900e+02	8.0932	14.561682	0.000246	2.455854	0.416033	-0.000025
1198	1.1910e+02	8.0840	14.542536	0.000192	1.923752	0.325892	-0.000019
1199	1.1920e+02	8.0738	14.516874	0.000258	2.578647	0.436835	-0.000026
1200	1.1930e+02	8.0624	14.498136	0.000188	1.882821	0.318959	-0.000019
1201	1.1940e+02	8.0550	14.477769	0.000205	2.046545	0.346694	-0.000020
1202	1.1950e+02	8.0443	14.451292	0.000266	2.660509	0.450702	-0.000027
1203	1.1960e+02	8.0349	14.428073	0.000233	2.333061	0.395231	-0.000023
1204	1.1970e+02	8.0241	14.405669	0.000225	2.251200	0.381364	-0.000023
1205	1.1980e+02	8.0161	14.381636	0.000241	2.414923	0.409099	-0.000024
1206	1.1990e+02	8.0056	14.356381	0.000254	2.537716	0.429901	-0.000025
1207	1.2000e+02	7.9963	14.332755	0.000237	2.373992	0.402165	-0.000024
1208	1.2010e+02	7.9853	14.309944	0.000229	2.292130	0.388297	-0.000023
1209	1.2020e+02	7.9762	14.286725	0.000233	2.333061	0.395231	-0.000023
1210	1.2030e+02	7.9652	14.264321	0.000225	2.251200	0.381364	-0.000023
1211	1.2039e+02	7.9565	14.240288	0.000241	2.414923	0.409099	-0.000024
1212	1.2049e+02	7.9457	14.220328	0.000201	2.005614	0.339760	-0.000020
1213	1.2059e+02	7.9355	14.196295	0.000241	2.414923	0.409099	-0.000024
1214	1.2069e+02	7.9248	14.173891	0.000225	2.251200	0.381364	-0.000023
1215	1.2079e+02	7.9172	14.144970	0.000291	2.906094	0.492306	-0.000029
1216	1.2089e+02	7.9049	14.123788	0.000213	2.128407	0.360562	-0.000021
1217	1.2099e+02	7.8960	14.096496	0.000274	2.742370	0.464570	-0.000027
1218	1.2109e+02	7.8859	14.068797	0.000278	2.783301	0.471504	-0.000028
1219	1.2119e+02	7.8773	14.044356	0.000246	2.455854	0.416033	-0.000025
1220	1.2129e+02	7.8654	14.021953	0.000225	2.251200	0.381364	-0.000023
1221	1.2139e+02	7.8545	13.994253	0.000278	2.783301	0.471504	-0.000028
1222	1.2149e+02	7.8458	13.970627	0.000237	2.373992	0.402165	-0.000024
1223	1.2159e+02	7.8370	13.947409	0.000233	2.333061	0.395231	-0.000023
1224	1.2169e+02	7.8278	13.919710	0.000278	2.783301	0.471504	-0.000028
1225	1.2179e+02	7.8180	13.894862	0.000250	2.496785	0.422967	-0.000025
1226	1.2189e+02	7.8069	13.872051	0.000229	2.292130	0.388297	-0.000023
1227	1.2199e+02	7.7962	13.851683	0.000205	2.046545	0.346694	-0.000020
1228	1.2209e+02	7.7866	13.828872	0.000229	2.292130	0.388297	-0.000023
1229	1.2219e+02	7.7767	13.800766	0.000282	2.824232	0.478438	-0.000028
1230	1.2229e+02	7.7676	13.780806	0.000201	2.005614	0.339760	-0.000020
1231	1.2239e+02	7.7544	13.757587	0.000233	2.333061	0.395231	-0.000023
1232	1.2248e+02	7.7460	13.728666	0.000291	2.906094	0.492306	-0.000029
1233	1.2258e+02	7.7379	13.705447	0.000233	2.333061	0.395231	-0.000023
1234	1.2268e+02	7.7262	13.680192	0.000254	2.537716	0.429901	-0.000025
1235	1.2278e+02	7.7200	13.655344	0.000250	2.496785	0.422967	-0.000025
1236	1.2288e+02	7.7062	13.629274	0.000262	2.619578	0.443768	-0.000026
1237	1.2298e+02	7.6965	13.606463	0.000229	2.292130	0.388297	-0.000023
1238	1.2308e+02	7.6857	13.582837	0.000237	2.373992	0.402165	-0.000024
1239	1.2318e+02	7.6767	13.555545	0.000274	2.742370	0.464570	-0.000027
1240	1.2328e+02	7.6669	13.531920	0.000237	2.373992	0.402165	-0.000024
1241	1.2338e+02	7.6568	13.506257	0.000258	2.578647	0.436835	-0.000026
1242	1.2348e+02	7.6465	13.478965	0.000274	2.742370	0.464570	-0.000027
1243	1.2358e+02	7.6367	13.452080	0.000270	2.701439	0.457636	-0.000027
1244	1.2368e+02	7.6282	13.426825	0.000254	2.537716	0.429901	-0.000025
1245	1.2378e+02	7.6172	13.402792	0.000241	2.414923	0.409099	-0.000024
1246	1.2388e+02	7.6086	13.374278	0.000287	2.865163	0.485372	-0.000029
1247	1.2398e+02	7.5957	13.344949	0.000295	2.947025	0.499240	-0.000029
1248	1.2408e+02	7.5866	13.319287	0.000258	2.578647	0.436835	-0.000026
1249	1.2418e+02	7.5751	13.292402	0.000270	2.701439	0.457636	-0.000027
1250	1.2428e+02	7.5672	13.266332	0.000262	2.619578	0.443768	-0.000026
1251	1.2438e+02	7.5588	13.239040	0.000274	2.742370	0.464570	-0.000027
1252	1.2447e+02	7.5465	13.209304	0.000299	2.987956	0.506173	-0.000030
1253	1.2457e+02	7.5391	13.179568	0.000299	2.987956	0.506173	-0.000030
1254	1.2467e+02	7.5302	13.146981	0.000327	3.274472	0.554711	-0.000033
1255	1.2477e+02	7.5182	13.127836	0.000192	1.923752	0.325892	-0.000019
1256	1.2487e+02	7.5063	13.097692	0.000303	3.028887	0.513107	-0.000030
1257	1.2497e+02	7.4962	13.069178	0.000287	2.865163	0.485372	-0.000029
1258	1.2507e+02	7.4874	13.039442	0.000299	2.987956	0.506173	-0.000030
1259	1.2517e+02	7.4795	13.012558	0.000270	2.701439	0.457636	-0.000027
1260	1.2527e+02	7.4668	12.985266	0.000274	2.742370	0.464570	-0.000027
1261	1.2537e+02	7.4595	12.958789	0.000266	2.660509	0.450702	-0.000027
1262	1.2547e+02	7.4473	12.925794	0.000332	3.315403	0.561644	-0.000033
1263	1.2557e+02	7.4377	12.898502	0.000274	2.742370	0.464570	-0.000027
1264	1.2567e+02	7.4269	12.870803	0.000278	2.783301	0.471504	-0.000028
1265	1.2577e+02	7.4162	12.841067	0.000299	2.987956	0.506173	-0.000030
1266	1.2587e+02	7.4118	12.811738	0.000295	2.947025	0.499240	-0.000029
1267	1.2597e+02	7.3992	12.782817	0.000291	2.906094	0.492306	-0.000029
1268	1.2607e+02	7.3890	12.755932	0.000270	2.701439	0.457636	-0.000027
1269	1.2617e+02	7.3782	12.728233	0.000278	2.783301	0.471504	-0.000028
1270	1.2627e+02	7.3708	12.695645	0.000327	3.274472	0.554711	-0.000033
1271	1.2636e+02	7.3600	12.671205	0.000246	2.455854	0.416033	-0.000025
1272	1.2646e+02	7.3501	12.641061	0.000303	3.028887	0.513107	-0.000030
1273	1.2656e+02	7.3389	12.610511	0.000307	3.069818	0.520041	-0.000031
1274	1.2666e+02	7.3269	12.584848	0.000258	2.578647	0.436835	-0.000026
1275	1.2676e+02	7.3196	12.557149	0.000278	2.783301	0.471504	-0.000028
1276	1.2686e+02	7.3087	12.528635	0.000287	2.865163	0.485372	-0.000029
1277	1.2696e+02	7.2987	12.498492	0.000303	3.028887	0.513107	-0.000030
1278	1.2706e+02	7.2873	12.469978	0.000287	2.865163	0.485372	-0.000029
1279	1.2716e+02	7.2779	12.440242	0.000299	2.987956	0.506173	-0.000030
1280	1.2726e+02	7.2686	12.410098	0.000303	3.028887	0.513107	-0.000030
1281	1.2736e+02	7.2584	12.376696	0.000336	3.356334	0.568578	-0.000034
1282	1.2746e+02	7.2510	12.342479	0.000344	3.438196	0.582446	-0.000034
1283	1.2756e+02	7.2417	12.309077	0.000336	3.356334	0.568578	-0.000034
1284	1.2766e+02	7.2285	12.280156	0.000291	2.906094	0.492306	-0.000029
1285	1.2776e+02	7.2217	12.251235	0.000291	2.906094	0.492306	-0.000029
1286	1.2786e+02	7.2108	12.216203	0.000352	3.520057	0.596314	-0.000035
1287	1.2796e+02	7.2009	12.185245	0.000311	3.110748	0.526975	-0.000031
1288	1.2806e+02	7.1885	12.157953	0.000274	2.742370	0.464570	-0.000027
1289	1.2816e+02	7.1790	12.127402	0.000307	3.069818	0.520041	-0.000031
1290	1.2826e+02	7.1701	12.096444	0.000311	3.110748	0.526975	-0.000031
1291	1.2835e+02	7.1603	12.064264	0.000323	3.233541	0.547777	-0.000032
1292	1.2845e+02	7.1514	12.032084	0.000323	3.233541	0.547777	-0.000032
1293	1.2855e+02	7.1427	12.001126	0.000311	3.110748	0.526975	-0.000031
1294	1.2865e+02	7.1268	11.965687	0.000356	3.560988	0.603248	-0.000036
1295	1.2875e+02	7.1207	11.935544	0.000303	3.028887	0.513107	-0.000030
1296	1.2885e+02	7.1086	11.902957	0.000327	3.274472	0.554711	-0.000033
1297	1.2895e+02	7.1014	11.872813	0.000303	3.028887	0.513107	-0.000030
1298	1.2905e+02	7.0905	11.841448	0.000315	3.151679	0.533909	-0.000032
1299	1.2915e+02	7.0801	11.810083	0.000315	3.151679	0.533909	-0.000032
1300	1.2925e+02	7.0695	11.782791	0.000274	2.742370	0.464570	-0.000027
1301	1.2935e+02	7.0611	11.757128	0.000258	2.578647	0.436835	-0.000026
1302	1.2945e+02	7.0492	11.725763	0.000315	3.151679	0.533909	-0.000032
1303	1.2955e+02	7.0426	11.696027	0.000299	2.987956	0.506173	-0.000030
1304	1.2965e+02	7.0289	11.666698	0.000295	2.947025	0.499240	-0.000029
1305	1.2975e+02	7.0211	11.640628	0.000262	2.619578	0.443768	-0.000026
1306	1.2985e+02	7.0129	11.606819	0.000340	3.397265	0.575512	-0.000034
1307	1.2995e+02	7.0036	11.577083	0.000299	2.987956	0.506173	-0.000030
1308	1.3005e+02	6.9911	11.546939	0.000303	3.028887	0.513107	-0.000030
1309	1.3015e+02	6.9793	11.519647	0.000274	2.742370	0.464570	-0.000027
1310	1.3025e+02	6.9688	11.485023	0.000348	3.479127	0.589380	-0.000035
1311	1.3034e+02	6.9596	11.452843	0.000323	3.233541	0.547777	-0.000032
1312	1.3044e+02	6.9494	11.423107	0.000299	2.987956	0.506173	-0.000030
1313	1.3054e+02	6.9411	11.390927	0.000323	3.233541	0.547777	-0.000032
1314	1.3064e+02	6.9312	11.361598	0.000295	2.947025	0.499240	-0.000029
1315	1.3074e+02	6.9219	11.327789	0.000340	3.397265	0.575512	-0.000034
1316	1.3084e+02	6.9099	11.300497	0.000274	2.742370	0.464570	-0.000027
1317	1.3094e+02	6.9012	11.270761	0.000299	2.987956	0.506173	-0.000030
1318	1.3104e+02	6.8911	11.238581	0.000323	3.233541	0.547777	-0.000032
1319	1.3114e+02	6.8813	11.208030	0.000307	3.069818	0.520041	-0.000031
1320	1.3124e+02	6.8697	11.175443	0.000327	3.274472	0.554711	-0.000033
1321	1.3134e+02	6.8630	11.144892	0.000307	3.069818	0.520041	-0.000031
1322	1.3144e+02	6.8539	11.115156	0.000299	2.987956	0.506173	-0.000030
1323	1.3154e+02	6.8410	11.081754	0.000336	3.356334	0.568578	-0.000034
1324	1.3164e+02	6.8299	11.047537	0.000344	3.438196	0.582446	-0.000034
1325	1.3174e+02	6.8185	11.022282	0.000254	2.537716	0.429901	-0.000025
1326	1.3184e+02	6.8133	10.990917	0.000315	3.151679	0.533909	-0.000032
1327	1.3194e+02	6.8019	10.955885	0.000352	3.520057	0.596314	-0.000035
1328	1.3204e+02	6.7944	10.926557	0.000295	2.947025	0.499240	-0.000029
1329	1.3214e+02	6.7810	10.900079	0.000266	2.660509	0.450702	-0.000027
1330	1.3224e+02	6.7696	10.868307	0.000319	3.192610	0.540843	-0.000032
1331	1.3234e+02	6.7637	10.842237	0.000262	2.619578	0.443768	-0.000026
1332	1.3243e+02	6.7501	10.810464	0.000319	3.192610	0.540843	-0.000032
1333	1.3253e+02	6.7458	10.783579	0.000270	2.701439	0.457636	-0.000027
1334	1.3263e+02	6.7316	10.755065	0.000287	2.865163	0.485372	-0.000029
1335	1.3273e+02	6.7230	10.725329	0.000299	2.987956	0.506173	-0.000030
1336	1.3283e+02	6.7139	10.696815	0.000287	2.865163	0.485372	-0.000029
1337	1.3293e+02	6.6988	10.667894	0.000291	2.906094	0.492306	-0.000029
1338	1.3303e+02	6.6930	10.640195	0.000278	2.783301	0.471504	-0.000028
1339	1.3313e+02	6.6821	10.610866	0.000295	2.947025	0.499240	-0.000029
1340	1.3323e+02	6.6738	10.580723	0.000303	3.028887	0.513107	-0.000030
1341	1.3333e+02	6.6650	10.556282	0.000246	2.455854	0.416033	-0.000025
1342	1.3343e+02	6.6518	10.522065	0.000344	3.438196	0.582446	-0.000034
1343	1.3353e+02	6.6422	10.495996	0.000262	2.619578	0.443768	-0.000026
1344	1.3363e+02	6.6320	10.468296	0.000278	2.783301	0.471504	-0.000028
1345	1.3373e+02	6.6211	10.436931	0.000315	3.151679	0.533909	-0.000032
1346	1.3383e+02	6.6138	10.406380	0.000307	3.069818	0.520041	-0.000031
1347	1.3393e+02	6.6018	10.379496	0.000270	2.701439	0.457636	-0.000027
1348	1.3403e+02	6.5910	10.347315	0.000323	3.233541	0.547777	-0.000032
1349	1.3413e+02	6.5844	10.322875	0.000246	2.455854	0.416033	-0.000025
1350	1.3423e+02	6.5710	10.294768	0.000282	2.824232	0.478438	-0.000028
1351	1.3432e+02	6.5621	10.267069	0.000278	2.783301	0.471504	-0.000028
1352	1.3442e+02	6.5528	10.238962	0.000282	2.824232	0.478438	-0.000028
1353	1.3452e+02	6.5424	10.209226	0.000299	2.987956	0.506173	-0.000030
1354	1.3462e+02	6.5358	10.182342	0.000270	2.701439	0.457636	-0.000027
1355	1.3472e+02	6.5229	10.148940	0.000336	3.356334	0.568578	-0.000034
1356	1.3482e+02	6.5137	10.121648	0.000274	2.742370	0.464570	-0.000027
1357	1.3492e+02	6.5026	10.095170	0.000266	2.660509	0.450702	-0.000027
1358	1.3502e+02	6.4906	10.063398	0.000319	3.192610	0.540843	-0.000032
1359	1.3512e+02	6.4829	10.038550	0.000250	2.496785	0.422967	-0.000025
1360	1.3522e+02	6.4714	10.010036	0.000287	2.865163	0.485372	-0.000029
1361	1.3532e+02	6.4651	9.981929	0.000282	2.824232	0.478438	-0.000028
1362	1.3542e+02	6.4519	9.948120	0.000340	3.397265	0.575512	-0.000034
1363	1.3552e+02	6.4437	9.924494	0.000237	2.373992	0.402165	-0.000024
1364	1.3562e+02	6.4349	9.897609	0.000270	2.701439	0.457636	-0.000027
1365	1.3572e+02	6.4269	9.870725	0.000270	2.701439	0.457636	-0.000027
1366	1.3582e+02	6.4123	9.843025	0.000278	2.783301	0.471504	-0.000028
1367	1.3592e+02	6.4042	9.816141	0.000270	2.701439	0.457636	-0.000027
1368	1.3602e+02	6.3937	9.789256	0.000270	2.701439	0.457636	-0.000027
1369	1.3612e+02	6.3862	9.760742	0.000287	2.865163	0.485372	-0.000029
1370	1.3622e+02	6.3731	9.741190	0.000196	1.964683	0.332826	-0.000020
1371	1.3631e+02	6.3645	9.709824	0.000315	3.151679	0.533909	-0.000032
1372	1.3641e+02	6.3511	9.681310	0.000287	2.865163	0.485372	-0.000029
1373	1.3651e+02	6.3428	9.656055	0.000254	2.537716	0.429901	-0.000025
1374	1.3661e+02	6.3337	9.626727	0.000295	2.947025	0.499240	-0.000029
1375	1.3671e+02	6.3244	9.600657	0.000262	2.619578	0.443768	-0.000026
1376	1.3681e+02	6.3149	9.570513	0.000303	3.028887	0.513107	-0.000030
1377	1.3691e+02	6.3030	9.544443	0.000262	2.619578	0.443768	-0.000026
1378	1.3701e+02	6.2965	9.522447	0.000221	2.210269	0.374430	-0.000022
1379	1.3711e+02	6.2859	9.494340	0.000282	2.824232	0.478438	-0.000028
1380	1.3721e+02	6.2749	9.466641	0.000278	2.783301	0.471504	-0.000028
1381	1.3731e+02	6.2633	9.441386	0.000254	2.537716	0.429901	-0.000025
1382	1.3741e+02	6.2554	9.413279	0.000282	2.824232	0.478438	-0.000028
1383	1.3751e+02	6.2490	9.384358	0.000291	2.906094	0.492306	-0.000029
1384	1.3761e+02	6.2370	9.357066	0.000274	2.742370	0.464570	-0.000027
1385	1.3771e+02	6.2234	9.325700	0.000315	3.151679	0.533909	-0.000032
1386	1.3781e+02	6.2150	9.298001	0.000278	2.783301	0.471504	-0.000028
1387	1.3791e+02	6.2065	9.269080	0.000291	2.906094	0.492306	-0.000029
1388	1.3801e+02	6.1977	9.235270	0.000340	3.397265	0.575512	-0.000034
1389	1.3811e+02	6.1863	9.207164	0.000282	2.824232	0.478438	-0.000028
1390	1.3821e+02	6.1768	9.177835	0.000295	2.947025	0.499240	-0.000029
1391	1.3831e+02	6.1646	9.151358	0.000266	2.660509	0.450702	-0.000027
1392	1.3840e+02	6.1547	9.122844	0.000287	2.865163	0.485372	-0.000029
1393	1.3850e+02	6.1451	9.094330	0.000287	2.865163	0.485372	-0.000029
1394	1.3860e+02	6.1352	9.068667	0.000258	2.578647	0.436835	-0.000026
1395	1.3870e+02	6.1246	9.038117	0.000307	3.069818	0.520041	-0.000031
1396	1.3880e+02	6.1147	9.011639	0.000266	2.660509	0.450702	-0.000027
1397	1.3890e+02	6.1063	8.981903	0.000299	2.987956	0.506173	-0.000030
1398	1.3900e+02	6.0915	8.952575	0.000295	2.947025	0.499240	-0.000029
1399	1.3910e+02	6.0860	8.926097	0.000266	2.660509	0.450702	-0.000027
1400	1.3920e+02	6.0738	8.895547	0.000307	3.069818	0.520041	-0.000031
1401	1.3930e+02	6.0639	8.870699	0.000250	2.496785	0.422967	-0.000025
1402	1.3940e+02	6.0549	8.840963	0.000299	2.987956	0.506173	-0.000030
1403	1.3950e+02	6.0488	8.815300	0.000258	2.578647	0.436835	-0.000026
1404	1.3960e+02	6.0336	8.784342	0.000311	3.110748	0.526975	-0.000031
1405	1.3970e+02	6.0285	8.758680	0.000258	2.578647	0.436835	-0.000026
1406	1.3980e+02	6.0139	8.727314	0.000315	3.151679	0.533909	-0.000032
1407	1.3990e+02	6.0076	8.697171	0.000303	3.028887	0.513107	-0.000030
1408	1.4000e+02	5.9966	8.668657	0.000287	2.865163	0.485372	-0.000029
1409	1.4010e+02	5.9856	8.637291	0.000315	3.151679	0.533909	-0.000032
1410	1.4020e+02	5.9766	8.608777	0.000287	2.865163	0.485372	-0.000029
1411	1.4029e+02	5.9689	8.579041	0.000299	2.987956	0.506173	-0.000030
1412	1.4039e+02	5.9533	8.546861	0.000323	3.233541	0.547777	-0.000032
1413	1.4049e+02	5.9493	8.515496	0.000315	3.151679	0.533909	-0.000032
1414	1.4059e+02	5.9344	8.484538	0.000311	3.110748	0.526975	-0.000031
1415	1.4069e+02	5.9263	8.457653	0.000270	2.701439	0.457636	-0.000027
1416	1.4079e+02	5.9188	8.426288	0.000315	3.151679	0.533909	-0.000032
1417	1.4089e+02	5.9062	8.391664	0.000348	3.479127	0.589380	-0.000035
1418	1.4099e+02	5.8964	8.359891	0.000319	3.192610	0.540843	-0.000032
1419	1.4109e+02	5.8892	8.330563	0.000295	2.947025	0.499240	-0.000029
1420	1.4119e+02	5.8791	8.295938	0.000348	3.479127	0.589380	-0.000035
1421	1.4129e+02	5.8648	8.264166	0.000319	3.192610	0.540843	-0.000032
1422	1.4139e+02	5.8553	8.228727	0.000356	3.560988	0.603248	-0.000036
1423	1.4149e+02	5.8450	8.199806	0.000291	2.906094	0.492306	-0.000029
1424	1.4159e+02	5.8350	8.166811	0.000332	3.315403	0.561644	-0.000033
1425	1.4169e+02	5.8251	8.134631	0.000323	3.233541	0.547777	-0.000032
1426	1.4179e+02	5.8160	8.103265	0.000315	3.151679	0.533909	-0.000032
1427	1.4189e+02	5.8092	8.068641	0.000348	3.479127	0.589380	-0.000035
1428	1.4199e+02	5.7924	8.038498	0.000303	3.028887	0.513107	-0.000030
1429	1.4209e+02	5.7862	8.004688	0.000340	3.397265	0.575512	-0.000034
1430	1.4219e+02	5.7771	7.977804	0.000270	2.701439	0.457636	-0.000027
1431	1.4228e+02	5.7677	7.944402	0.000336	3.356334	0.568578	-0.000034
1432	1.4238e+02	5.7574	7.914258	0.000303	3.028887	0.513107	-0.000030
1433	1.4248e+02	5.7467	7.877598	0.000368	3.683781	0.624049	-0.000037
1434	1.4258e+02	5.7374	7.842973	0.000348	3.479127	0.589380	-0.000035
1435	1.4268e+02	5.7264	7.809164	0.000340	3.397265	0.575512	-0.000034
1436	1.4278e+02	5.7174	7.779428	0.000299	2.987956	0.506173	-0.000030
1437	1.4288e+02	5.7050	7.746433	0.000332	3.315403	0.561644	-0.000033
1438	1.4298e+02	5.6976	7.713031	0.000336	3.356334	0.568578	-0.000034
1439	1.4308e+02	5.6864	7.682073	0.000311	3.110748	0.526975	-0.000031
1440	1.4318e+02	5.6802	7.649078	0.000332	3.315403	0.561644	-0.000033
1441	1.4328e+02	5.6683	7.615269	0.000340	3.397265	0.575512	-0.000034
1442	1.4338e+02	5.6562	7.587162	0.000282	2.824232	0.478438	-0.000028
1443	1.4348e+02	5.6463	7.552538	0.000348	3.479127	0.589380	-0.000035
1444	1.4358e+02	5.6390	7.519544	0.000332	3.315403	0.561644	-0.000033
1445	1.4368e+02	5.6313	7.486549	0.000332	3.315403	0.561644	-0.000033
1446	1.4378e+02	5.6167	7.451925	0.000348	3.479127	0.589380	-0.000035
1447	1.4388e+02	5.6059	7.416893	0.000352	3.520057	0.596314	-0.000035
1448	1.4398e+02	5.5978	7.382269	0.000348	3.479127	0.589380	-0.000035
1449	1.4408e+02	5.5884	7.346830	0.000356	3.560988	0.603248	-0.000036
1450	1.4418e+02	5.5770	7.314243	0.000327	3.274472	0.554711	-0.000033
1451	1.4428e+02	5.5688	7.275953	0.000385	3.847505	0.651785	-0.000038
1452	1.4437e+02	5.5596	7.236848	0.000393	3.929366	0.665653	-0.000039
1453	1.4447e+02	5.5463	7.201816	0.000352	3.520057	0.596314	-0.000035
1454	1.4457e+02	5.5367	7.172895	0.000291	2.906094	0.492306	-0.000029
1455	1.4467e+02	5.5282	7.134197	0.000389	3.888436	0.658719	-0.000039
1456	1.4477e+02	5.5201	7.096315	0.000381	3.806574	0.644851	-0.000038
1457	1.4487e+02	5.5068	7.063320	0.000332	3.315403	0.561644	-0.000033
1458	1.4497e+02	5.4992	7.029510	0.000340	3.397265	0.575512	-0.000034
1459	1.4507e+02	5.4884	6.990813	0.000389	3.888436	0.658719	-0.000039
1460	1.4517e+02	5.4784	6.959040	0.000319	3.192610	0.540843	-0.000032
1461	1.4527e+02	5.4678	6.924416	0.000348	3.479127	0.589380	-0.000035
1462	1.4537e+02	5.4583	6.886941	0.000377	3.765643	0.637917	-0.000038
1463	1.4547e+02	5.4473	6.848243	0.000389	3.888436	0.658719	-0.000039
1464	1.4557e+02	5.4404	6.814026	0.000344	3.438196	0.582446	-0.000034
1465	1.4567e+02	5.4281	6.777773	0.000364	3.642850	0.617116	-0.000036
1466	1.4577e+02	5.4169	6.743556	0.000344	3.438196	0.582446	-0.000034
1467	1.4587e+02	5.4074	6.709339	0.000344	3.438196	0.582446	-0.000034
1468	1.4597e+02	5.3979	6.676344	0.000332	3.315403	0.561644	-0.000033
1469	1.4607e+02	5.3907	6.646201	0.000303	3.028887	0.513107	-0.000030
1470	1.4617e+02	5.3770	6.609948	0.000364	3.642850	0.617116	-0.000036
1471	1.4626e+02	5.3675	6.577360	0.000327	3.274472	0.554711	-0.000033
1472	1.4636e+02	5.3633	6.543551	0.000340	3.397265	0.575512	-0.000034
1473	1.4646e+02	5.3487	6.512185	0.000315	3.151679	0.533909	-0.000032
1474	1.4656e+02	5.3396	6.477969	0.000344	3.438196	0.582446	-0.000034
1475	1.4666e+02	5.3297	6.440900	0.000372	3.724712	0.630983	-0.000037
1476	1.4676e+02	5.3178	6.407498	0.000336	3.356334	0.568578	-0.000034
1477	1.4686e+02	5.3089	6.371245	0.000364	3.642850	0.617116	-0.000036
1478	1.4696e+02	5.2987	6.337435	0.000340	3.397265	0.575512	-0.000034
1479	1.4706e+02	5.2911	6.299553	0.000381	3.806574	0.644851	-0.000038
1480	1.4716e+02	5.2799	6.263706	0.000360	3.601919	0.610182	-0.000036
1481	1.4726e+02	5.2694	6.229082	0.000348	3.479127	0.589380	-0.000035
1482	1.4736e+02	5.2584	6.192014	0.000372	3.724712	0.630983	-0.000037
1483	1.4746e+02	5.2478	6.159834	0.000323	3.233541	0.547777	-0.000032
1484	1.4756e+02	5.2390	6.125617	0.000344	3.438196	0.582446	-0.000034
1485	1.4766e+02	5.2283	6.092623	0.000332	3.315403	0.561644	-0.000033
1486	1.4776e+02	5.2214	6.057184	0.000356	3.560988	0.603248	-0.000036
1487	1.4786e+02	5.2080	6.022560	0.000348	3.479127	0.589380	-0.000035
1488	1.4796e+02	5.2001	5.991194	0.000315	3.151679	0.533909	-0.000032
1489	1.4806e+02	5.1904	5.948831	0.000426	4.256814	0.721124	-0.000043
1490	1.4816e+02	5.1815	5.914207	0.000348	3.479127	0.589380	-0.000035
1491	1.4825e+02	5.1688	5.876324	0.000381	3.806574	0.644851	-0.000038
1492	1.4835e+02	5.1598	5.846588	0.000299	2.987956	0.506173	-0.000030
1493	1.4845e+02	5.1496	5.809112	0.000377	3.765643	0.637917	-0.000038
1494	1.4855e+02	5.1380	5.772859	0.000364	3.642850	0.617116	-0.000036
1495	1.4865e+02	5.1298	5.739864	0.000332	3.315403	0.561644	-0.000033
1496	1.4875e+02	5.1205	5.707276	0.000327	3.274472	0.554711	-0.000033
1497	1.4885e+02	5.1111	5.673060	0.000344	3.438196	0.582446	-0.000034
1498	1.4895e+02	5.1031	5.641287	0.000319	3.192610	0.540843	-0.000032
1499	1.4905e+02	5.0906	5.605848	0.000356	3.560988	0.603248	-0.000036
1500	1.4915e+02	5.0808	5.572039	0.000340	3.397265	0.575512	-0.000034
1501	1.4925e+02	5.0679	5.537822	0.000344	3.438196	0.582446	-0.000034
1502	1.4935e+02	5.0603	5.508086	0.000299	2.987956	0.506173	-0.000030
1503	1.4945e+02	5.0510	5.473869	0.000344	3.438196	0.582446	-0.000034
1504	1.4955e+02	5.0391	5.440874	0.000332	3.315403	0.561644	-0.000033
1505	1.4965e+02	5.0298	5.410731	0.000303	3.028887	0.513107	-0.000030
1506	1.4975e+02	5.0224	5.376922	0.000340	3.397265	0.575512	-0.000034
1507	1.4985e+02	5.0127	5.342298	0.000348	3.479127	0.589380	-0.000035
1508	1.4995e+02	5.0001	5.308488	0.000340	3.397265	0.575512	-0.000034
1509	1.5005e+02	4.9899	5.271827	0.000368	3.683781	0.624049	-0.000037
1510	1.5015e+02	4.9801	5.242091	0.000299	2.987956	0.506173	-0.000030
1511	1.5025e+02	4.9706	5.209504	0.000327	3.274472	0.554711	-0.000033
1512	1.5034e+02	4.9612	5.178546	0.000311	3.110748	0.526975	-0.000031
1513	1.5044e+02	4.9495	5.141478	0.000372	3.724712	0.630983	-0.000037
1514	1.5054e+02	4.9427	5.112964	0.000287	2.865163	0.485372	-0.000029
1515	1.5064e+02	4.9319	5.075081	0.000381	3.806574	0.644851	-0.000038
1516	1.5074e+02	4.9204	5.045345	0.000299	2.987956	0.506173	-0.000030
1517	1.5084e+02	4.9090	5.008684	0.000368	3.683781	0.624049	-0.000037
1518	1.5094e+02	4.9001	4.978133	0.000307	3.069818	0.520041	-0.000031
1519	1.5104e+02	4.8898	4.946361	0.000319	3.192610	0.540843	-0.000032
1520	1.5114e+02	4.8829	4.912144	0.000344	3.438196	0.582446	-0.000034
1521	1.5124e+02	4.8711	4.882408	0.000299	2.987956	0.506173	-0.000030
1522	1.5134e+02	4.8638	4.849413	0.000332	3.315403	0.561644	-0.000033
1523	1.5144e+02	4.8510	4.819270	0.000303	3.028887	0.513107	-0.000030
1524	1.5154e+02	4.8383	4.784238	0.000352	3.520057	0.596314	-0.000035
1525	1.5164e+02	4.8281	4.747985	0.000364	3.642850	0.617116	-0.000036
1526	1.5174e+02	4.8220	4.712139	0.000360	3.601919	0.610182	-0.000036
1527	1.5184e+02	4.8121	4.686069	0.000262	2.619578	0.443768	-0.000026
1528	1.5194e+02	4.7998	4.650630	0.000356	3.560988	0.603248	-0.000036
1529	1.5204e+02	4.7938	4.620487	0.000303	3.028887	0.513107	-0.000030
1530	1.5214e+02	4.7799	4.586270	0.000344	3.438196	0.582446	-0.000034
1531	1.5224e+02	4.7743	4.553682	0.000327	3.274472	0.554711	-0.000033
1532	1.5233e+02	4.7637	4.523132	0.000307	3.069818	0.520041	-0.000031
1533	1.5243e+02	4.7520	4.495432	0.000278	2.783301	0.471504	-0.000028
1534	1.5253e+02	4.7418	4.459586	0.000360	3.601919	0.610182	-0.000036
1535	1.5263e+02	4.7320	4.432702	0.000270	2.701439	0.457636	-0.000027
1536	1.5273e+02	4.7195	4.400522	0.000323	3.233541	0.547777	-0.000032
1537	1.5283e+02	4.7116	4.366305	0.000344	3.438196	0.582446	-0.000034
1538	1.5293e+02	4.7026	4.339420	0.000270	2.701439	0.457636	-0.000027
1539	1.5303e+02	4.6917	4.305203	0.000344	3.438196	0.582446	-0.000034
1540	1.5313e+02	4.6815	4.275467	0.000299	2.987956	0.506173	-0.000030
1541	1.5323e+02	4.6706	4.240843	0.000348	3.479127	0.589380	-0.000035
1542	1.5333e+02	4.6645	4.209071	0.000319	3.192610	0.540843	-0.000032
1543	1.5343e+02	4.6539	4.178927	0.000303	3.028887	0.513107	-0.000030
1544	1.5353e+02	4.6406	4.147562	0.000315	3.151679	0.533909	-0.000032
1545	1.5363e+02	4.6320	4.116604	0.000311	3.110748	0.526975	-0.000031
1546	1.5373e+02	4.6209	4.084831	0.000319	3.192610	0.540843	-0.000032
1547	1.5383e+02	4.6127	4.053466	0.000315	3.151679	0.533909	-0.000032
1548	1.5393e+02	4.6037	4.022100	0.000315	3.151679	0.533909	-0.000032
1549	1.5403e+02	4.5918	3.989920	0.000323	3.233541	0.547777	-0.000032
1550	1.5413e+02	4.5844	3.959370	0.000307	3.069818	0.520041	-0.000031
1551	1.5422e+02	4.5725	3.922301	0.000372	3.724712	0.630983	-0.000037
1552	1.5432e+02	4.5656	3.890529	0.000319	3.192610	0.540843	-0.000032
1553	1.5442e+02	4.5509	3.855090	0.000356	3.560988	0.603248	-0.000036
1554	1.5452e+02	4.5426	3.820873	0.000344	3.438196	0.582446	-0.000034
1555	1.5462e+02	4.5325	3.786249	0.000348	3.479127	0.589380	-0.000035
1556	1.5472e+02	4.5211	3.753254	0.000332	3.315403	0.561644	-0.000033
1557	1.5482e+02	4.5142	3.719037	0.000344	3.438196	0.582446	-0.000034
1558	1.5492e+02	4.5043	3.687265	0.000319	3.192610	0.540843	-0.000032
1559	1.5502e+02	4.4925	3.654270	0.000332	3.315403	0.561644	-0.000033
1560	1.5512e+02	4.4815	3.622090	0.000323	3.233541	0.547777	-0.000032
1561	1.5522e+02	4.4717	3.589503	0.000327	3.274472	0.554711	-0.000033
1562	1.5532e+02	4.4646	3.556100	0.000336	3.356334	0.568578	-0.000034
1563	1.5542e+02	4.4549	3.527994	0.000282	2.824232	0.478438	-0.000028
1564	1.5552e+02	4.4450	3.491333	0.000368	3.683781	0.624049	-0.000037
1565	1.5562e+02	4.4332	3.459968	0.000315	3.151679	0.533909	-0.000032
1566	1.5572e+02	4.4241	3.429010	0.000311	3.110748	0.526975	-0.000031
1567	1.5582e+02	4.4146	3.394793	0.000344	3.438196	0.582446	-0.000034
1568	1.5592e+02	4.4027	3.360576	0.000344	3.438196	0.582446	-0.000034
1569	1.5602e+02	4.3934	3.328803	0.000319	3.192610	0.540843	-0.000032
1570	1.5612e+02	4.3848	3.295401	0.000336	3.356334	0.568578	-0.000034
1571	1.5622e+02	4.3748	3.262406	0.000332	3.315403	0.561644	-0.000033
1572	1.5631e+02	4.3633	3.226153	0.000364	3.642850	0.617116	-0.000036
1573	1.5641e+02	4.3562	3.195602	0.000307	3.069818	0.520041	-0.000031
1574	1.5651e+02	4.3410	3.164237	0.000315	3.151679	0.533909	-0.000032
1575	1.5661e+02	4.3340	3.127576	0.000368	3.683781	0.624049	-0.000037
1576	1.5671e+02	4.3227	3.093767	0.000340	3.397265	0.575512	-0.000034
1577	1.5681e+02	4.3143	3.061179	0.000327	3.274472	0.554711	-0.000033
1578	1.5691e+02	4.3012	3.027777	0.000336	3.356334	0.568578	-0.000034
1579	1.5701e+02	4.2960	2.993968	0.000340	3.397265	0.575512	-0.000034
1580	1.5711e+02	4.2845	2.958122	0.000360	3.601919	0.610182	-0.000036
1581	1.5721e+02	4.2733	2.924720	0.000336	3.356334	0.568578	-0.000034
1582	1.5731e+02	4.2657	2.885615	0.000393	3.929366	0.665653	-0.000039
1583	1.5741e+02	4.2527	2.847324	0.000385	3.847505	0.651785	-0.000038
1584	1.5751e+02	4.2435	2.815144	0.000323	3.233541	0.547777	-0.000032
1585	1.5761e+02	4.2345	2.775225	0.000401	4.011228	0.679520	-0.000040
1586	1.5771e+02	4.2237	2.741823	0.000336	3.356334	0.568578	-0.000034
1587	1.5781e+02	4.2151	2.705569	0.000364	3.642850	0.617116	-0.000036
1588	1.5791e+02	4.2056	2.668908	0.000368	3.683781	0.624049	-0.000037
1589	1.5801e+02	4.1930	2.626952	0.000422	4.215883	0.714190	-0.000042
1590	1.5811e+02	4.1851	2.593143	0.000340	3.397265	0.575512	-0.000034
1591	1.5821e+02	4.1759	2.556482	0.000368	3.683781	0.624049	-0.000037
1592	1.5830e+02	4.1633	2.519006	0.000377	3.765643	0.637917	-0.000038
1593	1.5840e+02	4.1541	2.486012	0.000332	3.315403	0.561644	-0.000033
1594	1.5850e+02	4.1433	2.447314	0.000389	3.888436	0.658719	-0.000039
1595	1.5860e+02	4.1360	2.409839	0.000377	3.765643	0.637917	-0.000038
1596	1.5870e+02	4.1250	2.369512	0.000405	4.052159	0.686454	-0.000041
1597	1.5880e+02	4.1143	2.336517	0.000332	3.315403	0.561644	-0.000033
1598	1.5890e+02	4.1035	2.298634	0.000381	3.806574	0.644851	-0.000038
1599	1.5900e+02	4.0969	2.262381	0.000364	3.642850	0.617116	-0.000036
1600	1.5910e+02	4.0849	2.223683	0.000389	3.888436	0.658719	-0.000039
1601	1.5920e+02	4.0733	2.186207	0.000377	3.765643	0.637917	-0.000038
1602	1.5930e+02	4.0659	2.150769	0.000356	3.560988	0.603248	-0.000036
1603	1.5940e+02	4.0565	2.112886	0.000381	3.806574	0.644851	-0.000038
1604	1.5950e+02	4.0478	2.075003	0.000381	3.806574	0.644851	-0.000038
1605	1.5960e+02	4.0371	2.036713	0.000385	3.847505	0.651785	-0.000038
1606	1.5970e+02	4.0293	1.999645	0.000372	3.724712	0.630983	-0.000037
1607	1.5980e+02	4.0154	1.961354	0.000385	3.847505	0.651785	-0.000038
1608	1.5990e+02	4.0089	1.925916	0.000356	3.560988	0.603248	-0.000036
1609	1.6000e+02	3.9951	1.888847	0.000372	3.724712	0.630983	-0.000037
1610	1.6010e+02	3.9868	1.848928	0.000401	4.011228	0.679520	-0.000040
1611	1.6019e+02	3.9767	1.811045	0.000381	3.806574	0.644851	-0.000038
1612	1.6029e+02	3.9684	1.773977	0.000372	3.724712	0.630983	-0.000037
1613	1.6039e+02	3.9556	1.737723	0.000364	3.642850	0.617116	-0.000036
1614	1.6049e+02	3.9472	1.695767	0.000422	4.215883	0.714190	-0.000042
1615	1.6059e+02	3.9339	1.658699	0.000372	3.724712	0.630983	-0.000037
1616	1.6069e+02	3.9272	1.620001	0.000389	3.888436	0.658719	-0.000039
1617	1.6079e+02	3.9158	1.573564	0.000467	4.666123	0.790463	-0.000047
1618	1.6089e+02	3.9063	1.536903	0.000368	3.683781	0.624049	-0.000037
1619	1.6099e+02	3.8940	1.494540	0.000426	4.256814	0.721124	-0.000043
1620	1.6109e+02	3.8883	1.456250	0.000385	3.847505	0.651785	-0.000038
1621	1.6119e+02	3.8747	1.412664	0.000438	4.379606	0.741925	-0.000044
1622	1.6129e+02	3.8654	1.375596	0.000372	3.724712	0.630983	-0.000037
1623	1.6139e+02	3.8572	1.337306	0.000385	3.847505	0.651785	-0.000038
1624	1.6149e+02	3.8483	1.294535	0.000430	4.297745	0.728058	-0.000043
1625	1.6159e+02	3.8365	1.254615	0.000401	4.011228	0.679520	-0.000040
1626	1.6169e+02	3.8280	1.216732	0.000381	3.806574	0.644851	-0.000038
1627	1.6179e+02	3.8181	1.176405	0.000405	4.052159	0.686454	-0.000041
1628	1.6189e+02	3.8094	1.136486	0.000401	4.011228	0.679520	-0.000040
1629	1.6199e+02	3.7970	1.094122	0.000426	4.256814	0.721124	-0.000043
1630	1.6209e+02	3.7881	1.055425	0.000389	3.888436	0.658719	-0.000039
1631	1.6219e+02	3.7798	1.013876	0.000417	4.174952	0.707256	-0.000042
1632	1.6228e+02	3.7666	0.975585	0.000385	3.847505	0.651785	-0.000038
1633	1.6238e+02	3.7561	0.937295	0.000385	3.847505	0.651785	-0.000038
1634	1.6248e+02	3.7495	0.894117	0.000434	4.338675	0.734992	-0.000043
1635	1.6258e+02	3.7365	0.857863	0.000364	3.642850	0.617116	-0.000036
1636	1.6268e+02	3.7243	0.820388	0.000377	3.765643	0.637917	-0.000038
1637	1.6278e+02	3.7164	0.780468	0.000401	4.011228	0.679520	-0.000040
1638	1.6288e+02	3.7087	0.739734	0.000409	4.093090	0.693388	-0.000041
1639	1.6298e+02	3.6993	0.704295	0.000356	3.560988	0.603248	-0.000036
1640	1.6308e+02	3.6880	0.665598	0.000389	3.888436	0.658719	-0.000039
1641	1.6318e+02	3.6770	0.624863	0.000409	4.093090	0.693388	-0.000041
1642	1.6328e+02	3.6658	0.586573	0.000385	3.847505	0.651785	-0.000038
1643	1.6338e+02	3.6591	0.550320	0.000364	3.642850	0.617116	-0.000036
1644	1.6348e+02	3.6471	0.509993	0.000405	4.052159	0.686454	-0.000041
1645	1.6358e+02	3.6364	0.467222	0.000430	4.297745	0.728058	-0.000043
1646	1.6368e+02	3.6262	0.424451	0.000430	4.297745	0.728058	-0.000043
1647	1.6378e+02	3.6178	0.385753	0.000389	3.888436	0.658719	-0.000039
1648	1.6388e+02	3.6105	0.346241	0.000397	3.970297	0.672587	-0.000040
1649	1.6398e+02	3.5969	0.303878	0.000426	4.256814	0.721124	-0.000043
1650	1.6408e+02	3.5908	0.265587	0.000385	3.847505	0.651785	-0.000038
1651	1.6418e+02	3.5786	0.224853	0.000409	4.093090	0.693388	-0.000041
1652	1.6427e+02	3.5654	0.187785	0.000372	3.724712	0.630983	-0.000037
1653	1.6437e+02	3.5565	0.145421	0.000426	4.256814	0.721124	-0.000043
1654	1.6447e+02	3.5461	0.104280	0.000413	4.134021	0.700322	-0.000041
1655	1.6457e+02	3.5354	0.065582	0.000389	3.888436	0.658719	-0.000039
1656	1.6467e+02	3.5262	0.025663	0.000401	4.011228	0.679520	-0.000040
1657	1.6477e+02	3.5197	-0.014664	0.000405	4.052159	0.686454	-0.000041
1658	1.6487e+02	3.5104	-0.053362	0.000389	3.888436	0.658719	-0.000039
1659	1.6497e+02	3.4975	-0.097762	0.000446	4.461468	0.755793	-0.000045
1660	1.6507e+02	3.4872	-0.136052	0.000385	3.847505	0.651785	-0.000038
1661	1.6517e+02	3.4771	-0.174343	0.000385	3.847505	0.651785	-0.000038
1662	1.6527e+02	3.4682	-0.215077	0.000409	4.093090	0.693388	-0.000041
1663	1.6537e+02	3.4580	-0.255811	0.000409	4.093090	0.693388	-0.000041
1664	1.6547e+02	3.4497	-0.293694	0.000381	3.806574	0.644851	-0.000038
1665	1.6557e+02	3.4354	-0.332392	0.000389	3.888436	0.658719	-0.000039
1666	1.6567e+02	3.4286	-0.369867	0.000377	3.765643	0.637917	-0.000038
1667	1.6577e+02	3.4188	-0.407343	0.000377	3.765643	0.637917	-0.000038
1668	1.6587e+02	3.4084	-0.448891	0.000417	4.174952	0.707256	-0.000042
1669	1.6597e+02	3.4008	-0.483108	0.000344	3.438196	0.582446	-0.000034
1670	1.6607e+02	3.3900	-0.523028	0.000401	4.011228	0.679520	-0.000040
1671	1.6616e+02	3.3778	-0.565391	0.000426	4.256814	0.721124	-0.000043
1672	1.6626e+02	3.3697	-0.599608	0.000344	3.438196	0.582446	-0.000034
1673	1.6636e+02	3.3618	-0.635454	0.000360	3.601919	0.610182	-0.000036
1674	1.6646e+02	3.3495	-0.674152	0.000389	3.888436	0.658719	-0.000039
1675	1.6656e+02	3.3367	-0.714071	0.000401	4.011228	0.679520	-0.000040
1676	1.6666e+02	3.3280	-0.754398	0.000405	4.052159	0.686454	-0.000041
1677	1.6676e+02	3.3202	-0.791874	0.000377	3.765643	0.637917	-0.000038
1678	1.6686e+02	3.3089	-0.828127	0.000364	3.642850	0.617116	-0.000036
1679	1.6696e+02	3.2992	-0.871713	0.000438	4.379606	0.741925	-0.000044
1680	1.6706e+02	3.2894	-0.908781	0.000372	3.724712	0.630983	-0.000037
1681	1.6716e+02	3.2793	-0.944627	0.000360	3.601919	0.610182	-0.000036
1682	1.6726e+02	3.2689	-0.980881	0.000364	3.642850	0.617116	-0.000036
1683	1.6736e+02	3.2598	-1.019171	0.000385	3.847505	0.651785	-0.000038
1684	1.6746e+02	3.2500	-1.059091	0.000401	4.011228	0.679520	-0.000040
1685	1.6756e+02	3.2412	-1.101047	0.000422	4.215883	0.714190	-0.000042
1686	1.6766e+02	3.2281	-1.136078	0.000352	3.520057	0.596314	-0.000035
1687	1.6776e+02	3.2209	-1.174776	0.000389	3.888436	0.658719	-0.000039
1688	1.6786e+02	3.2110	-1.209807	0.000352	3.520057	0.596314	-0.000035
1689	1.6796e+02	3.1991	-1.246061	0.000364	3.642850	0.617116	-0.000036
1690	1.6806e+02	3.1905	-1.290054	0.000442	4.420537	0.748859	-0.000044
1691	1.6816e+02	3.1821	-1.323863	0.000340	3.397265	0.575512	-0.000034
1692	1.6825e+02	3.1698	-1.362153	0.000385	3.847505	0.651785	-0.000038
1693	1.6835e+02	3.1606	-1.404517	0.000426	4.256814	0.721124	-0.000043
1694	1.6845e+02	3.1466	-1.440363	0.000360	3.601919	0.610182	-0.000036
1695	1.6855e+02	3.1410	-1.480690	0.000405	4.052159	0.686454	-0.000041
1696	1.6865e+02	3.1310	-1.514907	0.000344	3.438196	0.582446	-0.000034
1697	1.6875e+02	3.1174	-1.556049	0.000413	4.134021	0.700322	-0.000041
1698	1.6885e+02	3.1114	-1.588636	0.000327	3.274472	0.554711	-0.000033
1699	1.6895e+02	3.0990	-1.628148	0.000397	3.970297	0.672587	-0.000040
1700	1.6905e+02	3.0910	-1.667253	0.000393	3.929366	0.665653	-0.000039
1701	1.6915e+02	3.0842	-1.702285	0.000352	3.520057	0.596314	-0.000035
1702	1.6925e+02	3.0698	-1.739760	0.000377	3.765643	0.637917	-0.000038
1703	1.6935e+02	3.0609	-1.775199	0.000356	3.560988	0.603248	-0.000036
1704	1.6945e+02	3.0513	-1.812267	0.000372	3.724712	0.630983	-0.000037
1705	1.6955e+02	3.0410	-1.848520	0.000364	3.642850	0.617116	-0.000036
1706	1.6965e+02	3.0316	-1.885996	0.000377	3.765643	0.637917	-0.000038
1707	1.6975e+02	3.0228	-1.923064	0.000372	3.724712	0.630983	-0.000037
1708	1.6985e+02	3.0090	-1.960540	0.000377	3.765643	0.637917	-0.000038
1709	1.6995e+02	3.0016	-1.996793	0.000364	3.642850	0.617116	-0.000036
1710	1.7005e+02	2.9899	-2.033861	0.000372	3.724712	0.630983	-0.000037
1711	1.7015e+02	2.9792	-2.072966	0.000393	3.929366	0.665653	-0.000039
1712	1.7024e+02	2.9702	-2.107998	0.000352	3.520057	0.596314	-0.000035
1713	1.7034e+02	2.9610	-2.142214	0.000344	3.438196	0.582446	-0.000034
1714	1.7044e+02	2.9527	-2.180097	0.000381	3.806574	0.644851	-0.000038
1715	1.7054e+02	2.9427	-2.217573	0.000377	3.765643	0.637917	-0.000038
1716	1.7064e+02	2.9341	-2.253826	0.000364	3.642850	0.617116	-0.000036
1717	1.7074e+02	2.9213	-2.293339	0.000397	3.970297	0.672587	-0.000040
1718	1.7084e+02	2.9108	-2.332036	0.000389	3.888436	0.658719	-0.000039
1719	1.7094e+02	2.9023	-2.368697	0.000368	3.683781	0.624049	-0.000037
1720	1.7104e+02	2.8917	-2.409431	0.000409	4.093090	0.693388	-0.000041
1721	1.7114e+02	2.8800	-2.450980	0.000417	4.174952	0.707256	-0.000042
1722	1.7124e+02	2.8732	-2.491714	0.000409	4.093090	0.693388	-0.000041
1723	1.7134e+02	2.8626	-2.526746	0.000352	3.520057	0.596314	-0.000035
1724	1.7144e+02	2.8498	-2.569517	0.000430	4.297745	0.728058	-0.000043
1725	1.7154e+02	2.8405	-2.606992	0.000377	3.765643	0.637917	-0.000038
1726	1.7164e+02	2.8320	-2.647319	0.000405	4.052159	0.686454	-0.000041
1727	1.7174e+02	2.8212	-2.684387	0.000372	3.724712	0.630983	-0.000037
1728	1.7184e+02	2.8108	-2.723900	0.000397	3.970297	0.672587	-0.000040
1729	1.7194e+02	2.8028	-2.758931	0.000352	3.520057	0.596314	-0.000035
1730	1.7204e+02	2.7917	-2.796407	0.000377	3.765643	0.637917	-0.000038
1731	1.7213e+02	2.7806	-2.835919	0.000397	3.970297	0.672587	-0.000040
1732	1.7223e+02	2.7724	-2.875024	0.000393	3.929366	0.665653	-0.000039
1733	1.7233e+02	2.7637	-2.909648	0.000348	3.479127	0.589380	-0.000035
1734	1.7243e+02	2.7561	-2.947123	0.000377	3.765643	0.637917	-0.000038
1735	1.7253e+02	2.7422	-2.989894	0.000430	4.297745	0.728058	-0.000043
1736	1.7263e+02	2.7309	-3.030629	0.000409	4.093090	0.693388	-0.000041
1737	1.7273e+02	2.7221	-3.065253	0.000348	3.479127	0.589380	-0.000035
1738	1.7283e+02	2.7126	-3.106394	0.000413	4.134021	0.700322	-0.000041
1739	1.7293e+02	2.7032	-3.142240	0.000360	3.601919	0.610182	-0.000036
1740	1.7303e+02	2.6942	-3.185011	0.000430	4.297745	0.728058	-0.000043
1741	1.7313e+02	2.6827	-3.218413	0.000336	3.356334	0.568578	-0.000034
1742	1.7323e+02	2.6734	-3.259962	0.000417	4.174952	0.707256	-0.000042
1743	1.7333e+02	2.6632	-3.300289	0.000405	4.052159	0.686454	-0.000041
1744	1.7343e+02	2.6532	-3.337358	0.000372	3.724712	0.630983	-0.000037
1745	1.7353e+02	2.6424	-3.379721	0.000426	4.256814	0.721124	-0.000043
1746	1.7363e+02	2.6310	-3.417604	0.000381	3.806574	0.644851	-0.000038
1747	1.7373e+02	2.6214	-3.457524	0.000401	4.011228	0.679520	-0.000040
1748	1.7383e+02	2.6130	-3.504775	0.000475	4.747984	0.804330	-0.000047
1749	1.7393e+02	2.6034	-3.544288	0.000397	3.970297	0.672587	-0.000040
1750	1.7403e+02	2.5933	-3.584207	0.000401	4.011228	0.679520	-0.000040
1751	1.7413e+02	2.5829	-3.628607	0.000446	4.461468	0.755793	-0.000045
1752	1.7422e+02	2.5718	-3.667712	0.000393	3.929366	0.665653	-0.000039
1753	1.7432e+02	2.5649	-3.709669	0.000422	4.215883	0.714190	-0.000042
1754	1.7442e+02	2.5533	-3.753254	0.000438	4.379606	0.741925	-0.000044
1755	1.7452e+02	2.5432	-3.794396	0.000413	4.134021	0.700322	-0.000041
1756	1.7462e+02	2.5306	-3.839611	0.000454	4.543330	0.769661	-0.000045
1757	1.7472e+02	2.5233	-3.881160	0.000417	4.174952	0.707256	-0.000042
1758	1.7482e+02	2.5111	-3.921487	0.000405	4.052159	0.686454	-0.000041
1759	1.7492e+02	2.5027	-3.963850	0.000426	4.256814	0.721124	-0.000043
1760	1.7502e+02	2.4940	-4.009880	0.000463	4.625192	0.783529	-0.000046
1761	1.7512e+02	2.4855	-4.048578	0.000389	3.888436	0.658719	-0.000039
1762	1.7522e+02	2.4700	-4.089312	0.000409	4.093090	0.693388	-0.000041
1763	1.7532e+02	2.4626	-4.139008	0.000499	4.993570	0.845934	-0.000050
1764	1.7542e+02	2.4522	-4.178520	0.000397	3.970297	0.672587	-0.000040
1765	1.7552e+02	2.4415	-4.220069	0.000417	4.174952	0.707256	-0.000042
1766	1.7562e+02	2.4344	-4.261618	0.000417	4.174952	0.707256	-0.000042
1767	1.7572e+02	2.4226	-4.306425	0.000450	4.502399	0.762727	-0.000045
1768	1.7582e+02	2.4145	-4.350826	0.000446	4.461468	0.755793	-0.000045
1769	1.7592e+02	2.4033	-4.391967	0.000413	4.134021	0.700322	-0.000041
1770	1.7602e+02	2.3942	-4.433924	0.000422	4.215883	0.714190	-0.000042
1771	1.7612e+02	2.3863	-4.480768	0.000471	4.707054	0.797396	-0.000047
1772	1.7621e+02	2.3737	-4.522317	0.000417	4.174952	0.707256	-0.000042
1773	1.7631e+02	2.3602	-4.569569	0.000475	4.747984	0.804330	-0.000047
1774	1.7641e+02	2.3544	-4.608266	0.000389	3.888436	0.658719	-0.000039
1775	1.7651e+02	2.3454	-4.656740	0.000487	4.870777	0.825132	-0.000049
1776	1.7661e+02	2.3400	-4.697474	0.000409	4.093090	0.693388	-0.000041
1777	1.7671e+02	2.3244	-4.735765	0.000385	3.847505	0.651785	-0.000038
1778	1.7681e+02	2.3140	-4.782609	0.000471	4.707054	0.797396	-0.000047
1779	1.7691e+02	2.3041	-4.827009	0.000446	4.461468	0.755793	-0.000045
1780	1.7701e+02	2.2938	-4.869373	0.000426	4.256814	0.721124	-0.000043
1781	1.7711e+02	2.2868	-4.911329	0.000422	4.215883	0.714190	-0.000042
1782	1.7721e+02	2.2758	-4.960210	0.000491	4.911708	0.832066	-0.000049
1783	1.7731e+02	2.2622	-5.007055	0.000471	4.707054	0.797396	-0.000047
1784	1.7741e+02	2.2556	-5.050640	0.000438	4.379606	0.741925	-0.000044
1785	1.7751e+02	2.2436	-5.101965	0.000516	5.157293	0.873669	-0.000052
1786	1.7761e+02	2.2346	-5.144329	0.000426	4.256814	0.721124	-0.000043
1787	1.7771e+02	2.2232	-5.193618	0.000495	4.952639	0.839000	-0.000050
1788	1.7781e+02	2.2170	-5.237611	0.000442	4.420537	0.748859	-0.000044
1789	1.7791e+02	2.2073	-5.284455	0.000471	4.707054	0.797396	-0.000047
1790	1.7801e+02	2.1926	-5.331707	0.000475	4.747984	0.804330	-0.000047
1791	1.7810e+02	2.1841	-5.377329	0.000458	4.584261	0.776595	-0.000046
1792	1.7820e+02	2.1752	-5.422544	0.000454	4.543330	0.769661	-0.000045
1793	1.7830e+02	2.1651	-5.468574	0.000463	4.625192	0.783529	-0.000046
1794	1.7840e+02	2.1557	-5.514196	0.000458	4.584261	0.776595	-0.000046
1795	1.7850e+02	2.1465	-5.559411	0.000454	4.543330	0.769661	-0.000045
1796	1.7860e+02	2.1315	-5.605848	0.000467	4.666123	0.790463	-0.000047
1797	1.7870e+02	2.1256	-5.653100	0.000475	4.747984	0.804330	-0.000047
1798	1.7880e+02	2.1158	-5.699537	0.000467	4.666123	0.790463	-0.000047
1799	1.7890e+02	2.1041	-5.746381	0.000471	4.707054	0.797396	-0.000047
1800	1.7900e+02	2.0953	-5.794448	0.000483	4.829846	0.818198	-0.000048
1801	1.7910e+02	2.0851	-5.835997	0.000417	4.174952	0.707256	-0.000042
1802	1.7920e+02	2.0749	-5.886100	0.000503	5.034501	0.852868	-0.000050
1803	1.7930e+02	2.0662	-5.929686	0.000438	4.379606	0.741925	-0.000044
1804	1.7940e+02	2.0547	-5.972049	0.000426	4.256814	0.721124	-0.000043
1805	1.7950e+02	2.0465	-6.019708	0.000479	4.788915	0.811264	-0.000048
1806	1.7960e+02	2.0368	-6.062479	0.000430	4.297745	0.728058	-0.000043
1807	1.7970e+02	2.0229	-6.109324	0.000471	4.707054	0.797396	-0.000047
1808	1.7980e+02	2.0132	-6.148836	0.000397	3.970297	0.672587	-0.000040
1809	1.7990e+02	2.0051	-6.196902	0.000483	4.829846	0.818198	-0.000048
1810	1.8000e+02	1.9939	-6.243339	0.000467	4.666123	0.790463	-0.000047
1811	1.8009e+02	1.9831	-6.287740	0.000446	4.461468	0.755793	-0.000045
1812	1.8019e+02	1.9760	-6.332140	0.000446	4.461468	0.755793	-0.000045
1813	1.8029e+02	1.9656	-6.377762	0.000458	4.584261	0.776595	-0.000046
1814	1.8039e+02	1.9564	-6.427051	0.000495	4.952639	0.839000	-0.000050
1815	1.8049e+02	1.9439	-6.477154	0.000503	5.034501	0.852868	-0.000050
1816	1.8059e+02	1.9382	-6.519925	0.000430	4.297745	0.728058	-0.000043
1817	1.8069e+02	1.9243	-6.565140	0.000454	4.543330	0.769661	-0.000045
1818	1.8079e+02	1.9147	-6.614836	0.000499	4.993570	0.845934	-0.000050
1819	1.8089e+02	1.9068	-6.656792	0.000422	4.215883	0.714190	-0.000042
1820	1.8099e+02	1.8960	-6.703229	0.000467	4.666123	0.790463	-0.000047
1821	1.8109e+02	1.8882	-6.750073	0.000471	4.707054	0.797396	-0.000047
1822	1.8119e+02	1.8765	-6.798547	0.000487	4.870777	0.825132	-0.000049
1823	1.8129e+02	1.8646	-6.842133	0.000438	4.379606	0.741925	-0.000044
1824	1.8139e+02	1.8574	-6.890199	0.000483	4.829846	0.818198	-0.000048
1825	1.8149e+02	1.8459	-6.936636	0.000467	4.666123	0.790463	-0.000047
1826	1.8159e+02	1.8383	-6.984703	0.000483	4.829846	0.818198	-0.000048
1827	1.8169e+02	1.8261	-7.029103	0.000446	4.461468	0.755793	-0.000045
1828	1.8179e+02	1.8179	-7.073911	0.000450	4.502399	0.762727	-0.000045
1829	1.8189e+02	1.8055	-7.122385	0.000487	4.870777	0.825132	-0.000049
1830	1.8199e+02	1.7956	-7.168007	0.000458	4.584261	0.776595	-0.000046
1831	1.8209e+02	1.7886	-7.215259	0.000475	4.747984	0.804330	-0.000047
1832	1.8218e+02	1.7771	-7.258030	0.000430	4.297745	0.728058	-0.000043
1833	1.8228e+02	1.7661	-7.303245	0.000454	4.543330	0.769661	-0.000045
1834	1.8238e+02	1.7580	-7.348867	0.000458	4.584261	0.776595	-0.000046
1835	1.8248e+02	1.7471	-7.396526	0.000479	4.788915	0.811264	-0.000048
1836	1.8258e+02	1.7377	-7.436853	0.000405	4.052159	0.686454	-0.000041
1837	1.8268e+02	1.7279	-7.483290	0.000467	4.666123	0.790463	-0.000047
1838	1.8278e+02	1.7162	-7.526468	0.000434	4.338675	0.734992	-0.000043
1839	1.8288e+02	1.7081	-7.570869	0.000446	4.461468	0.755793	-0.000045
1840	1.8298e+02	1.6961	-7.616084	0.000454	4.543330	0.769661	-0.000045
1841	1.8308e+02	1.6871	-7.660891	0.000450	4.502399	0.762727	-0.000045
1842	1.8318e+02	1.6798	-7.706514	0.000458	4.584261	0.776595	-0.000046
1843	1.8328e+02	1.6660	-7.751729	0.000454	4.543330	0.769661	-0.000045
1844	1.8338e+02	1.6570	-7.794500	0.000430	4.297745	0.728058	-0.000043
1845	1.8348e+02	1.6451	-7.835641	0.000413	4.134021	0.700322	-0.000041
1846	1.8358e+02	1.6364	-7.881671	0.000463	4.625192	0.783529	-0.000046
1847	1.8368e+02	1.6275	-7.927701	0.000463	4.625192	0.783529	-0.000046
1848	1.8378e+02	1.6177	-7.971694	0.000442	4.420537	0.748859	-0.000044
1849	1.8388e+02	1.6077	-8.016909	0.000454	4.543330	0.769661	-0.000045
1850	1.8398e+02	1.5979	-8.062938	0.000463	4.625192	0.783529	-0.000046
1851	1.8407e+02	1.5878	-8.104895	0.000422	4.215883	0.714190	-0.000042
1852	1.8417e+02	1.5779	-8.149702	0.000450	4.502399	0.762727	-0.000045
1853	1.8427e+02	1.5683	-8.194510	0.000450	4.502399	0.762727	-0.000045
1854	1.8437e+02	1.5600	-8.236874	0.000426	4.256814	0.721124	-0.000043
1855	1.8447e+02	1.5473	-8.282903	0.000463	4.625192	0.783529	-0.000046
1856	1.8457e+02	1.5405	-8.328526	0.000458	4.584261	0.776595	-0.000046
1857	1.8467e+02	1.5279	-8.370075	0.000417	4.174952	0.707256	-0.000042
1858	1.8477e+02	1.5177	-8.419363	0.000495	4.952639	0.839000	-0.000050
1859	1.8487e+02	1.5072	-8.462134	0.000430	4.297745	0.728058	-0.000043
1860	1.8497e+02	1.4995	-8.510201	0.000483	4.829846	0.818198	-0.000048
1861	1.8507e+02	1.4892	-8.555008	0.000450	4.502399	0.762727	-0.000045
1862	1.8517e+02	1.4754	-8.597372	0.000426	4.256814	0.721124	-0.000043
1863	1.8527e+02	1.4691	-8.640143	0.000430	4.297745	0.728058	-0.000043
1864	1.8537e+02	1.4578	-8.684543	0.000446	4.461468	0.755793	-0.000045
1865	1.8547e+02	1.4479	-8.729758	0.000454	4.543330	0.769661	-0.000045
1866	1.8557e+02	1.4388	-8.769270	0.000397	3.970297	0.672587	-0.000040
1867	1.8567e+02	1.4283	-8.816522	0.000475	4.747984	0.804330	-0.000047
1868	1.8577e+02	1.4184	-8.860108	0.000438	4.379606	0.741925	-0.000044
1869	1.8587e+02	1.4080	-8.897176	0.000372	3.724712	0.630983	-0.000037
1870	1.8597e+02	1.3997	-8.944428	0.000475	4.747984	0.804330	-0.000047
1871	1.8606e+02	1.3902	-8.987199	0.000430	4.297745	0.728058	-0.000043
1872	1.8616e+02	1.3763	-9.031192	0.000442	4.420537	0.748859	-0.000044
1873	1.8626e+02	1.3696	-9.073148	0.000422	4.215883	0.714190	-0.000042
1874	1.8636e+02	1.3605	-9.116734	0.000438	4.379606	0.741925	-0.000044
1875	1.8646e+02	1.3519	-9.158283	0.000417	4.174952	0.707256	-0.000042
1876	1.8656e+02	1.3406	-9.207164	0.000491	4.911708	0.832066	-0.000049
1877	1.8666e+02	1.3277	-9.247491	0.000405	4.052159	0.686454	-0.000041
1878	1.8676e+02	1.3177	-9.293520	0.000463	4.625192	0.783529	-0.000046
1879	1.8686e+02	1.3087	-9.336291	0.000430	4.297745	0.728058	-0.000043
1880	1.8696e+02	1.2997	-9.377433	0.000413	4.134021	0.700322	-0.000041
1881	1.8706e+02	1.2879	-9.422241	0.000450	4.502399	0.762727	-0.000045
1882	1.8716e+02	1.2778	-9.464197	0.000422	4.215883	0.714190	-0.000042
1883	1.8726e+02	1.2684	-9.508190	0.000442	4.420537	0.748859	-0.000044
1884	1.8736e+02	1.2582	-9.551775	0.000438	4.379606	0.741925	-0.000044
1885	1.8746e+02	1.2511	-9.595768	0.000442	4.420537	0.748859	-0.000044
1886	1.8756e+02	1.2373	-9.638132	0.000426	4.256814	0.721124	-0.000043
1887	1.8766e+02	1.2319	-9.685384	0.000475	4.747984	0.804330	-0.000047
1888	1.8776e+02	1.2191	-9.734672	0.000495	4.952639	0.839000	-0.000050
1889	1.8786e+02	1.2110	-9.777851	0.000434	4.338675	0.734992	-0.000043
1890	1.8796e+02	1.2003	-9.823880	0.000463	4.625192	0.783529	-0.000046
1891	1.8806e+02	1.1907	-9.870317	0.000467	4.666123	0.790463	-0.000047
1892	1.8815e+02	1.1784	-9.914310	0.000442	4.420537	0.748859	-0.000044
1893	1.8825e+02	1.1694	-9.959525	0.000454	4.543330	0.769661	-0.000045
1894	1.8835e+02	1.1601	-10.001889	0.000426	4.256814	0.721124	-0.000043
1895	1.8845e+02	1.1492	-10.049548	0.000479	4.788915	0.811264	-0.000048
1896	1.8855e+02	1.1408	-10.095578	0.000463	4.625192	0.783529	-0.000046
1897	1.8865e+02	1.1297	-10.137534	0.000422	4.215883	0.714190	-0.000042
1898	1.8875e+02	1.1201	-10.186415	0.000491	4.911708	0.832066	-0.000049
1899	1.8885e+02	1.1112	-10.230001	0.000438	4.379606	0.741925	-0.000044
1900	1.8895e+02	1.1021	-10.272364	0.000426	4.256814	0.721124	-0.000043
1901	1.8905e+02	1.0907	-10.318802	0.000467	4.666123	0.790463	-0.000047
1902	1.8915e+02	1.0799	-10.359128	0.000405	4.052159	0.686454	-0.000041
1903	1.8925e+02	1.0728	-10.405565	0.000467	4.666123	0.790463	-0.000047
1904	1.8935e+02	1.0618	-10.454854	0.000495	4.952639	0.839000	-0.000050
1905	1.8945e+02	1.0498	-10.502106	0.000475	4.747984	0.804330	-0.000047
1906	1.8955e+02	1.0413	-10.545691	0.000438	4.379606	0.741925	-0.000044
1907	1.8965e+02	1.0317	-10.588055	0.000426	4.256814	0.721124	-0.000043
1908	1.8975e+02	1.0211	-10.632455	0.000446	4.461468	0.755793	-0.000045
1909	1.8985e+02	1.0092	-10.683373	0.000512	5.116363	0.866735	-0.000051
1910	1.8995e+02	0.9984	-10.728181	0.000450	4.502399	0.762727	-0.000045
1911	1.9004e+02	0.9882	-10.772581	0.000446	4.461468	0.755793	-0.000045
1912	1.9014e+02	0.9808	-10.818203	0.000458	4.584261	0.776595	-0.000046
1913	1.9024e+02	0.9720	-10.865455	0.000475	4.747984	0.804330	-0.000047
1914	1.9034e+02	0.9620	-10.912707	0.000475	4.747984	0.804330	-0.000047
1915	1.9044e+02	0.9509	-10.957922	0.000454	4.543330	0.769661	-0.000045
1916	1.9054e+02	0.9409	-11.008025	0.000503	5.034501	0.852868	-0.000050
1917	1.9064e+02	0.9279	-11.053647	0.000458	4.584261	0.776595	-0.000046
1918	1.9074e+02	0.9182	-11.102121	0.000487	4.870777	0.825132	-0.000049
1919	1.9084e+02	0.9122	-11.151410	0.000495	4.952639	0.839000	-0.000050
1920	1.9094e+02	0.9031	-11.200291	0.000491	4.911708	0.832066	-0.000049
1921	1.9104e+02	0.8924	-11.250394	0.000503	5.034501	0.852868	-0.000050
1922	1.9114e+02	0.8807	-11.293165	0.000430	4.297745	0.728058	-0.000043
1923	1.9124e+02	0.8717	-11.348563	0.000557	5.566602	0.943008	-0.000056
1924	1.9134e+02	0.8613	-11.395408	0.000471	4.707054	0.797396	-0.000047
1925	1.9144e+02	0.8498	-11.449177	0.000540	5.402879	0.915272	-0.000054
1926	1.9154e+02	0.8395	-11.492763	0.000438	4.379606	0.741925	-0.000044
1927	1.9164e+02	0.8311	-11.546125	0.000536	5.361948	0.908339	-0.000054
1928	1.9174e+02	0.8221	-11.593376	0.000475	4.747984	0.804330	-0.000047
1929	1.9184e+02	0.8116	-11.643479	0.000503	5.034501	0.852868	-0.000050
1930	1.9194e+02	0.8005	-11.691953	0.000487	4.870777	0.825132	-0.000049
1931	1.9203e+02	0.7900	-11.742056	0.000503	5.034501	0.852868	-0.000050
1932	1.9213e+02	0.7835	-11.790530	0.000487	4.870777	0.825132	-0.000049
1933	1.9223e+02	0.7746	-11.839819	0.000495	4.952639	0.839000	-0.000050
1934	1.9233e+02	0.7604	-11.888700	0.000491	4.911708	0.832066	-0.000049
1935	1.9243e+02	0.7517	-11.939618	0.000512	5.116363	0.866735	-0.000051
1936	1.9253e+02	0.7433	-11.987684	0.000483	4.829846	0.818198	-0.000048
1937	1.9263e+02	0.7331	-12.038602	0.000512	5.116363	0.866735	-0.000051
1938	1.9273e+02	0.7208	-12.090334	0.000520	5.198224	0.880603	-0.000052
1939	1.9283e+02	0.7140	-12.137179	0.000471	4.707054	0.797396	-0.000047
1940	1.9293e+02	0.7034	-12.188096	0.000512	5.116363	0.866735	-0.000051
1941	1.9303e+02	0.6907	-12.236163	0.000483	4.829846	0.818198	-0.000048
1942	1.9313e+02	0.6835	-12.293191	0.000573	5.730326	0.970744	-0.000057
1943	1.9323e+02	0.6718	-12.338813	0.000458	4.584261	0.776595	-0.000046
1944	1.9333e+02	0.6596	-12.388916	0.000503	5.034501	0.852868	-0.000050
1945	1.9343e+02	0.6535	-12.437797	0.000491	4.911708	0.832066	-0.000049
1946	1.9353e+02	0.6415	-12.485049	0.000475	4.747984	0.804330	-0.000047
1947	1.9363e+02	0.6310	-12.535967	0.000512	5.116363	0.866735	-0.000051
1948	1.9373e+02	0.6227	-12.586885	0.000512	5.116363	0.866735	-0.000051
1949	1.9383e+02	0.6123	-12.639432	0.000528	5.280086	0.894471	-0.000053
1950	1.9393e+02	0.6033	-12.690757	0.000516	5.157293	0.873669	-0.000052
1951	1.9403e+02	0.5924	-12.743304	0.000528	5.280086	0.894471	-0.000053
1952	1.9412e+02	0.5839	-12.800740	0.000577	5.771257	0.977677	-0.000058
1953	1.9422e+02	0.5728	-12.847584	0.000471	4.707054	0.797396	-0.000047
1954	1.9432e+02	0.5615	-12.902168	0.000548	5.484741	0.929140	-0.000055
1955	1.9442e+02	0.5530	-12.956345	0.000544	5.443810	0.922206	-0.000054
1956	1.9452e+02	0.5449	-13.007670	0.000516	5.157293	0.873669	-0.000052
1957	1.9462e+02	0.5329	-13.063883	0.000565	5.648464	0.956876	-0.000056
1958	1.9472e+02	0.5232	-13.115208	0.000516	5.157293	0.873669	-0.000052
1959	1.9482e+02	0.5138	-13.167348	0.000524	5.239155	0.887537	-0.000052
1960	1.9492e+02	0.5045	-13.219895	0.000528	5.280086	0.894471	-0.000053
1961	1.9502e+02	0.4935	-13.268776	0.000491	4.911708	0.832066	-0.000049
1962	1.9512e+02	0.4824	-13.322545	0.000540	5.402879	0.915272	-0.000054
1963	1.9522e+02	0.4744	-13.376315	0.000540	5.402879	0.915272	-0.000054
1964	1.9532e+02	0.4638	-13.429677	0.000536	5.361948	0.908339	-0.000054
1965	1.9542e+02	0.4537	-13.483446	0.000540	5.402879	0.915272	-0.000054
1966	1.9552e+02	0.4454	-13.536808	0.000536	5.361948	0.908339	-0.000054
1967	1.9562e+02	0.4346	-13.592206	0.000557	5.566602	0.943008	-0.000056
1968	1.9572e+02	0.4238	-13.645975	0.000540	5.402879	0.915272	-0.000054
1969	1.9582e+02	0.4147	-13.695671	0.000499	4.993570	0.845934	-0.000050
1970	1.9592e+02	0.4048	-13.745367	0.000499	4.993570	0.845934	-0.000050
1971	1.9601e+02	0.3909	-13.799136	0.000540	5.402879	0.915272	-0.000054
1972	1.9611e+02	0.3840	-13.845981	0.000471	4.707054	0.797396	-0.000047
1973	1.9621e+02	0.3735	-13.901379	0.000557	5.566602	0.943008	-0.000056
1974	1.9631e+02	0.3635	-13.949446	0.000483	4.829846	0.818198	-0.000048
1975	1.9641e+02	0.3540	-14.000363	0.000512	5.116363	0.866735	-0.000051
1976	1.9651e+02	0.3471	-14.050467	0.000503	5.034501	0.852868	-0.000050
1977	1.9661e+02	0.3342	-14.102606	0.000524	5.239155	0.887537	-0.000052
1978	1.9671e+02	0.3215	-14.153117	0.000508	5.075432	0.859801	-0.000051
1979	1.9681e+02	0.3128	-14.206071	0.000532	5.321017	0.901405	-0.000053
1980	1.9691e+02	0.3043	-14.260248	0.000544	5.443810	0.922206	-0.000054
1981	1.9701e+02	0.2946	-14.309944	0.000499	4.993570	0.845934	-0.000050
1982	1.9711e+02	0.2841	-14.367379	0.000577	5.771257	0.977677	-0.000058
1983	1.9721e+02	0.2753	-14.421556	0.000544	5.443810	0.922206	-0.000054
1984	1.9731e+02	0.2636	-14.473696	0.000524	5.239155	0.887537	-0.000052
1985	1.9741e+02	0.2543	-14.525021	0.000516	5.157293	0.873669	-0.000052
1986	1.9751e+02	0.2431	-14.576346	0.000516	5.157293	0.873669	-0.000052
1987	1.9761e+02	0.2341	-14.626856	0.000508	5.075432	0.859801	-0.000051
1988	1.9771e+02	0.2251	-14.684699	0.000581	5.812188	0.984611	-0.000058
1989	1.9781e+02	0.2164	-14.736839	0.000524	5.239155	0.887537	-0.000052
1990	1.9791e+02	0.2037	-14.790608	0.000540	5.402879	0.915272	-0.000054
1991	1.9800e+02	0.1956	-14.837045	0.000467	4.666123	0.790463	-0.000047
1992	1.9810e+02	0.1837	-14.894888	0.000581	5.812188	0.984611	-0.000058
1993	1.9820e+02	0.1740	-14.949064	0.000544	5.443810	0.922206	-0.000054
1994	1.9830e+02	0.1668	-15.000389	0.000516	5.157293	0.873669	-0.000052
1995	1.9840e+02	0.1563	-15.054973	0.000548	5.484741	0.929140	-0.000055
1996	1.9850e+02	0.1434	-15.107521	0.000528	5.280086	0.894471	-0.000053
1997	1.9860e+02	0.1377	-15.159253	0.000520	5.198224	0.880603	-0.000052
1998	1.9870e+02	0.1244	-15.212208	0.000532	5.321017	0.901405	-0.000053
1999	1.9880e+02	0.1186	-15.263940	0.000520	5.198224	0.880603	-0.000052
2000	1.9890e+02	0.1060	-15.316080	0.000524	5.239155	0.887537	-0.000052
2001	1.9900e+02	0.0925	-15.363332	0.000475	4.747984	0.804330	-0.000047
2002	1.9910e+02	0.0867	-15.415472	0.000524	5.239155	0.887537	-0.000052
2003	1.9920e+02	0.0752	-15.470055	0.000548	5.484741	0.929140	-0.000055
2004	1.9930e+02	0.0656	-15.519344	0.000495	4.952639	0.839000	-0.000050
2005	1.9940e+02	0.0546	-15.566596	0.000475	4.747984	0.804330	-0.000047
2006	1.9950e+02	0.0468	-15.621180	0.000548	5.484741	0.929140	-0.000055
2007	1.9960e+02	0.0357	-15.668839	0.000479	4.788915	0.811264	-0.000048
2008	1.9970e+02	0.0269	-15.718534	0.000499	4.993570	0.845934	-0.000050
2009	1.9980e+02	0.0162	-15.773118	0.000548	5.484741	0.929140	-0.000055
2010	1.9990e+02	0.0063	-15.821999	0.000491	4.911708	0.832066	-0.000049
2011	2.0000e+02	-0.0037	-15.874547	0.000491	4.911708	0.832066	-0.000053

PMax (uC/cm2):	3.73e+01
Pr (uC/cm2):	2.80e+00
-Pr (uC/cm2):	0.00e+00
PLoss (uC/cm2):	0.00e+00
C (Max-Eff) (nF):	3.74e-01
K (Eff):	6.33e+02
Vert. (+/-Pr) Shift (uC/cm2):	1.40e+00
Offset (uC/cm2):	1.87e+01

A (Loop Area - uC/cm2·Volts):	-2.76e-02



Hysteresis Version: 5.48.1 - Radiant Technologies, Inc., 1999 - 9/12/24

