»»»»»»»»»»»»»»»»»»»»»»»»»»»»»»»»»»»» Hysteresis ««««««««««««««««««««««««««««««««««««
»»»  Executed Version:	5.48.1
»»»  Vision Version:	5.48.4 (R)
»»»  Vision Compiled:	9/18/24
»»»  Driver Version:	5.47.0
»»»  Windows Version:	Windows 8 or 8.1
»»»  Processor Information:	x86 (AMD or Intel) - 32 Processors
»»»  Tester Name:	PMF21124-494 (100V)
»»»  Tester S/N:	PMF21124-494
»»»  Internal Amp Type:	100V RevK 270k
»»»  Internal Amp S/N:	iAB2-596/K     
»»»  Execution Count:	1
»»»»»»»»»»»»»»»»»»»»»»»»»»»»»»»»»»»»»»»»»»««««««««««««««««««««««««««««««««««««««««««

Stored:	6/30/2025 - 12:19:11
Configured:	06/30/25 10:19:58 AM
Executed:	06/30/25 12:18:30 PM

»»»»»»»»»»»»»»»»»»»»»»»»»»»»»»»»»»» Sample Info ««««««««««««««««««««««««««««««««««««
Sample Name:	
Lot Name:	
Wafer Name:	
Die Row/Column:	0/0
Capacitor Number:	0
Sample Area (cm2):	1.00e-04
Sample Thickness (microns):	1.50e-01

Amplifier:	Internal

»»»»»»»»»»»»»»»»»»»»»»»»»»»»»»»»»»» Tester Info «««««««««««««««««««««««««««««««««««
Tester Name:	PMF21124-494 (100V)
Tester Serial Number:	PMF21124-494
Return Signal Amp. Level:	1.9 [Index: 2]

»»»»»»»»»»»»»»»»»»»»»»»»»»»»»»»» Hysteresis Info ««««««««««««««««««««««««««««««««««
Task Name:	Hyst-1804
Volts:	10.00
Field:	666.67 (kV/cm)
DCBias:	0.00
DCField:	0.00 (kV/cm)
Hysteresis Period (ms):	2.00e+02
Preset:	Enabled
Preset Delay (ms):	1.00e+03
Profile:	Standard Monopolar

»»»»»»»»»»»»»»»»»»»»»»»»»»»»»»»»»»»»»» Data «««««««««««««««««««««««««««««««««««««««
Points:	2011

Valid Data

Point	Time (ms)	Drive Voltage	Measured Polarization (uC/cm2)	Capacitance (uF)	Normalized Capacitance (uF/cm2)	Dielectric Constant	Instantaneous Current (mA)
   1	0.0000e+00	-0.0036	-20.445745	0.000454	4.544353	0.769834	0.000045
   2	9.9500e-02	0.0052	-20.400530	0.000454	4.544353	0.769834	0.000045
   3	1.9900e-01	0.0158	-20.354500	0.000463	4.626233	0.783705	0.000046
   4	2.9850e-01	0.0219	-20.305619	0.000491	4.912814	0.832253	0.000049
   5	3.9800e-01	0.0364	-20.260811	0.000450	4.503412	0.762899	0.000045
   6	4.9750e-01	0.0439	-20.210708	0.000504	5.035634	0.853059	0.000050
   7	5.9700e-01	0.0527	-20.162642	0.000483	4.830933	0.818382	0.000048
   8	6.9650e-01	0.0636	-20.117019	0.000459	4.585293	0.776770	0.000046
   9	7.9600e-01	0.0742	-20.071804	0.000454	4.544353	0.769834	0.000045
  10	8.9550e-01	0.0839	-20.022923	0.000491	4.912814	0.832253	0.000049
  11	9.9500e-01	0.0980	-19.972820	0.000504	5.035634	0.853059	0.000050
  12	1.0945e+00	0.1070	-19.925976	0.000471	4.708113	0.797576	0.000047
  13	1.1940e+00	0.1160	-19.878317	0.000479	4.789993	0.811447	0.000048
  14	1.2935e+00	0.1267	-19.829028	0.000495	4.953754	0.839189	0.000050
  15	1.3930e+00	0.1352	-19.779740	0.000495	4.953754	0.839189	0.000050
  16	1.4925e+00	0.1453	-19.735339	0.000446	4.462472	0.755963	0.000045
  17	1.5920e+00	0.1554	-19.679941	0.000557	5.567855	0.943220	0.000056
  18	1.6915e+00	0.1685	-19.631467	0.000487	4.871873	0.825318	0.000049
  19	1.7910e+00	0.1767	-19.585845	0.000459	4.585293	0.776770	0.000046
  20	1.8905e+00	0.1858	-19.537371	0.000487	4.871873	0.825318	0.000049
  21	1.9900e+00	0.1971	-19.484824	0.000528	5.281275	0.894672	0.000053
  22	2.0895e+00	0.2067	-19.439201	0.000459	4.585293	0.776770	0.000046
  23	2.1890e+00	0.2142	-19.391542	0.000479	4.789993	0.811447	0.000048
  24	2.2885e+00	0.2275	-19.341032	0.000508	5.076574	0.859995	0.000051
  25	2.3880e+00	0.2343	-19.286855	0.000545	5.445035	0.922414	0.000054
  26	2.4875e+00	0.2444	-19.241640	0.000454	4.544353	0.769834	0.000045
  27	2.5870e+00	0.2540	-19.194796	0.000471	4.708113	0.797576	0.000047
  28	2.6865e+00	0.2645	-19.140619	0.000545	5.445035	0.922414	0.000054
  29	2.7860e+00	0.2734	-19.097033	0.000438	4.380592	0.742092	0.000044
  30	2.8855e+00	0.2817	-19.043264	0.000540	5.404095	0.915478	0.000054
  31	2.9850e+00	0.2930	-18.994383	0.000491	4.912814	0.832253	0.000049
  32	3.0845e+00	0.3062	-18.945909	0.000487	4.871873	0.825318	0.000049
  33	3.1840e+00	0.3142	-18.894177	0.000520	5.199394	0.880801	0.000052
  34	3.2835e+00	0.3257	-18.842852	0.000516	5.158454	0.873866	0.000052
  35	3.3830e+00	0.3347	-18.793563	0.000495	4.953754	0.839189	0.000050
  36	3.4825e+00	0.3445	-18.747941	0.000459	4.585293	0.776770	0.000046
  37	3.5820e+00	0.3540	-18.696208	0.000520	5.199394	0.880801	0.000052
  38	3.6815e+00	0.3673	-18.648142	0.000483	4.830933	0.818382	0.000048
  39	3.7810e+00	0.3735	-18.602112	0.000463	4.626233	0.783705	0.000046
  40	3.8805e+00	0.3825	-18.552824	0.000495	4.953754	0.839189	0.000050
  41	3.9800e+00	0.3919	-18.498647	0.000545	5.445035	0.922414	0.000054
  42	4.0795e+00	0.4052	-18.449766	0.000491	4.912814	0.832253	0.000049
  43	4.1790e+00	0.4141	-18.401292	0.000487	4.871873	0.825318	0.000049
  44	4.2785e+00	0.4213	-18.352004	0.000495	4.953754	0.839189	0.000050
  45	4.3780e+00	0.4343	-18.302308	0.000499	4.994694	0.846124	0.000050
  46	4.4775e+00	0.4408	-18.249761	0.000528	5.281275	0.894672	0.000053
  47	4.5770e+00	0.4550	-18.202509	0.000475	4.749053	0.804511	0.000047
  48	4.6765e+00	0.4603	-18.151591	0.000512	5.117514	0.866930	0.000051
  49	4.7760e+00	0.4699	-18.098637	0.000532	5.322215	0.901608	0.000053
  50	4.8755e+00	0.4827	-18.047719	0.000512	5.117514	0.866930	0.000051
  51	4.9750e+00	0.4927	-17.995987	0.000520	5.199394	0.880801	0.000052
  52	5.0745e+00	0.5024	-17.949142	0.000471	4.708113	0.797576	0.000047
  53	5.1740e+00	0.5109	-17.893336	0.000561	5.608795	0.950156	0.000056
  54	5.2735e+00	0.5241	-17.844048	0.000495	4.953754	0.839189	0.000050
  55	5.3730e+00	0.5328	-17.790686	0.000536	5.363155	0.908543	0.000054
  56	5.4725e+00	0.5410	-17.737324	0.000536	5.363155	0.908543	0.000054
  57	5.5720e+00	0.5547	-17.684777	0.000528	5.281275	0.894672	0.000053
  58	5.6715e+00	0.5636	-17.633859	0.000512	5.117514	0.866930	0.000051
  59	5.7710e+00	0.5739	-17.579275	0.000549	5.485975	0.929349	0.000055
  60	5.8705e+00	0.5845	-17.527950	0.000516	5.158454	0.873866	0.000052
  61	5.9700e+00	0.5917	-17.473773	0.000545	5.445035	0.922414	0.000054
  62	6.0695e+00	0.6048	-17.425300	0.000487	4.871873	0.825318	0.000049
  63	6.1690e+00	0.6137	-17.371530	0.000540	5.404095	0.915478	0.000054
  64	6.2685e+00	0.6249	-17.319391	0.000524	5.240334	0.887737	0.000052
  65	6.3680e+00	0.6306	-17.267658	0.000520	5.199394	0.880801	0.000052
  66	6.4675e+00	0.6422	-17.213074	0.000549	5.485975	0.929349	0.000055
  67	6.5670e+00	0.6525	-17.165822	0.000475	4.749053	0.804511	0.000047
  68	6.6665e+00	0.6642	-17.107980	0.000581	5.813496	0.984833	0.000058
  69	6.7660e+00	0.6726	-17.060728	0.000475	4.749053	0.804511	0.000047
  70	6.8655e+00	0.6840	-17.010218	0.000508	5.076574	0.859995	0.000051
  71	6.9650e+00	0.6957	-16.957263	0.000532	5.322215	0.901608	0.000053
  72	7.0645e+00	0.7024	-16.908789	0.000487	4.871873	0.825318	0.000049
  73	7.1640e+00	0.7117	-16.853798	0.000553	5.526915	0.936285	0.000055
  74	7.2635e+00	0.7229	-16.809398	0.000446	4.462472	0.755963	0.000045
  75	7.3630e+00	0.7346	-16.757665	0.000520	5.199394	0.880801	0.000052
  76	7.4625e+00	0.7425	-16.710006	0.000479	4.789993	0.811447	0.000048
  77	7.5620e+00	0.7529	-16.663162	0.000471	4.708113	0.797576	0.000047
  78	7.6615e+00	0.7626	-16.615095	0.000483	4.830933	0.818382	0.000048
  79	7.7610e+00	0.7731	-16.563363	0.000520	5.199394	0.880801	0.000052
  80	7.8605e+00	0.7825	-16.516518	0.000471	4.708113	0.797576	0.000047
  81	7.9600e+00	0.7941	-16.466823	0.000499	4.994694	0.846124	0.000050
  82	8.0595e+00	0.8016	-16.421200	0.000459	4.585293	0.776770	0.000046
  83	8.1590e+00	0.8125	-16.371097	0.000504	5.035634	0.853059	0.000050
  84	8.2585e+00	0.8209	-16.321401	0.000499	4.994694	0.846124	0.000050
  85	8.3580e+00	0.8311	-16.276594	0.000450	4.503412	0.762899	0.000045
  86	8.4575e+00	0.8401	-16.227713	0.000491	4.912814	0.832253	0.000049
  87	8.5570e+00	0.8527	-16.178017	0.000499	4.994694	0.846124	0.000050
  88	8.6565e+00	0.8619	-16.129950	0.000483	4.830933	0.818382	0.000048
  89	8.7560e+00	0.8739	-16.082699	0.000475	4.749053	0.804511	0.000047
  90	8.8555e+00	0.8838	-16.036669	0.000463	4.626233	0.783705	0.000046
  91	8.9550e+00	0.8909	-15.985751	0.000512	5.117514	0.866930	0.000051
  92	9.0545e+00	0.8984	-15.937685	0.000483	4.830933	0.818382	0.000048
  93	9.1540e+00	0.9128	-15.892062	0.000459	4.585293	0.776770	0.000046
  94	9.2535e+00	0.9212	-15.838700	0.000536	5.363155	0.908543	0.000054
  95	9.3530e+00	0.9307	-15.799188	0.000397	3.971191	0.672738	0.000040
  96	9.4525e+00	0.9406	-15.750714	0.000487	4.871873	0.825318	0.000049
  97	9.5520e+00	0.9506	-15.702241	0.000487	4.871873	0.825318	0.000049
  98	9.6515e+00	0.9624	-15.654989	0.000475	4.749053	0.804511	0.000047
  99	9.7510e+00	0.9725	-15.609774	0.000454	4.544353	0.769834	0.000045
 100	9.8505e+00	0.9810	-15.563744	0.000463	4.626233	0.783705	0.000046
 101	9.9500e+00	0.9908	-15.516492	0.000475	4.749053	0.804511	0.000047
 102	1.0050e+01	1.0013	-15.472499	0.000442	4.421532	0.749028	0.000044
 103	1.0149e+01	1.0081	-15.421174	0.000516	5.158454	0.873866	0.000052
 104	1.0248e+01	1.0210	-15.372293	0.000491	4.912814	0.832253	0.000049
 105	1.0348e+01	1.0310	-15.329115	0.000434	4.339652	0.735157	0.000043
 106	1.0447e+01	1.0383	-15.279826	0.000495	4.953754	0.839189	0.000050
 107	1.0547e+01	1.0500	-15.233797	0.000463	4.626233	0.783705	0.000046
 108	1.0646e+01	1.0616	-15.187360	0.000467	4.667173	0.790640	0.000047
 109	1.0746e+01	1.0709	-15.143774	0.000438	4.380592	0.742092	0.000044
 110	1.0845e+01	1.0805	-15.096930	0.000471	4.708113	0.797576	0.000047
 111	1.0945e+01	1.0895	-15.050900	0.000463	4.626233	0.783705	0.000046
 112	1.1044e+01	1.0992	-15.006500	0.000446	4.462472	0.755963	0.000045
 113	1.1144e+01	1.1114	-14.956396	0.000504	5.035634	0.853059	0.000050
 114	1.1243e+01	1.1207	-14.907515	0.000491	4.912814	0.832253	0.000049
 115	1.1343e+01	1.1295	-14.863522	0.000442	4.421532	0.749028	0.000044
 116	1.1443e+01	1.1411	-14.818307	0.000454	4.544353	0.769834	0.000045
 117	1.1542e+01	1.1496	-14.774314	0.000442	4.421532	0.749028	0.000044
 118	1.1642e+01	1.1617	-14.725026	0.000495	4.953754	0.839189	0.000050
 119	1.1741e+01	1.1692	-14.682662	0.000426	4.257772	0.721286	0.000043
 120	1.1841e+01	1.1801	-14.632966	0.000499	4.994694	0.846124	0.000050
 121	1.1940e+01	1.1900	-14.586122	0.000471	4.708113	0.797576	0.000047
 122	1.2040e+01	1.2003	-14.542536	0.000438	4.380592	0.742092	0.000044
 123	1.2139e+01	1.2094	-14.495692	0.000471	4.708113	0.797576	0.000047
 124	1.2239e+01	1.2192	-14.446811	0.000491	4.912814	0.832253	0.000049
 125	1.2338e+01	1.2296	-14.402411	0.000446	4.462472	0.755963	0.000045
 126	1.2438e+01	1.2393	-14.355159	0.000475	4.749053	0.804511	0.000047
 127	1.2537e+01	1.2490	-14.310759	0.000446	4.462472	0.755963	0.000045
 128	1.2636e+01	1.2591	-14.266766	0.000442	4.421532	0.749028	0.000044
 129	1.2736e+01	1.2682	-14.221143	0.000459	4.585293	0.776770	0.000046
 130	1.2835e+01	1.2793	-14.177558	0.000438	4.380592	0.742092	0.000044
 131	1.2935e+01	1.2901	-14.131528	0.000463	4.626233	0.783705	0.000046
 132	1.3034e+01	1.2981	-14.089164	0.000426	4.257772	0.721286	0.000043
 133	1.3134e+01	1.3100	-14.044356	0.000450	4.503412	0.762899	0.000045
 134	1.3233e+01	1.3189	-13.997512	0.000471	4.708113	0.797576	0.000047
 135	1.3333e+01	1.3255	-13.950260	0.000475	4.749053	0.804511	0.000047
 136	1.3432e+01	1.3378	-13.911563	0.000389	3.889311	0.658867	0.000039
 137	1.3532e+01	1.3474	-13.864718	0.000471	4.708113	0.797576	0.000047
 138	1.3632e+01	1.3599	-13.823577	0.000413	4.134951	0.700480	0.000041
 139	1.3731e+01	1.3674	-13.779176	0.000446	4.462472	0.755963	0.000045
 140	1.3831e+01	1.3784	-13.733147	0.000463	4.626233	0.783705	0.000046
 141	1.3930e+01	1.3903	-13.689561	0.000438	4.380592	0.742092	0.000044
 142	1.4030e+01	1.3960	-13.651678	0.000381	3.807430	0.644996	0.000038
 143	1.4129e+01	1.4108	-13.608907	0.000430	4.298712	0.728222	0.000043
 144	1.4229e+01	1.4173	-13.564914	0.000442	4.421532	0.749028	0.000044
 145	1.4328e+01	1.4294	-13.520921	0.000442	4.421532	0.749028	0.000044
 146	1.4428e+01	1.4364	-13.479372	0.000418	4.175892	0.707415	0.000042
 147	1.4527e+01	1.4505	-13.438231	0.000413	4.134951	0.700480	0.000041
 148	1.4627e+01	1.4565	-13.388128	0.000504	5.035634	0.853059	0.000050
 149	1.4726e+01	1.4662	-13.351059	0.000373	3.725550	0.631125	0.000037
 150	1.4825e+01	1.4762	-13.303400	0.000479	4.789993	0.811447	0.000048
 151	1.4925e+01	1.4902	-13.263481	0.000401	4.012131	0.679673	0.000040
 152	1.5024e+01	1.4980	-13.219895	0.000438	4.380592	0.742092	0.000044
 153	1.5124e+01	1.5075	-13.178346	0.000418	4.175892	0.707415	0.000042
 154	1.5223e+01	1.5185	-13.132724	0.000459	4.585293	0.776770	0.000046
 155	1.5323e+01	1.5288	-13.083843	0.000491	4.912814	0.832253	0.000049
 156	1.5422e+01	1.5385	-13.038220	0.000459	4.585293	0.776770	0.000046
 157	1.5522e+01	1.5475	-12.995449	0.000430	4.298712	0.728222	0.000043
 158	1.5621e+01	1.5580	-12.942902	0.000528	5.281275	0.894672	0.000053
 159	1.5721e+01	1.5680	-12.905019	0.000381	3.807430	0.644996	0.000038
 160	1.5820e+01	1.5757	-12.861841	0.000434	4.339652	0.735157	0.000043
 161	1.5920e+01	1.5881	-12.813775	0.000483	4.830933	0.818382	0.000048
 162	1.6020e+01	1.5969	-12.763264	0.000508	5.076574	0.859995	0.000051
 163	1.6119e+01	1.6072	-12.721308	0.000422	4.216832	0.714351	0.000042
 164	1.6218e+01	1.6184	-12.675278	0.000463	4.626233	0.783705	0.000046
 165	1.6318e+01	1.6283	-12.626804	0.000487	4.871873	0.825318	0.000049
 166	1.6418e+01	1.6360	-12.578738	0.000483	4.830933	0.818382	0.000048
 167	1.6517e+01	1.6439	-12.531486	0.000475	4.749053	0.804511	0.000047
 168	1.6616e+01	1.6570	-12.484642	0.000471	4.708113	0.797576	0.000047
 169	1.6716e+01	1.6653	-12.438612	0.000463	4.626233	0.783705	0.000046
 170	1.6816e+01	1.6775	-12.389324	0.000495	4.953754	0.839189	0.000050
 171	1.6915e+01	1.6869	-12.347367	0.000422	4.216832	0.714351	0.000042
 172	1.7015e+01	1.6977	-12.300116	0.000475	4.749053	0.804511	0.000047
 173	1.7114e+01	1.7085	-12.250827	0.000495	4.953754	0.839189	0.000050
 174	1.7213e+01	1.7153	-12.205612	0.000454	4.544353	0.769834	0.000045
 175	1.7313e+01	1.7299	-12.157953	0.000479	4.789993	0.811447	0.000048
 176	1.7413e+01	1.7354	-12.107035	0.000512	5.117514	0.866930	0.000051
 177	1.7512e+01	1.7459	-12.063857	0.000434	4.339652	0.735157	0.000043
 178	1.7611e+01	1.7572	-12.014569	0.000495	4.953754	0.839189	0.000050
 179	1.7711e+01	1.7672	-11.970983	0.000438	4.380592	0.742092	0.000044
 180	1.7811e+01	1.7776	-11.922509	0.000487	4.871873	0.825318	0.000049
 181	1.7910e+01	1.7866	-11.873628	0.000491	4.912814	0.832253	0.000049
 182	1.8009e+01	1.7946	-11.830450	0.000434	4.339652	0.735157	0.000043
 183	1.8109e+01	1.8061	-11.780754	0.000499	4.994694	0.846124	0.000050
 184	1.8209e+01	1.8158	-11.735946	0.000450	4.503412	0.762899	0.000045
 185	1.8308e+01	1.8250	-11.684621	0.000516	5.158454	0.873866	0.000052
 186	1.8407e+01	1.8340	-11.639813	0.000450	4.503412	0.762899	0.000045
 187	1.8507e+01	1.8464	-11.588896	0.000512	5.117514	0.866930	0.000051
 188	1.8607e+01	1.8584	-11.538385	0.000508	5.076574	0.859995	0.000051
 189	1.8706e+01	1.8673	-11.493985	0.000446	4.462472	0.755963	0.000045
 190	1.8805e+01	1.8770	-11.445511	0.000487	4.871873	0.825318	0.000049
 191	1.8905e+01	1.8861	-11.395815	0.000499	4.994694	0.846124	0.000050
 192	1.9005e+01	1.8955	-11.355081	0.000409	4.094011	0.693544	0.000041
 193	1.9104e+01	1.9061	-11.307422	0.000479	4.789993	0.811447	0.000048
 194	1.9203e+01	1.9138	-11.262614	0.000450	4.503412	0.762899	0.000045
 195	1.9303e+01	1.9280	-11.209252	0.000536	5.363155	0.908543	0.000054
 196	1.9402e+01	1.9382	-11.163630	0.000459	4.585293	0.776770	0.000046
 197	1.9502e+01	1.9443	-11.115971	0.000479	4.789993	0.811447	0.000048
 198	1.9602e+01	1.9549	-11.066682	0.000495	4.953754	0.839189	0.000050
 199	1.9701e+01	1.9647	-11.018616	0.000483	4.830933	0.818382	0.000048
 200	1.9800e+01	1.9734	-10.972994	0.000459	4.585293	0.776770	0.000046
 201	1.9900e+01	1.9855	-10.925335	0.000479	4.789993	0.811447	0.000048
 202	2.0000e+01	1.9922	-10.879712	0.000459	4.585293	0.776770	0.000046
 203	2.0099e+01	2.0057	-10.830831	0.000491	4.912814	0.832253	0.000049
 204	2.0198e+01	2.0189	-10.785209	0.000459	4.585293	0.776770	0.000046
 205	2.0298e+01	2.0291	-10.736328	0.000491	4.912814	0.832253	0.000049
 206	2.0398e+01	2.0351	-10.688669	0.000479	4.789993	0.811447	0.000048
 207	2.0497e+01	2.0458	-10.643046	0.000459	4.585293	0.776770	0.000046
 208	2.0596e+01	2.0560	-10.596609	0.000467	4.667173	0.790640	0.000047
 209	2.0696e+01	2.0662	-10.546099	0.000508	5.076574	0.859995	0.000051
 210	2.0796e+01	2.0757	-10.501291	0.000450	4.503412	0.762899	0.000045
 211	2.0895e+01	2.0837	-10.451595	0.000499	4.994694	0.846124	0.000050
 212	2.0994e+01	2.0967	-10.405973	0.000459	4.585293	0.776770	0.000046
 213	2.1094e+01	2.1060	-10.357092	0.000491	4.912814	0.832253	0.000049
 214	2.1194e+01	2.1152	-10.306989	0.000504	5.035634	0.853059	0.000050
 215	2.1293e+01	2.1258	-10.262181	0.000450	4.503412	0.762899	0.000045
 216	2.1392e+01	2.1334	-10.214522	0.000479	4.789993	0.811447	0.000048
 217	2.1492e+01	2.1447	-10.165641	0.000491	4.912814	0.832253	0.000049
 218	2.1591e+01	2.1520	-10.116760	0.000491	4.912814	0.832253	0.000049
 219	2.1691e+01	2.1646	-10.069508	0.000475	4.749053	0.804511	0.000047
 220	2.1791e+01	2.1737	-10.017775	0.000520	5.199394	0.880801	0.000052
 221	2.1890e+01	2.1817	-9.966858	0.000512	5.117514	0.866930	0.000051
 222	2.1989e+01	2.1955	-9.922865	0.000442	4.421532	0.749028	0.000044
 223	2.2089e+01	2.2059	-9.869503	0.000536	5.363155	0.908543	0.000054
 224	2.2189e+01	2.2150	-9.819400	0.000504	5.035634	0.853059	0.000050
 225	2.2288e+01	2.2243	-9.771333	0.000483	4.830933	0.818382	0.000048
 226	2.2387e+01	2.2324	-9.722859	0.000487	4.871873	0.825318	0.000049
 227	2.2487e+01	2.2449	-9.671534	0.000516	5.158454	0.873866	0.000052
 228	2.2587e+01	2.2541	-9.617358	0.000545	5.445035	0.922414	0.000054
 229	2.2686e+01	2.2681	-9.574587	0.000430	4.298712	0.728222	0.000043
 230	2.2785e+01	2.2737	-9.523262	0.000516	5.158454	0.873866	0.000052
 231	2.2885e+01	2.2823	-9.472751	0.000508	5.076574	0.859995	0.000051
 232	2.2985e+01	2.2973	-9.424685	0.000483	4.830933	0.818382	0.000048
 233	2.3084e+01	2.3066	-9.376211	0.000487	4.871873	0.825318	0.000049
 234	2.3183e+01	2.3138	-9.326922	0.000495	4.953754	0.839189	0.000050
 235	2.3283e+01	2.3242	-9.276819	0.000504	5.035634	0.853059	0.000050
 236	2.3383e+01	2.3341	-9.232012	0.000450	4.503412	0.762899	0.000045
 237	2.3482e+01	2.3428	-9.184760	0.000475	4.749053	0.804511	0.000047
 238	2.3581e+01	2.3569	-9.135064	0.000499	4.994694	0.846124	0.000050
 239	2.3681e+01	2.3615	-9.088220	0.000471	4.708113	0.797576	0.000047
 240	2.3780e+01	2.3730	-9.040968	0.000475	4.749053	0.804511	0.000047
 241	2.3880e+01	2.3864	-8.990865	0.000504	5.035634	0.853059	0.000050
 242	2.3980e+01	2.3955	-8.945650	0.000454	4.544353	0.769834	0.000045
 243	2.4079e+01	2.4052	-8.900027	0.000459	4.585293	0.776770	0.000046
 244	2.4178e+01	2.4139	-8.858886	0.000413	4.134951	0.700480	0.000041
 245	2.4278e+01	2.4243	-8.810005	0.000491	4.912814	0.832253	0.000049
 246	2.4378e+01	2.4364	-8.765604	0.000446	4.462472	0.755963	0.000045
 247	2.4477e+01	2.4465	-8.721611	0.000442	4.421532	0.749028	0.000044
 248	2.4576e+01	2.4538	-8.674767	0.000471	4.708113	0.797576	0.000047
 249	2.4676e+01	2.4634	-8.633218	0.000418	4.175892	0.707415	0.000042
 250	2.4776e+01	2.4740	-8.588818	0.000446	4.462472	0.755963	0.000045
 251	2.4875e+01	2.4831	-8.540751	0.000483	4.830933	0.818382	0.000048
 252	2.4974e+01	2.4944	-8.497166	0.000438	4.380592	0.742092	0.000044
 253	2.5074e+01	2.5053	-8.453580	0.000438	4.380592	0.742092	0.000044
 254	2.5174e+01	2.5098	-8.409994	0.000438	4.380592	0.742092	0.000044
 255	2.5273e+01	2.5251	-8.367223	0.000430	4.298712	0.728222	0.000043
 256	2.5372e+01	2.5312	-8.324452	0.000430	4.298712	0.728222	0.000043
 257	2.5472e+01	2.5410	-8.275979	0.000487	4.871873	0.825318	0.000049
 258	2.5572e+01	2.5540	-8.230356	0.000459	4.585293	0.776770	0.000046
 259	2.5671e+01	2.5623	-8.190844	0.000397	3.971191	0.672738	0.000040
 260	2.5770e+01	2.5704	-8.144000	0.000471	4.708113	0.797576	0.000047
 261	2.5870e+01	2.5833	-8.100007	0.000442	4.421532	0.749028	0.000044
 262	2.5970e+01	2.5942	-8.059272	0.000409	4.094011	0.693544	0.000041
 263	2.6069e+01	2.6012	-8.012021	0.000475	4.749053	0.804511	0.000047
 264	2.6169e+01	2.6144	-7.972916	0.000393	3.930251	0.665803	0.000039
 265	2.6268e+01	2.6234	-7.928923	0.000442	4.421532	0.749028	0.000044
 266	2.6367e+01	2.6319	-7.881264	0.000479	4.789993	0.811447	0.000048
 267	2.6467e+01	2.6427	-7.843381	0.000381	3.807430	0.644996	0.000038
 268	2.6567e+01	2.6497	-7.798980	0.000446	4.462472	0.755963	0.000045
 269	2.6666e+01	2.6645	-7.756617	0.000426	4.257772	0.721286	0.000043
 270	2.6765e+01	2.6694	-7.714661	0.000422	4.216832	0.714351	0.000042
 271	2.6865e+01	2.6814	-7.670260	0.000446	4.462472	0.755963	0.000045
 272	2.6965e+01	2.6936	-7.628711	0.000418	4.175892	0.707415	0.000042
 273	2.7064e+01	2.7023	-7.587162	0.000418	4.175892	0.707415	0.000042
 274	2.7163e+01	2.7137	-7.541947	0.000454	4.544353	0.769834	0.000045
 275	2.7263e+01	2.7232	-7.501620	0.000405	4.053071	0.686609	0.000041
 276	2.7363e+01	2.7338	-7.454776	0.000471	4.708113	0.797576	0.000047
 277	2.7462e+01	2.7433	-7.414856	0.000401	4.012131	0.679673	0.000040
 278	2.7561e+01	2.7494	-7.374530	0.000405	4.053071	0.686609	0.000041
 279	2.7661e+01	2.7657	-7.330537	0.000442	4.421532	0.749028	0.000044
 280	2.7761e+01	2.7716	-7.291432	0.000393	3.930251	0.665803	0.000039
 281	2.7860e+01	2.7806	-7.248661	0.000430	4.298712	0.728222	0.000043
 282	2.7959e+01	2.7919	-7.207926	0.000409	4.094011	0.693544	0.000041
 283	2.8059e+01	2.8002	-7.159453	0.000487	4.871873	0.825318	0.000049
 284	2.8159e+01	2.8134	-7.121570	0.000381	3.807430	0.644996	0.000038
 285	2.8258e+01	2.8206	-7.078392	0.000434	4.339652	0.735157	0.000043
 286	2.8358e+01	2.8323	-7.036843	0.000418	4.175892	0.707415	0.000042
 287	2.8457e+01	2.8442	-6.993664	0.000434	4.339652	0.735157	0.000043
 288	2.8556e+01	2.8519	-6.955781	0.000381	3.807430	0.644996	0.000038
 289	2.8656e+01	2.8619	-6.909344	0.000467	4.667173	0.790640	0.000047
 290	2.8756e+01	2.8707	-6.868203	0.000413	4.134951	0.700480	0.000041
 291	2.8855e+01	2.8814	-6.827061	0.000413	4.134951	0.700480	0.000041
 292	2.8954e+01	2.8905	-6.786327	0.000409	4.094011	0.693544	0.000041
 293	2.9054e+01	2.9012	-6.740705	0.000459	4.585293	0.776770	0.000046
 294	2.9154e+01	2.9105	-6.702414	0.000385	3.848371	0.651932	0.000038
 295	2.9253e+01	2.9218	-6.664531	0.000381	3.807430	0.644996	0.000038
 296	2.9352e+01	2.9288	-6.619724	0.000450	4.503412	0.762899	0.000045
 297	2.9452e+01	2.9404	-6.579397	0.000405	4.053071	0.686609	0.000041
 298	2.9552e+01	2.9510	-6.542329	0.000373	3.725550	0.631125	0.000037
 299	2.9651e+01	2.9594	-6.496706	0.000459	4.585293	0.776770	0.000046
 300	2.9750e+01	2.9729	-6.457601	0.000393	3.930251	0.665803	0.000039
 301	2.9850e+01	2.9798	-6.420126	0.000377	3.766490	0.638061	0.000038
 302	2.9950e+01	2.9909	-6.378984	0.000413	4.134951	0.700480	0.000041
 303	3.0049e+01	3.0006	-6.341509	0.000377	3.766490	0.638061	0.000038
 304	3.0148e+01	3.0119	-6.300367	0.000413	4.134951	0.700480	0.000041
 305	3.0248e+01	3.0190	-6.258004	0.000426	4.257772	0.721286	0.000043
 306	3.0348e+01	3.0307	-6.218491	0.000397	3.971191	0.672738	0.000040
 307	3.0447e+01	3.0395	-6.178572	0.000401	4.012131	0.679673	0.000040
 308	3.0547e+01	3.0520	-6.143948	0.000348	3.479910	0.589513	0.000035
 309	3.0646e+01	3.0591	-6.105658	0.000385	3.848371	0.651932	0.000038
 310	3.0745e+01	3.0679	-6.071848	0.000340	3.398029	0.575642	0.000034
 311	3.0845e+01	3.0804	-6.029892	0.000422	4.216832	0.714351	0.000042
 312	3.0945e+01	3.0887	-5.995268	0.000348	3.479910	0.589513	0.000035
 313	3.1044e+01	3.1008	-5.956163	0.000393	3.930251	0.665803	0.000039
 314	3.1143e+01	3.1077	-5.913799	0.000426	4.257772	0.721286	0.000043
 315	3.1243e+01	3.1191	-5.879990	0.000340	3.398029	0.575642	0.000034
 316	3.1343e+01	3.1275	-5.838848	0.000413	4.134951	0.700480	0.000041
 317	3.1442e+01	3.1398	-5.797707	0.000413	4.134951	0.700480	0.000041
 318	3.1541e+01	3.1495	-5.764712	0.000332	3.316149	0.561771	0.000033
 319	3.1641e+01	3.1586	-5.724792	0.000401	4.012131	0.679673	0.000040
 320	3.1741e+01	3.1701	-5.684465	0.000405	4.053071	0.686609	0.000041
 321	3.1840e+01	3.1800	-5.642509	0.000422	4.216832	0.714351	0.000042
 322	3.1939e+01	3.1881	-5.604219	0.000385	3.848371	0.651932	0.000038
 323	3.2039e+01	3.2010	-5.565521	0.000389	3.889311	0.658867	0.000039
 324	3.2139e+01	3.2105	-5.525194	0.000405	4.053071	0.686609	0.000041
 325	3.2238e+01	3.2218	-5.486904	0.000385	3.848371	0.651932	0.000038
 326	3.2337e+01	3.2314	-5.441282	0.000459	4.585293	0.776770	0.000046
 327	3.2437e+01	3.2400	-5.404621	0.000368	3.684610	0.624190	0.000037
 328	3.2536e+01	3.2535	-5.366331	0.000385	3.848371	0.651932	0.000038
 329	3.2636e+01	3.2561	-5.321116	0.000454	4.544353	0.769834	0.000045
 330	3.2736e+01	3.2678	-5.281196	0.000401	4.012131	0.679673	0.000040
 331	3.2835e+01	3.2791	-5.234352	0.000471	4.708113	0.797576	0.000047
 332	3.2934e+01	3.2868	-5.197691	0.000368	3.684610	0.624190	0.000037
 333	3.3034e+01	3.3004	-5.156142	0.000418	4.175892	0.707415	0.000042
 334	3.3133e+01	3.3112	-5.111742	0.000446	4.462472	0.755963	0.000045
 335	3.3233e+01	3.3199	-5.071007	0.000409	4.094011	0.693544	0.000041
 336	3.3333e+01	3.3318	-5.031903	0.000393	3.930251	0.665803	0.000039
 337	3.3432e+01	3.3386	-4.987095	0.000450	4.503412	0.762899	0.000045
 338	3.3532e+01	3.3517	-4.945139	0.000422	4.216832	0.714351	0.000042
 339	3.3631e+01	3.3588	-4.903590	0.000418	4.175892	0.707415	0.000042
 340	3.3730e+01	3.3695	-4.864077	0.000397	3.971191	0.672738	0.000040
 341	3.3830e+01	3.3793	-4.819677	0.000446	4.462472	0.755963	0.000045
 342	3.3929e+01	3.3897	-4.778943	0.000409	4.094011	0.693544	0.000041
 343	3.4029e+01	3.3985	-4.739431	0.000397	3.971191	0.672738	0.000040
 344	3.4129e+01	3.4121	-4.695438	0.000442	4.421532	0.749028	0.000044
 345	3.4228e+01	3.4191	-4.652259	0.000434	4.339652	0.735157	0.000043
 346	3.4328e+01	3.4283	-4.613562	0.000389	3.889311	0.658867	0.000039
 347	3.4427e+01	3.4399	-4.565903	0.000479	4.789993	0.811447	0.000048
 348	3.4526e+01	3.4500	-4.528834	0.000373	3.725550	0.631125	0.000037
 349	3.4626e+01	3.4585	-4.485656	0.000434	4.339652	0.735157	0.000043
 350	3.4725e+01	3.4678	-4.444515	0.000413	4.134951	0.700480	0.000041
 351	3.4825e+01	3.4786	-4.402558	0.000422	4.216832	0.714351	0.000042
 352	3.4925e+01	3.4878	-4.361009	0.000418	4.175892	0.707415	0.000042
 353	3.5024e+01	3.4968	-4.319460	0.000418	4.175892	0.707415	0.000042
 354	3.5123e+01	3.5094	-4.272209	0.000475	4.749053	0.804511	0.000047
 355	3.5223e+01	3.5177	-4.233511	0.000389	3.889311	0.658867	0.000039
 356	3.5322e+01	3.5278	-4.188703	0.000450	4.503412	0.762899	0.000045
 357	3.5422e+01	3.5410	-4.148784	0.000401	4.012131	0.679673	0.000040
 358	3.5522e+01	3.5488	-4.106828	0.000422	4.216832	0.714351	0.000042
 359	3.5621e+01	3.5603	-4.061205	0.000459	4.585293	0.776770	0.000046
 360	3.5721e+01	3.5674	-4.022100	0.000393	3.930251	0.665803	0.000039
 361	3.5820e+01	3.5794	-3.980144	0.000422	4.216832	0.714351	0.000042
 362	3.5919e+01	3.5879	-3.936151	0.000442	4.421532	0.749028	0.000044
 363	3.6019e+01	3.5986	-3.891751	0.000446	4.462472	0.755963	0.000045
 364	3.6118e+01	3.6078	-3.854275	0.000377	3.766490	0.638061	0.000038
 365	3.6218e+01	3.6180	-3.809468	0.000450	4.503412	0.762899	0.000045
 366	3.6318e+01	3.6295	-3.767511	0.000422	4.216832	0.714351	0.000042
 367	3.6417e+01	3.6364	-3.725148	0.000426	4.257772	0.721286	0.000043
 368	3.6517e+01	3.6480	-3.683599	0.000418	4.175892	0.707415	0.000042
 369	3.6616e+01	3.6577	-3.637569	0.000463	4.626233	0.783705	0.000046
 370	3.6715e+01	3.6685	-3.597649	0.000401	4.012131	0.679673	0.000040
 371	3.6815e+01	3.6778	-3.554878	0.000430	4.298712	0.728222	0.000043
 372	3.6914e+01	3.6901	-3.513330	0.000418	4.175892	0.707415	0.000042
 373	3.7014e+01	3.6965	-3.474632	0.000389	3.889311	0.658867	0.000039
 374	3.7114e+01	3.7075	-3.429824	0.000450	4.503412	0.762899	0.000045
 375	3.7213e+01	3.7160	-3.389497	0.000405	4.053071	0.686609	0.000041
 376	3.7313e+01	3.7254	-3.346319	0.000434	4.339652	0.735157	0.000043
 377	3.7412e+01	3.7359	-3.308029	0.000385	3.848371	0.651932	0.000038
 378	3.7511e+01	3.7484	-3.268109	0.000401	4.012131	0.679673	0.000040
 379	3.7611e+01	3.7588	-3.218413	0.000499	4.994694	0.846124	0.000050
 380	3.7711e+01	3.7659	-3.180938	0.000377	3.766490	0.638061	0.000038
 381	3.7810e+01	3.7782	-3.140611	0.000405	4.053071	0.686609	0.000041
 382	3.7910e+01	3.7884	-3.098247	0.000426	4.257772	0.721286	0.000043
 383	3.8009e+01	3.7964	-3.053847	0.000446	4.462472	0.755963	0.000045
 384	3.8108e+01	3.8071	-3.007817	0.000463	4.626233	0.783705	0.000046
 385	3.8208e+01	3.8148	-2.965861	0.000422	4.216832	0.714351	0.000042
 386	3.8307e+01	3.8268	-2.919017	0.000471	4.708113	0.797576	0.000047
 387	3.8407e+01	3.8390	-2.882356	0.000368	3.684610	0.624190	0.000037
 388	3.8507e+01	3.8447	-2.835512	0.000471	4.708113	0.797576	0.000047
 389	3.8606e+01	3.8543	-2.793555	0.000422	4.216832	0.714351	0.000042
 390	3.8706e+01	3.8641	-2.748340	0.000454	4.544353	0.769834	0.000045
 391	3.8805e+01	3.8784	-2.705569	0.000430	4.298712	0.728222	0.000043
 392	3.8904e+01	3.8856	-2.661169	0.000446	4.462472	0.755963	0.000045
 393	3.9004e+01	3.8955	-2.616769	0.000446	4.462472	0.755963	0.000045
 394	3.9103e+01	3.9063	-2.574812	0.000422	4.216832	0.714351	0.000042
 395	3.9203e+01	3.9181	-2.526746	0.000483	4.830933	0.818382	0.000048
 396	3.9303e+01	3.9278	-2.485197	0.000418	4.175892	0.707415	0.000042
 397	3.9402e+01	3.9360	-2.439167	0.000463	4.626233	0.783705	0.000046
 398	3.9502e+01	3.9474	-2.396804	0.000426	4.257772	0.721286	0.000043
 399	3.9601e+01	3.9571	-2.351996	0.000450	4.503412	0.762899	0.000045
 400	3.9700e+01	3.9661	-2.308003	0.000442	4.421532	0.749028	0.000044
 401	3.9800e+01	3.9753	-2.264825	0.000434	4.339652	0.735157	0.000043
 402	3.9900e+01	3.9859	-2.225312	0.000397	3.971191	0.672738	0.000040
 403	3.9999e+01	3.9980	-2.178875	0.000467	4.667173	0.790640	0.000047
 404	4.0099e+01	4.0042	-2.137326	0.000418	4.175892	0.707415	0.000042
 405	4.0198e+01	4.0166	-2.096185	0.000413	4.134951	0.700480	0.000041
 406	4.0297e+01	4.0272	-2.051784	0.000446	4.462472	0.755963	0.000045
 407	4.0397e+01	4.0388	-2.009013	0.000430	4.298712	0.728222	0.000043
 408	4.0496e+01	4.0448	-1.968687	0.000405	4.053071	0.686609	0.000041
 409	4.0596e+01	4.0554	-1.928767	0.000401	4.012131	0.679673	0.000040
 410	4.0696e+01	4.0659	-1.890069	0.000389	3.889311	0.658867	0.000039
 411	4.0795e+01	4.0741	-1.847706	0.000426	4.257772	0.721286	0.000043
 412	4.0895e+01	4.0849	-1.805342	0.000426	4.257772	0.721286	0.000043
 413	4.0994e+01	4.0957	-1.769903	0.000356	3.561790	0.603384	0.000036
 414	4.1093e+01	4.1048	-1.725910	0.000442	4.421532	0.749028	0.000044
 415	4.1193e+01	4.1134	-1.690879	0.000352	3.520850	0.596448	0.000035
 416	4.1292e+01	4.1245	-1.650959	0.000401	4.012131	0.679673	0.000040
 417	4.1392e+01	4.1341	-1.610632	0.000405	4.053071	0.686609	0.000041
 418	4.1492e+01	4.1462	-1.573564	0.000373	3.725550	0.631125	0.000037
 419	4.1591e+01	4.1563	-1.532830	0.000409	4.094011	0.693544	0.000041
 420	4.1691e+01	4.1624	-1.490874	0.000422	4.216832	0.714351	0.000042
 421	4.1790e+01	4.1741	-1.456250	0.000348	3.479910	0.589513	0.000035
 422	4.1889e+01	4.1846	-1.413886	0.000426	4.257772	0.721286	0.000043
 423	4.1989e+01	4.1929	-1.373152	0.000409	4.094011	0.693544	0.000041
 424	4.2089e+01	4.2072	-1.333640	0.000397	3.971191	0.672738	0.000040
 425	4.2188e+01	4.2149	-1.300237	0.000336	3.357089	0.568706	0.000034
 426	4.2288e+01	4.2252	-1.259911	0.000405	4.053071	0.686609	0.000041
 427	4.2387e+01	4.2345	-1.222842	0.000373	3.725550	0.631125	0.000037
 428	4.2486e+01	4.2458	-1.187404	0.000356	3.561790	0.603384	0.000036
 429	4.2586e+01	4.2542	-1.143411	0.000442	4.421532	0.749028	0.000044
 430	4.2685e+01	4.2663	-1.105528	0.000381	3.807430	0.644996	0.000038
 431	4.2785e+01	4.2750	-1.068052	0.000377	3.766490	0.638061	0.000038
 432	4.2885e+01	4.2828	-1.033428	0.000348	3.479910	0.589513	0.000035
 433	4.2984e+01	4.2944	-0.987806	0.000459	4.585293	0.776770	0.000046
 434	4.3084e+01	4.3067	-0.955218	0.000328	3.275209	0.554835	0.000033
 435	4.3183e+01	4.3147	-0.918150	0.000373	3.725550	0.631125	0.000037
 436	4.3282e+01	4.3263	-0.883119	0.000352	3.520850	0.596448	0.000035
 437	4.3382e+01	4.3369	-0.841977	0.000413	4.134951	0.700480	0.000041
 438	4.3481e+01	4.3429	-0.806131	0.000360	3.602730	0.610319	0.000036
 439	4.3581e+01	4.3559	-0.767433	0.000389	3.889311	0.658867	0.000039
 440	4.3681e+01	4.3638	-0.727106	0.000405	4.053071	0.686609	0.000041
 441	4.3780e+01	4.3724	-0.692482	0.000348	3.479910	0.589513	0.000035
 442	4.3880e+01	4.3839	-0.659488	0.000332	3.316149	0.561771	0.000033
 443	4.3979e+01	4.3961	-0.618753	0.000409	4.094011	0.693544	0.000041
 444	4.4078e+01	4.4053	-0.581685	0.000373	3.725550	0.631125	0.000037
 445	4.4178e+01	4.4138	-0.547061	0.000348	3.479910	0.589513	0.000035
 446	4.4278e+01	4.4236	-0.511215	0.000360	3.602730	0.610319	0.000036
 447	4.4377e+01	4.4314	-0.471703	0.000397	3.971191	0.672738	0.000040
 448	4.4477e+01	4.4458	-0.437893	0.000340	3.398029	0.575642	0.000034
 449	4.4576e+01	4.4529	-0.397974	0.000401	4.012131	0.679673	0.000040
 450	4.4675e+01	4.4652	-0.362535	0.000356	3.561790	0.603384	0.000036
 451	4.4775e+01	4.4730	-0.326281	0.000364	3.643670	0.617254	0.000036
 452	4.4874e+01	4.4818	-0.291657	0.000348	3.479910	0.589513	0.000035
 453	4.4974e+01	4.4945	-0.254996	0.000368	3.684610	0.624190	0.000037
 454	4.5074e+01	4.5034	-0.212633	0.000426	4.257772	0.721286	0.000043
 455	4.5173e+01	4.5132	-0.177601	0.000352	3.520850	0.596448	0.000035
 456	4.5273e+01	4.5254	-0.142570	0.000352	3.520850	0.596448	0.000035
 457	4.5372e+01	4.5334	-0.107131	0.000356	3.561790	0.603384	0.000036
 458	4.5471e+01	4.5408	-0.070878	0.000364	3.643670	0.617254	0.000036
 459	4.5571e+01	4.5526	-0.030958	0.000401	4.012131	0.679673	0.000040
 460	4.5670e+01	4.5639	-0.000815	0.000303	3.029568	0.513223	0.000030
 461	4.5770e+01	4.5779	0.037476	0.000385	3.848371	0.651932	0.000038
 462	4.5870e+01	4.5834	0.076580	0.000393	3.930251	0.665803	0.000039
 463	4.5969e+01	4.5928	0.112427	0.000360	3.602730	0.610319	0.000036
 464	4.6069e+01	4.6035	0.146643	0.000344	3.438969	0.582577	0.000034
 465	4.6168e+01	4.6119	0.179638	0.000332	3.316149	0.561771	0.000033
 466	4.6267e+01	4.6243	0.217114	0.000377	3.766490	0.638061	0.000038
 467	4.6367e+01	4.6320	0.254996	0.000381	3.807430	0.644996	0.000038
 468	4.6467e+01	4.6416	0.285954	0.000311	3.111449	0.527094	0.000031
 469	4.6566e+01	4.6526	0.322208	0.000364	3.643670	0.617254	0.000036
 470	4.6666e+01	4.6642	0.354795	0.000328	3.275209	0.554835	0.000033
 471	4.6765e+01	4.6718	0.389012	0.000344	3.438969	0.582577	0.000034
 472	4.6864e+01	4.6807	0.426080	0.000373	3.725550	0.631125	0.000037
 473	4.6964e+01	4.6922	0.455816	0.000299	2.988628	0.506287	0.000030
 474	4.7063e+01	4.7036	0.493292	0.000377	3.766490	0.638061	0.000038
 475	4.7163e+01	4.7124	0.525472	0.000323	3.234269	0.547900	0.000032
 476	4.7263e+01	4.7231	0.558874	0.000336	3.357089	0.568706	0.000034
 477	4.7362e+01	4.7327	0.590647	0.000319	3.193329	0.540965	0.000032
 478	4.7462e+01	4.7419	0.623234	0.000328	3.275209	0.554835	0.000033
 479	4.7561e+01	4.7533	0.652970	0.000299	2.988628	0.506287	0.000030
 480	4.7660e+01	4.7607	0.687187	0.000344	3.438969	0.582577	0.000034
 481	4.7760e+01	4.7720	0.720996	0.000340	3.398029	0.575642	0.000034
 482	4.7859e+01	4.7793	0.751140	0.000303	3.029568	0.513223	0.000030
 483	4.7959e+01	4.7886	0.787393	0.000364	3.643670	0.617254	0.000036
 484	4.8059e+01	4.8025	0.821610	0.000344	3.438969	0.582577	0.000034
 485	4.8158e+01	4.8123	0.853383	0.000319	3.193329	0.540965	0.000032
 486	4.8258e+01	4.8228	0.889229	0.000360	3.602730	0.610319	0.000036
 487	4.8357e+01	4.8336	0.923038	0.000340	3.398029	0.575642	0.000034
 488	4.8456e+01	4.8431	0.956440	0.000336	3.357089	0.568706	0.000034
 489	4.8556e+01	4.8537	0.990250	0.000340	3.398029	0.575642	0.000034
 490	4.8656e+01	4.8618	1.025281	0.000352	3.520850	0.596448	0.000035
 491	4.8755e+01	4.8730	1.063571	0.000385	3.848371	0.651932	0.000038
 492	4.8855e+01	4.8826	1.095751	0.000323	3.234269	0.547900	0.000032
 493	4.8954e+01	4.8888	1.130783	0.000352	3.520850	0.596448	0.000035
 494	4.9053e+01	4.9014	1.167036	0.000364	3.643670	0.617254	0.000036
 495	4.9153e+01	4.9111	1.204919	0.000381	3.807430	0.644996	0.000038
 496	4.9252e+01	4.9206	1.238321	0.000336	3.357089	0.568706	0.000034
 497	4.9352e+01	4.9297	1.277019	0.000389	3.889311	0.658867	0.000039
 498	4.9452e+01	4.9419	1.311236	0.000344	3.438969	0.582577	0.000034
 499	4.9551e+01	4.9515	1.348711	0.000377	3.766490	0.638061	0.000038
 500	4.9651e+01	4.9632	1.383335	0.000348	3.479910	0.589513	0.000035
 501	4.9750e+01	4.9718	1.417959	0.000348	3.479910	0.589513	0.000035
 502	4.9849e+01	4.9816	1.458694	0.000409	4.094011	0.693544	0.000041
 503	4.9949e+01	4.9936	1.494132	0.000356	3.561790	0.603384	0.000036
 504	5.0048e+01	5.0011	1.529571	0.000356	3.561790	0.603384	0.000036
 505	5.0148e+01	5.0085	1.567861	0.000385	3.848371	0.651932	0.000038
 506	5.0248e+01	5.0211	1.603300	0.000356	3.561790	0.603384	0.000036
 507	5.0347e+01	5.0284	1.642813	0.000397	3.971191	0.672738	0.000040
 508	5.0447e+01	5.0372	1.677437	0.000348	3.479910	0.589513	0.000035
 509	5.0546e+01	5.0518	1.714505	0.000373	3.725550	0.631125	0.000037
 510	5.0645e+01	5.0607	1.749944	0.000356	3.561790	0.603384	0.000036
 511	5.0745e+01	5.0700	1.787419	0.000377	3.766490	0.638061	0.000038
 512	5.0844e+01	5.0774	1.821636	0.000344	3.438969	0.582577	0.000034
 513	5.0944e+01	5.0903	1.859111	0.000377	3.766490	0.638061	0.000038
 514	5.1044e+01	5.1005	1.898624	0.000397	3.971191	0.672738	0.000040
 515	5.1143e+01	5.1123	1.934062	0.000356	3.561790	0.603384	0.000036
 516	5.1242e+01	5.1203	1.969094	0.000352	3.520850	0.596448	0.000035
 517	5.1342e+01	5.1306	2.003718	0.000348	3.479910	0.589513	0.000035
 518	5.1441e+01	5.1411	2.043638	0.000401	4.012131	0.679673	0.000040
 519	5.1541e+01	5.1502	2.079484	0.000360	3.602730	0.610319	0.000036
 520	5.1641e+01	5.1614	2.119403	0.000401	4.012131	0.679673	0.000040
 521	5.1740e+01	5.1693	2.155657	0.000364	3.643670	0.617254	0.000036
 522	5.1840e+01	5.1804	2.195576	0.000401	4.012131	0.679673	0.000040
 523	5.1939e+01	5.1905	2.231422	0.000360	3.602730	0.610319	0.000036
 524	5.2038e+01	5.1984	2.272971	0.000418	4.175892	0.707415	0.000042
 525	5.2138e+01	5.2096	2.305559	0.000328	3.275209	0.554835	0.000033
 526	5.2237e+01	5.2206	2.343442	0.000381	3.807430	0.644996	0.000038
 527	5.2337e+01	5.2319	2.381325	0.000381	3.807430	0.644996	0.000038
 528	5.2437e+01	5.2383	2.413912	0.000328	3.275209	0.554835	0.000033
 529	5.2536e+01	5.2503	2.457498	0.000438	4.380592	0.742092	0.000044
 530	5.2636e+01	5.2619	2.492122	0.000348	3.479910	0.589513	0.000035
 531	5.2735e+01	5.2671	2.532041	0.000401	4.012131	0.679673	0.000040
 532	5.2834e+01	5.2813	2.564629	0.000328	3.275209	0.554835	0.000033
 533	5.2934e+01	5.2905	2.609844	0.000454	4.544353	0.769834	0.000045
 534	5.3033e+01	5.2999	2.644875	0.000352	3.520850	0.596448	0.000035
 535	5.3133e+01	5.3103	2.679907	0.000352	3.520850	0.596448	0.000035
 536	5.3233e+01	5.3210	2.716975	0.000373	3.725550	0.631125	0.000037
 537	5.3332e+01	5.3326	2.754450	0.000377	3.766490	0.638061	0.000038
 538	5.3431e+01	5.3381	2.793963	0.000397	3.971191	0.672738	0.000040
 539	5.3531e+01	5.3497	2.826550	0.000328	3.275209	0.554835	0.000033
 540	5.3630e+01	5.3570	2.864025	0.000377	3.766490	0.638061	0.000038
 541	5.3730e+01	5.3711	2.904760	0.000409	4.094011	0.693544	0.000041
 542	5.3830e+01	5.3806	2.940199	0.000356	3.561790	0.603384	0.000036
 543	5.3929e+01	5.3910	2.975637	0.000356	3.561790	0.603384	0.000036
 544	5.4029e+01	5.3992	3.017186	0.000418	4.175892	0.707415	0.000042
 545	5.4128e+01	5.4093	3.051403	0.000344	3.438969	0.582577	0.000034
 546	5.4227e+01	5.4162	3.087657	0.000364	3.643670	0.617254	0.000036
 547	5.4327e+01	5.4269	3.125947	0.000385	3.848371	0.651932	0.000038
 548	5.4426e+01	5.4397	3.166681	0.000409	4.094011	0.693544	0.000041
 549	5.4526e+01	5.4490	3.200490	0.000340	3.398029	0.575642	0.000034
 550	5.4626e+01	5.4565	3.238373	0.000381	3.807430	0.644996	0.000038
 551	5.4725e+01	5.4685	3.278700	0.000405	4.053071	0.686609	0.000041
 552	5.4825e+01	5.4778	3.317805	0.000393	3.930251	0.665803	0.000039
 553	5.4924e+01	5.4877	3.354059	0.000364	3.643670	0.617254	0.000036
 554	5.5023e+01	5.4998	3.395200	0.000413	4.134951	0.700480	0.000041
 555	5.5123e+01	5.5083	3.432676	0.000377	3.766490	0.638061	0.000038
 556	5.5222e+01	5.5198	3.470151	0.000377	3.766490	0.638061	0.000038
 557	5.5322e+01	5.5306	3.512515	0.000426	4.257772	0.721286	0.000043
 558	5.5422e+01	5.5357	3.549176	0.000368	3.684610	0.624190	0.000037
 559	5.5521e+01	5.5454	3.589095	0.000401	4.012131	0.679673	0.000040
 560	5.5620e+01	5.5602	3.628200	0.000393	3.930251	0.665803	0.000039
 561	5.5720e+01	5.5672	3.670156	0.000422	4.216832	0.714351	0.000042
 562	5.5819e+01	5.5788	3.710076	0.000401	4.012131	0.679673	0.000040
 563	5.5919e+01	5.5901	3.749588	0.000397	3.971191	0.672738	0.000040
 564	5.6019e+01	5.5973	3.791137	0.000418	4.175892	0.707415	0.000042
 565	5.6118e+01	5.6084	3.829427	0.000385	3.848371	0.651932	0.000038
 566	5.6218e+01	5.6162	3.869347	0.000401	4.012131	0.679673	0.000040
 567	5.6317e+01	5.6283	3.904786	0.000356	3.561790	0.603384	0.000036
 568	5.6416e+01	5.6406	3.943076	0.000385	3.848371	0.651932	0.000038
 569	5.6516e+01	5.6458	3.984625	0.000418	4.175892	0.707415	0.000042
 570	5.6615e+01	5.6567	4.022508	0.000381	3.807430	0.644996	0.000038
 571	5.6715e+01	5.6667	4.060391	0.000381	3.807430	0.644996	0.000038
 572	5.6815e+01	5.6779	4.097866	0.000377	3.766490	0.638061	0.000038
 573	5.6914e+01	5.6875	4.134934	0.000373	3.725550	0.631125	0.000037
 574	5.7014e+01	5.6988	4.172817	0.000381	3.807430	0.644996	0.000038
 575	5.7113e+01	5.7081	4.209071	0.000364	3.643670	0.617254	0.000036
 576	5.7212e+01	5.7175	4.249805	0.000409	4.094011	0.693544	0.000041
 577	5.7312e+01	5.7279	4.283614	0.000340	3.398029	0.575642	0.000034
 578	5.7411e+01	5.7397	4.317831	0.000344	3.438969	0.582577	0.000034
 579	5.7511e+01	5.7473	4.352455	0.000348	3.479910	0.589513	0.000035
 580	5.7611e+01	5.7551	4.388709	0.000364	3.643670	0.617254	0.000036
 581	5.7710e+01	5.7675	4.422925	0.000344	3.438969	0.582577	0.000034
 582	5.7809e+01	5.7751	4.458772	0.000360	3.602730	0.610319	0.000036
 583	5.7909e+01	5.7864	4.493803	0.000352	3.520850	0.596448	0.000035
 584	5.8008e+01	5.7954	4.532908	0.000393	3.930251	0.665803	0.000039
 585	5.8108e+01	5.8083	4.562644	0.000299	2.988628	0.506287	0.000030
 586	5.8208e+01	5.8193	4.598897	0.000364	3.643670	0.617254	0.000036
 587	5.8307e+01	5.8276	4.632707	0.000340	3.398029	0.575642	0.000034
 588	5.8407e+01	5.8356	4.672626	0.000401	4.012131	0.679673	0.000040
 589	5.8506e+01	5.8468	4.704399	0.000319	3.193329	0.540965	0.000032
 590	5.8605e+01	5.8546	4.737801	0.000336	3.357089	0.568706	0.000034
 591	5.8705e+01	5.8657	4.775277	0.000377	3.766490	0.638061	0.000038
 592	5.8804e+01	5.8756	4.805420	0.000303	3.029568	0.513223	0.000030
 593	5.8904e+01	5.8852	4.840452	0.000352	3.520850	0.596448	0.000035
 594	5.9004e+01	5.8950	4.873446	0.000332	3.316149	0.561771	0.000033
 595	5.9103e+01	5.9045	4.911736	0.000385	3.848371	0.651932	0.000038
 596	5.9203e+01	5.9164	4.942695	0.000311	3.111449	0.527094	0.000031
 597	5.9302e+01	5.9269	4.976911	0.000344	3.438969	0.582577	0.000034
 598	5.9401e+01	5.9367	5.013572	0.000368	3.684610	0.624190	0.000037
 599	5.9501e+01	5.9474	5.047789	0.000344	3.438969	0.582577	0.000034
 600	5.9600e+01	5.9563	5.079969	0.000323	3.234269	0.547900	0.000032
 601	5.9700e+01	5.9670	5.114593	0.000348	3.479910	0.589513	0.000035
 602	5.9800e+01	5.9766	5.146773	0.000323	3.234269	0.547900	0.000032
 603	5.9899e+01	5.9863	5.179361	0.000328	3.275209	0.554835	0.000033
 604	5.9998e+01	5.9976	5.214392	0.000352	3.520850	0.596448	0.000035
 605	6.0098e+01	6.0072	5.245350	0.000311	3.111449	0.527094	0.000031
 606	6.0197e+01	6.0156	5.277530	0.000323	3.234269	0.547900	0.000032
 607	6.0297e+01	6.0277	5.313784	0.000364	3.643670	0.617254	0.000036
 608	6.0397e+01	6.0351	5.344742	0.000311	3.111449	0.527094	0.000031
 609	6.0496e+01	6.0449	5.380180	0.000356	3.561790	0.603384	0.000036
 610	6.0596e+01	6.0560	5.411953	0.000319	3.193329	0.540965	0.000032
 611	6.0695e+01	6.0661	5.441282	0.000295	2.947688	0.499352	0.000029
 612	6.0794e+01	6.0772	5.474684	0.000336	3.357089	0.568706	0.000034
 613	6.0894e+01	6.0855	5.506049	0.000315	3.152389	0.534029	0.000032
 614	6.0993e+01	6.0970	5.543117	0.000373	3.725550	0.631125	0.000037
 615	6.1093e+01	6.1055	5.572853	0.000299	2.988628	0.506287	0.000030
 616	6.1193e+01	6.1178	5.605034	0.000323	3.234269	0.547900	0.000032
 617	6.1292e+01	6.1254	5.638028	0.000332	3.316149	0.561771	0.000033
 618	6.1392e+01	6.1333	5.670208	0.000323	3.234269	0.547900	0.000032
 619	6.1491e+01	6.1462	5.700352	0.000303	3.029568	0.513223	0.000030
 620	6.1590e+01	6.1588	5.737420	0.000373	3.725550	0.631125	0.000037
 621	6.1690e+01	6.1639	5.767971	0.000307	3.070508	0.520158	0.000031
 622	6.1789e+01	6.1762	5.798929	0.000311	3.111449	0.527094	0.000031
 623	6.1889e+01	6.1881	5.834775	0.000360	3.602730	0.610319	0.000036
 624	6.1989e+01	6.1927	5.867362	0.000328	3.275209	0.554835	0.000033
 625	6.2088e+01	6.2016	5.898320	0.000311	3.111449	0.527094	0.000031
 626	6.2188e+01	6.2136	5.931315	0.000332	3.316149	0.561771	0.000033
 627	6.2287e+01	6.2241	5.966346	0.000352	3.520850	0.596448	0.000035
 628	6.2386e+01	6.2344	5.994453	0.000282	2.824868	0.478546	0.000028
 629	6.2486e+01	6.2460	6.027448	0.000332	3.316149	0.561771	0.000033
 630	6.2586e+01	6.2527	6.057184	0.000299	2.988628	0.506287	0.000030
 631	6.2685e+01	6.2668	6.090993	0.000340	3.398029	0.575642	0.000034
 632	6.2785e+01	6.2754	6.124395	0.000336	3.357089	0.568706	0.000034
 633	6.2884e+01	6.2865	6.154946	0.000307	3.070508	0.520158	0.000031
 634	6.2983e+01	6.2940	6.185497	0.000307	3.070508	0.520158	0.000031
 635	6.3083e+01	6.3039	6.214825	0.000295	2.947688	0.499352	0.000029
 636	6.3182e+01	6.3149	6.244154	0.000295	2.947688	0.499352	0.000029
 637	6.3282e+01	6.3213	6.275927	0.000319	3.193329	0.540965	0.000032
 638	6.3382e+01	6.3322	6.306070	0.000303	3.029568	0.513223	0.000030
 639	6.3481e+01	6.3438	6.337435	0.000315	3.152389	0.534029	0.000032
 640	6.3581e+01	6.3538	6.367171	0.000299	2.988628	0.506287	0.000030
 641	6.3680e+01	6.3645	6.395685	0.000287	2.865808	0.485481	0.000029
 642	6.3779e+01	6.3725	6.428680	0.000332	3.316149	0.561771	0.000033
 643	6.3879e+01	6.3831	6.454750	0.000262	2.620167	0.443868	0.000026
 644	6.3978e+01	6.3927	6.485708	0.000311	3.111449	0.527094	0.000031
 645	6.4078e+01	6.4012	6.514629	0.000291	2.906748	0.492416	0.000029
 646	6.4177e+01	6.4118	6.541514	0.000270	2.702047	0.457739	0.000027
 647	6.4277e+01	6.4230	6.570843	0.000295	2.947688	0.499352	0.000029
 648	6.4376e+01	6.4342	6.600986	0.000303	3.029568	0.513223	0.000030
 649	6.4476e+01	6.4458	6.629907	0.000291	2.906748	0.492416	0.000029
 650	6.4576e+01	6.4556	6.659643	0.000299	2.988628	0.506287	0.000030
 651	6.4675e+01	6.4641	6.687343	0.000278	2.783928	0.471610	0.000028
 652	6.4775e+01	6.4703	6.717079	0.000299	2.988628	0.506287	0.000030
 653	6.4874e+01	6.4877	6.751703	0.000348	3.479910	0.589513	0.000035
 654	6.4974e+01	6.4942	6.778180	0.000266	2.661107	0.450804	0.000027
 655	6.5073e+01	6.5039	6.810360	0.000323	3.234269	0.547900	0.000032
 656	6.5172e+01	6.5153	6.840503	0.000303	3.029568	0.513223	0.000030
 657	6.5272e+01	6.5228	6.871054	0.000307	3.070508	0.520158	0.000031
 658	6.5371e+01	6.5330	6.902827	0.000319	3.193329	0.540965	0.000032
 659	6.5471e+01	6.5437	6.931748	0.000291	2.906748	0.492416	0.000029
 660	6.5570e+01	6.5469	6.963521	0.000319	3.193329	0.540965	0.000032
 661	6.5670e+01	6.5627	6.995701	0.000323	3.234269	0.547900	0.000032
 662	6.5769e+01	6.5725	7.028288	0.000328	3.275209	0.554835	0.000033
 663	6.5869e+01	6.5811	7.062505	0.000344	3.438969	0.582577	0.000034
 664	6.5969e+01	6.5918	7.093871	0.000315	3.152389	0.534029	0.000032
 665	6.6068e+01	6.6000	7.125236	0.000315	3.152389	0.534029	0.000032
 666	6.6168e+01	6.6154	7.160267	0.000352	3.520850	0.596448	0.000035
 667	6.6267e+01	6.6232	7.191633	0.000315	3.152389	0.534029	0.000032
 668	6.6367e+01	6.6319	7.223405	0.000319	3.193329	0.540965	0.000032
 669	6.6466e+01	6.6434	7.258030	0.000348	3.479910	0.589513	0.000035
 670	6.6566e+01	6.6510	7.288173	0.000303	3.029568	0.513223	0.000030
 671	6.6665e+01	6.6616	7.324834	0.000368	3.684610	0.624190	0.000037
 672	6.6764e+01	6.6737	7.359051	0.000344	3.438969	0.582577	0.000034
 673	6.6864e+01	6.6830	7.390416	0.000315	3.152389	0.534029	0.000032
 674	6.6963e+01	6.6926	7.421781	0.000315	3.152389	0.534029	0.000032
 675	6.7063e+01	6.7059	7.454776	0.000332	3.316149	0.561771	0.000033
 676	6.7162e+01	6.7132	7.488993	0.000344	3.438969	0.582577	0.000034
 677	6.7262e+01	6.7220	7.524024	0.000352	3.520850	0.596448	0.000035
 678	6.7362e+01	6.7329	7.556204	0.000323	3.234269	0.547900	0.000032
 679	6.7461e+01	6.7482	7.591236	0.000352	3.520850	0.596448	0.000035
 680	6.7561e+01	6.7524	7.620972	0.000299	2.988628	0.506287	0.000030
 681	6.7660e+01	6.7622	7.654374	0.000336	3.357089	0.568706	0.000034
 682	6.7760e+01	6.7710	7.688591	0.000344	3.438969	0.582577	0.000034
 683	6.7859e+01	6.7809	7.720363	0.000319	3.193329	0.540965	0.000032
 684	6.7959e+01	6.7941	7.760283	0.000401	4.012131	0.679673	0.000040
 685	6.8058e+01	6.8019	7.791648	0.000315	3.152389	0.534029	0.000032
 686	6.8157e+01	6.8130	7.825865	0.000344	3.438969	0.582577	0.000034
 687	6.8257e+01	6.8206	7.860897	0.000352	3.520850	0.596448	0.000035
 688	6.8356e+01	6.8324	7.894299	0.000336	3.357089	0.568706	0.000034
 689	6.8456e+01	6.8388	7.930552	0.000364	3.643670	0.617254	0.000036
 690	6.8555e+01	6.8491	7.961510	0.000311	3.111449	0.527094	0.000031
 691	6.8655e+01	6.8649	7.998986	0.000377	3.766490	0.638061	0.000038
 692	6.8754e+01	6.8697	8.031166	0.000323	3.234269	0.547900	0.000032
 693	6.8854e+01	6.8817	8.064975	0.000340	3.398029	0.575642	0.000034
 694	6.8954e+01	6.8909	8.098377	0.000336	3.357089	0.568706	0.000034
 695	6.9053e+01	6.8996	8.132187	0.000340	3.398029	0.575642	0.000034
 696	6.9153e+01	6.9131	8.169255	0.000373	3.725550	0.631125	0.000037
 697	6.9252e+01	6.9223	8.198584	0.000295	2.947688	0.499352	0.000029
 698	6.9352e+01	6.9320	8.238096	0.000397	3.971191	0.672738	0.000040
 699	6.9451e+01	6.9416	8.268646	0.000307	3.070508	0.520158	0.000031
 700	6.9550e+01	6.9500	8.303271	0.000348	3.479910	0.589513	0.000035
 701	6.9650e+01	6.9595	8.342783	0.000397	3.971191	0.672738	0.000040
 702	6.9749e+01	6.9688	8.378222	0.000356	3.561790	0.603384	0.000036
 703	6.9849e+01	6.9801	8.407550	0.000295	2.947688	0.499352	0.000029
 704	6.9948e+01	6.9915	8.441360	0.000340	3.398029	0.575642	0.000034
 705	7.0048e+01	7.0011	8.475169	0.000340	3.398029	0.575642	0.000034
 706	7.0147e+01	7.0094	8.511015	0.000360	3.602730	0.610319	0.000036
 707	7.0247e+01	7.0212	8.543603	0.000328	3.275209	0.554835	0.000033
 708	7.0347e+01	7.0305	8.581078	0.000377	3.766490	0.638061	0.000038
 709	7.0446e+01	7.0413	8.616517	0.000356	3.561790	0.603384	0.000036
 710	7.0546e+01	7.0502	8.649512	0.000332	3.316149	0.561771	0.000033
 711	7.0645e+01	7.0596	8.680877	0.000315	3.152389	0.534029	0.000032
 712	7.0745e+01	7.0708	8.719167	0.000385	3.848371	0.651932	0.000038
 713	7.0844e+01	7.0797	8.749718	0.000307	3.070508	0.520158	0.000031
 714	7.0944e+01	7.0901	8.785564	0.000360	3.602730	0.610319	0.000036
 715	7.1043e+01	7.0966	8.818152	0.000328	3.275209	0.554835	0.000033
 716	7.1142e+01	7.1133	8.853590	0.000356	3.561790	0.603384	0.000036
 717	7.1242e+01	7.1198	8.889844	0.000364	3.643670	0.617254	0.000036
 718	7.1341e+01	7.1301	8.924875	0.000352	3.520850	0.596448	0.000035
 719	7.1441e+01	7.1404	8.963166	0.000385	3.848371	0.651932	0.000038
 720	7.1540e+01	7.1503	8.999419	0.000364	3.643670	0.617254	0.000036
 721	7.1640e+01	7.1586	9.030377	0.000311	3.111449	0.527094	0.000031
 722	7.1740e+01	7.1690	9.070704	0.000405	4.053071	0.686609	0.000041
 723	7.1839e+01	7.1770	9.106143	0.000356	3.561790	0.603384	0.000036
 724	7.1939e+01	7.1877	9.146470	0.000405	4.053071	0.686609	0.000041
 725	7.2038e+01	7.2012	9.175391	0.000291	2.906748	0.492416	0.000029
 726	7.2138e+01	7.2089	9.217755	0.000426	4.257772	0.721286	0.000043
 727	7.2237e+01	7.2194	9.252786	0.000352	3.520850	0.596448	0.000035
 728	7.2337e+01	7.2312	9.291484	0.000389	3.889311	0.658867	0.000039
 729	7.2436e+01	7.2417	9.331403	0.000401	4.012131	0.679673	0.000040
 730	7.2535e+01	7.2487	9.368064	0.000368	3.684610	0.624190	0.000037
 731	7.2635e+01	7.2607	9.407984	0.000401	4.012131	0.679673	0.000040
 732	7.2734e+01	7.2690	9.440978	0.000332	3.316149	0.561771	0.000033
 733	7.2834e+01	7.2781	9.479676	0.000389	3.889311	0.658867	0.000039
 734	7.2933e+01	7.2887	9.515115	0.000356	3.561790	0.603384	0.000036
 735	7.3033e+01	7.2979	9.547702	0.000328	3.275209	0.554835	0.000033
 736	7.3132e+01	7.3078	9.584770	0.000373	3.725550	0.631125	0.000037
 737	7.3232e+01	7.3176	9.626319	0.000418	4.175892	0.707415	0.000042
 738	7.3332e+01	7.3286	9.659721	0.000336	3.357089	0.568706	0.000034
 739	7.3431e+01	7.3389	9.696789	0.000373	3.725550	0.631125	0.000037
 740	7.3531e+01	7.3517	9.730192	0.000336	3.357089	0.568706	0.000034
 741	7.3630e+01	7.3584	9.766038	0.000360	3.602730	0.610319	0.000036
 742	7.3730e+01	7.3697	9.804735	0.000389	3.889311	0.658867	0.000039
 743	7.3829e+01	7.3788	9.836101	0.000315	3.152389	0.534029	0.000032
 744	7.3928e+01	7.3904	9.871132	0.000352	3.520850	0.596448	0.000035
 745	7.4028e+01	7.3968	9.901275	0.000303	3.029568	0.513223	0.000030
 746	7.4127e+01	7.4098	9.937122	0.000360	3.602730	0.610319	0.000036
 747	7.4227e+01	7.4175	9.970931	0.000340	3.398029	0.575642	0.000034
 748	7.4326e+01	7.4291	10.005962	0.000352	3.520850	0.596448	0.000035
 749	7.4426e+01	7.4378	10.037328	0.000315	3.152389	0.534029	0.000032
 750	7.4525e+01	7.4484	10.071137	0.000340	3.398029	0.575642	0.000034
 751	7.4625e+01	7.4593	10.102503	0.000315	3.152389	0.534029	0.000032
 752	7.4725e+01	7.4673	10.137127	0.000348	3.479910	0.589513	0.000035
 753	7.4824e+01	7.4792	10.168085	0.000311	3.111449	0.527094	0.000031
 754	7.4924e+01	7.4900	10.202302	0.000344	3.438969	0.582577	0.000034
 755	7.5023e+01	7.4969	10.237333	0.000352	3.520850	0.596448	0.000035
 756	7.5123e+01	7.5077	10.267884	0.000307	3.070508	0.520158	0.000031
 757	7.5222e+01	7.5192	10.302508	0.000348	3.479910	0.589513	0.000035
 758	7.5322e+01	7.5283	10.334281	0.000319	3.193329	0.540965	0.000032
 759	7.5421e+01	7.5364	10.370534	0.000364	3.643670	0.617254	0.000036
 760	7.5520e+01	7.5511	10.399863	0.000295	2.947688	0.499352	0.000029
 761	7.5620e+01	7.5566	10.430821	0.000311	3.111449	0.527094	0.000031
 762	7.5719e+01	7.5661	10.465037	0.000344	3.438969	0.582577	0.000034
 763	7.5819e+01	7.5770	10.494773	0.000299	2.988628	0.506287	0.000030
 764	7.5918e+01	7.5858	10.531027	0.000364	3.643670	0.617254	0.000036
 765	7.6018e+01	7.5986	10.561170	0.000303	3.029568	0.513223	0.000030
 766	7.6118e+01	7.6053	10.595794	0.000348	3.479910	0.589513	0.000035
 767	7.6217e+01	7.6205	10.631641	0.000360	3.602730	0.610319	0.000036
 768	7.6317e+01	7.6261	10.656896	0.000254	2.538287	0.429997	0.000025
 769	7.6416e+01	7.6381	10.690298	0.000336	3.357089	0.568706	0.000034
 770	7.6516e+01	7.6463	10.721663	0.000315	3.152389	0.534029	0.000032
 771	7.6615e+01	7.6572	10.755065	0.000336	3.357089	0.568706	0.000034
 772	7.6715e+01	7.6652	10.786023	0.000311	3.111449	0.527094	0.000031
 773	7.6814e+01	7.6794	10.820240	0.000344	3.438969	0.582577	0.000034
 774	7.6913e+01	7.6878	10.851198	0.000311	3.111449	0.527094	0.000031
 775	7.7013e+01	7.6968	10.879712	0.000287	2.865808	0.485481	0.000029
 776	7.7112e+01	7.7055	10.914336	0.000348	3.479910	0.589513	0.000035
 777	7.7212e+01	7.7149	10.946924	0.000328	3.275209	0.554835	0.000033
 778	7.7311e+01	7.7274	10.979104	0.000323	3.234269	0.547900	0.000032
 779	7.7411e+01	7.7393	11.009247	0.000303	3.029568	0.513223	0.000030
 780	7.7510e+01	7.7442	11.040205	0.000311	3.111449	0.527094	0.000031
 781	7.7610e+01	7.7569	11.070756	0.000307	3.070508	0.520158	0.000031
 782	7.7710e+01	7.7670	11.105380	0.000348	3.479910	0.589513	0.000035
 783	7.7809e+01	7.7775	11.135523	0.000303	3.029568	0.513223	0.000030
 784	7.7909e+01	7.7870	11.168111	0.000328	3.275209	0.554835	0.000033
 785	7.8008e+01	7.7979	11.199883	0.000319	3.193329	0.540965	0.000032
 786	7.8108e+01	7.8063	11.230841	0.000311	3.111449	0.527094	0.000031
 787	7.8207e+01	7.8159	11.260170	0.000295	2.947688	0.499352	0.000029
 788	7.8306e+01	7.8229	11.289499	0.000295	2.947688	0.499352	0.000029
 789	7.8406e+01	7.8370	11.325752	0.000364	3.643670	0.617254	0.000036
 790	7.8505e+01	7.8493	11.361598	0.000360	3.602730	0.610319	0.000036
 791	7.8605e+01	7.8543	11.392556	0.000311	3.111449	0.527094	0.000031
 792	7.8704e+01	7.8662	11.423922	0.000315	3.152389	0.534029	0.000032
 793	7.8804e+01	7.8753	11.452843	0.000291	2.906748	0.492416	0.000029
 794	7.8903e+01	7.8860	11.490726	0.000381	3.807430	0.644996	0.000038
 795	7.9003e+01	7.8943	11.521684	0.000311	3.111449	0.527094	0.000031
 796	7.9103e+01	7.9066	11.551420	0.000299	2.988628	0.506287	0.000030
 797	7.9202e+01	7.9151	11.584415	0.000332	3.316149	0.561771	0.000033
 798	7.9302e+01	7.9288	11.617410	0.000332	3.316149	0.561771	0.000033
 799	7.9401e+01	7.9350	11.647553	0.000303	3.029568	0.513223	0.000030
 800	7.9501e+01	7.9439	11.679326	0.000319	3.193329	0.540965	0.000032
 801	7.9600e+01	7.9558	11.711098	0.000319	3.193329	0.540965	0.000032
 802	7.9700e+01	7.9639	11.744908	0.000340	3.398029	0.575642	0.000034
 803	7.9799e+01	7.9759	11.768534	0.000237	2.374527	0.402256	0.000024
 804	7.9898e+01	7.9883	11.806009	0.000377	3.766490	0.638061	0.000038
 805	7.9998e+01	7.9922	11.835745	0.000299	2.988628	0.506287	0.000030
 806	8.0097e+01	8.0048	11.867111	0.000315	3.152389	0.534029	0.000032
 807	8.0197e+01	8.0157	11.895217	0.000282	2.824868	0.478546	0.000028
 808	8.0296e+01	8.0273	11.925768	0.000307	3.070508	0.520158	0.000031
 809	8.0396e+01	8.0340	11.955504	0.000299	2.988628	0.506287	0.000030
 810	8.0496e+01	8.0424	11.989313	0.000340	3.398029	0.575642	0.000034
 811	8.0595e+01	8.0541	12.014976	0.000258	2.579227	0.436933	0.000026
 812	8.0695e+01	8.0619	12.047563	0.000328	3.275209	0.554835	0.000033
 813	8.0794e+01	8.0734	12.075670	0.000282	2.824868	0.478546	0.000028
 814	8.0894e+01	8.0850	12.102555	0.000270	2.702047	0.457739	0.000027
 815	8.0993e+01	8.0949	12.131476	0.000291	2.906748	0.492416	0.000029
 816	8.1093e+01	8.1056	12.165693	0.000344	3.438969	0.582577	0.000034
 817	8.1192e+01	8.1156	12.195836	0.000303	3.029568	0.513223	0.000030
 818	8.1291e+01	8.1237	12.223128	0.000274	2.742988	0.464675	0.000027
 819	8.1391e+01	8.1354	12.258567	0.000356	3.561790	0.603384	0.000036
 820	8.1490e+01	8.1467	12.286266	0.000278	2.783928	0.471610	0.000028
 821	8.1590e+01	8.1557	12.316002	0.000299	2.988628	0.506287	0.000030
 822	8.1689e+01	8.1605	12.347367	0.000315	3.152389	0.534029	0.000032
 823	8.1789e+01	8.1724	12.381177	0.000340	3.398029	0.575642	0.000034
 824	8.1888e+01	8.1866	12.411728	0.000307	3.070508	0.520158	0.000031
 825	8.1988e+01	8.1940	12.447166	0.000356	3.561790	0.603384	0.000036
 826	8.2088e+01	8.2065	12.476902	0.000299	2.988628	0.506287	0.000030
 827	8.2187e+01	8.2122	12.509082	0.000323	3.234269	0.547900	0.000032
 828	8.2287e+01	8.2227	12.540040	0.000311	3.111449	0.527094	0.000031
 829	8.2386e+01	8.2349	12.573035	0.000332	3.316149	0.561771	0.000033
 830	8.2486e+01	8.2422	12.609289	0.000364	3.643670	0.617254	0.000036
 831	8.2585e+01	8.2568	12.641469	0.000323	3.234269	0.547900	0.000032
 832	8.2684e+01	8.2630	12.673649	0.000323	3.234269	0.547900	0.000032
 833	8.2784e+01	8.2719	12.709902	0.000364	3.643670	0.617254	0.000036
 834	8.2883e+01	8.2880	12.745341	0.000356	3.561790	0.603384	0.000036
 835	8.2983e+01	8.2950	12.780780	0.000356	3.561790	0.603384	0.000036
 836	8.3082e+01	8.3047	12.816219	0.000356	3.561790	0.603384	0.000036
 837	8.3182e+01	8.3154	12.852880	0.000368	3.684610	0.624190	0.000037
 838	8.3281e+01	8.3240	12.888726	0.000360	3.602730	0.610319	0.000036
 839	8.3381e+01	8.3315	12.921313	0.000328	3.275209	0.554835	0.000033
 840	8.3481e+01	8.3438	12.955530	0.000344	3.438969	0.582577	0.000034
 841	8.3580e+01	8.3545	12.992191	0.000368	3.684610	0.624190	0.000037
 842	8.3680e+01	8.3631	13.025185	0.000332	3.316149	0.561771	0.000033
 843	8.3779e+01	8.3742	13.063068	0.000381	3.807430	0.644996	0.000038
 844	8.3879e+01	8.3845	13.100136	0.000373	3.725550	0.631125	0.000037
 845	8.3978e+01	8.3923	13.137205	0.000373	3.725550	0.631125	0.000037
 846	8.4078e+01	8.4044	13.171421	0.000344	3.438969	0.582577	0.000034
 847	8.4177e+01	8.4138	13.208490	0.000373	3.725550	0.631125	0.000037
 848	8.4276e+01	8.4270	13.241484	0.000332	3.316149	0.561771	0.000033
 849	8.4376e+01	8.4306	13.278145	0.000368	3.684610	0.624190	0.000037
 850	8.4475e+01	8.4415	13.315621	0.000377	3.766490	0.638061	0.000038
 851	8.4575e+01	8.4544	13.355540	0.000401	4.012131	0.679673	0.000040
 852	8.4674e+01	8.4641	13.387720	0.000323	3.234269	0.547900	0.000032
 853	8.4774e+01	8.4760	13.425603	0.000381	3.807430	0.644996	0.000038
 854	8.4874e+01	8.4829	13.463486	0.000381	3.807430	0.644996	0.000038
 855	8.4973e+01	8.4932	13.503813	0.000405	4.053071	0.686609	0.000041
 856	8.5073e+01	8.5017	13.538437	0.000348	3.479910	0.589513	0.000035
 857	8.5172e+01	8.5130	13.577542	0.000393	3.930251	0.665803	0.000039
 858	8.5272e+01	8.5220	13.613388	0.000360	3.602730	0.610319	0.000036
 859	8.5371e+01	8.5330	13.652900	0.000397	3.971191	0.672738	0.000040
 860	8.5471e+01	8.5429	13.690376	0.000377	3.766490	0.638061	0.000038
 861	8.5570e+01	8.5523	13.725407	0.000352	3.520850	0.596448	0.000035
 862	8.5669e+01	8.5645	13.762883	0.000377	3.766490	0.638061	0.000038
 863	8.5769e+01	8.5719	13.804024	0.000413	4.134951	0.700480	0.000041
 864	8.5868e+01	8.5833	13.839871	0.000360	3.602730	0.610319	0.000036
 865	8.5968e+01	8.5922	13.878568	0.000389	3.889311	0.658867	0.000039
 866	8.6067e+01	8.6021	13.919302	0.000409	4.094011	0.693544	0.000041
 867	8.6167e+01	8.6121	13.954741	0.000356	3.561790	0.603384	0.000036
 868	8.6266e+01	8.6274	13.994253	0.000397	3.971191	0.672738	0.000040
 869	8.6366e+01	8.6331	14.035802	0.000418	4.175892	0.707415	0.000042
 870	8.6466e+01	8.6436	14.071241	0.000356	3.561790	0.603384	0.000036
 871	8.6565e+01	8.6539	14.110346	0.000393	3.930251	0.665803	0.000039
 872	8.6665e+01	8.6639	14.149044	0.000389	3.889311	0.658867	0.000039
 873	8.6764e+01	8.6713	14.183668	0.000348	3.479910	0.589513	0.000035
 874	8.6864e+01	8.6805	14.223180	0.000397	3.971191	0.672738	0.000040
 875	8.6963e+01	8.6929	14.261063	0.000381	3.807430	0.644996	0.000038
 876	8.7063e+01	8.7007	14.299760	0.000389	3.889311	0.658867	0.000039
 877	8.7162e+01	8.7147	14.336421	0.000368	3.684610	0.624190	0.000037
 878	8.7261e+01	8.7218	14.379192	0.000430	4.298712	0.728222	0.000043
 879	8.7361e+01	8.7339	14.415853	0.000368	3.684610	0.624190	0.000037
 880	8.7460e+01	8.7420	14.452514	0.000368	3.684610	0.624190	0.000037
 881	8.7560e+01	8.7514	14.495692	0.000434	4.339652	0.735157	0.000043
 882	8.7659e+01	8.7618	14.537241	0.000418	4.175892	0.707415	0.000042
 883	8.7759e+01	8.7699	14.577568	0.000405	4.053071	0.686609	0.000041
 884	8.7859e+01	8.7817	14.615858	0.000385	3.848371	0.651932	0.000038
 885	8.7958e+01	8.7915	14.654148	0.000385	3.848371	0.651932	0.000038
 886	8.8058e+01	8.8023	14.698141	0.000442	4.421532	0.749028	0.000044
 887	8.8157e+01	8.8092	14.740912	0.000430	4.298712	0.728222	0.000043
 888	8.8257e+01	8.8242	14.780832	0.000401	4.012131	0.679673	0.000040
 889	8.8356e+01	8.8293	14.823195	0.000426	4.257772	0.721286	0.000043
 890	8.8456e+01	8.8433	14.863115	0.000401	4.012131	0.679673	0.000040
 891	8.8555e+01	8.8502	14.906701	0.000438	4.380592	0.742092	0.000044
 892	8.8654e+01	8.8611	14.948657	0.000422	4.216832	0.714351	0.000042
 893	8.8754e+01	8.8721	14.987354	0.000389	3.889311	0.658867	0.000039
 894	8.8853e+01	8.8819	15.038272	0.000512	5.117514	0.866930	0.000051
 895	8.8953e+01	8.8887	15.079007	0.000409	4.094011	0.693544	0.000041
 896	8.9052e+01	8.9016	15.125036	0.000463	4.626233	0.783705	0.000046
 897	8.9152e+01	8.9124	15.166993	0.000422	4.216832	0.714351	0.000042
 898	8.9251e+01	8.9212	15.210578	0.000438	4.380592	0.742092	0.000044
 899	8.9351e+01	8.9337	15.251312	0.000409	4.094011	0.693544	0.000041
 900	8.9451e+01	8.9411	15.300601	0.000495	4.953754	0.839189	0.000050
 901	8.9550e+01	8.9494	15.342150	0.000418	4.175892	0.707415	0.000042
 902	8.9650e+01	8.9625	15.386143	0.000442	4.421532	0.749028	0.000044
 903	8.9749e+01	8.9697	15.427692	0.000418	4.175892	0.707415	0.000042
 904	8.9849e+01	8.9792	15.471685	0.000442	4.421532	0.749028	0.000044
 905	8.9948e+01	8.9909	15.517714	0.000463	4.626233	0.783705	0.000046
 906	9.0047e+01	8.9982	15.561707	0.000442	4.421532	0.749028	0.000044
 907	9.0147e+01	9.0089	15.602849	0.000413	4.134951	0.700480	0.000041
 908	9.0246e+01	9.0204	15.645213	0.000426	4.257772	0.721286	0.000043
 909	9.0346e+01	9.0270	15.691242	0.000463	4.626233	0.783705	0.000046
 910	9.0445e+01	9.0411	15.731162	0.000401	4.012131	0.679673	0.000040
 911	9.0545e+01	9.0488	15.772304	0.000413	4.134951	0.700480	0.000041
 912	9.0644e+01	9.0637	15.815482	0.000434	4.339652	0.735157	0.000043
 913	9.0744e+01	9.0686	15.857846	0.000426	4.257772	0.721286	0.000043
 914	9.0844e+01	9.0771	15.899394	0.000418	4.175892	0.707415	0.000042
 915	9.0943e+01	9.0898	15.946646	0.000475	4.749053	0.804511	0.000047
 916	9.1043e+01	9.0998	15.984122	0.000377	3.766490	0.638061	0.000038
 917	9.1142e+01	9.1105	16.025671	0.000418	4.175892	0.707415	0.000042
 918	9.1242e+01	9.1192	16.065590	0.000401	4.012131	0.679673	0.000040
 919	9.1341e+01	9.1300	16.108769	0.000434	4.339652	0.735157	0.000043
 920	9.1441e+01	9.1412	16.153984	0.000454	4.544353	0.769834	0.000045
 921	9.1540e+01	9.1508	16.194310	0.000405	4.053071	0.686609	0.000041
 922	9.1639e+01	9.1579	16.235859	0.000418	4.175892	0.707415	0.000042
 923	9.1739e+01	9.1682	16.277816	0.000422	4.216832	0.714351	0.000042
 924	9.1838e+01	9.1785	16.317735	0.000401	4.012131	0.679673	0.000040
 925	9.1938e+01	9.1880	16.359692	0.000422	4.216832	0.714351	0.000042
 926	9.2037e+01	9.1980	16.398796	0.000393	3.930251	0.665803	0.000039
 927	9.2137e+01	9.2097	16.445641	0.000471	4.708113	0.797576	0.000047
 928	9.2237e+01	9.2169	16.485153	0.000397	3.971191	0.672738	0.000040
 929	9.2336e+01	9.2285	16.529146	0.000442	4.421532	0.749028	0.000044
 930	9.2436e+01	9.2383	16.574361	0.000454	4.544353	0.769834	0.000045
 931	9.2535e+01	9.2482	16.614688	0.000405	4.053071	0.686609	0.000041
 932	9.2635e+01	9.2590	16.659088	0.000446	4.462472	0.755963	0.000045
 933	9.2734e+01	9.2678	16.705933	0.000471	4.708113	0.797576	0.000047
 934	9.2834e+01	9.2789	16.745852	0.000401	4.012131	0.679673	0.000040
 935	9.2933e+01	9.2879	16.791882	0.000463	4.626233	0.783705	0.000046
 936	9.3032e+01	9.2983	16.838319	0.000467	4.667173	0.790640	0.000047
 937	9.3132e+01	9.3084	16.879461	0.000413	4.134951	0.700480	0.000041
 938	9.3231e+01	9.3171	16.920195	0.000409	4.094011	0.693544	0.000041
 939	9.3331e+01	9.3299	16.966632	0.000467	4.667173	0.790640	0.000047
 940	9.3430e+01	9.3393	17.007774	0.000413	4.134951	0.700480	0.000041
 941	9.3530e+01	9.3490	17.052174	0.000446	4.462472	0.755963	0.000045
 942	9.3629e+01	9.3579	17.090871	0.000389	3.889311	0.658867	0.000039
 943	9.3729e+01	9.3659	17.140567	0.000499	4.994694	0.846124	0.000050
 944	9.3829e+01	9.3768	17.185375	0.000450	4.503412	0.762899	0.000045
 945	9.3928e+01	9.3874	17.229368	0.000442	4.421532	0.749028	0.000044
 946	9.4028e+01	9.3987	17.270917	0.000418	4.175892	0.707415	0.000042
 947	9.4127e+01	9.4095	17.312873	0.000422	4.216832	0.714351	0.000042
 948	9.4227e+01	9.4177	17.359718	0.000471	4.708113	0.797576	0.000047
 949	9.4326e+01	9.4267	17.404525	0.000450	4.503412	0.762899	0.000045
 950	9.4425e+01	9.4355	17.448518	0.000442	4.421532	0.749028	0.000044
 951	9.4525e+01	9.4458	17.491289	0.000430	4.298712	0.728222	0.000043
 952	9.4624e+01	9.4553	17.536912	0.000459	4.585293	0.776770	0.000046
 953	9.4724e+01	9.4662	17.578053	0.000413	4.134951	0.700480	0.000041
 954	9.4823e+01	9.4753	17.623268	0.000454	4.544353	0.769834	0.000045
 955	9.4923e+01	9.4885	17.669705	0.000467	4.667173	0.790640	0.000047
 956	9.5022e+01	9.4973	17.716142	0.000467	4.667173	0.790640	0.000047
 957	9.5122e+01	9.5068	17.759728	0.000438	4.380592	0.742092	0.000044
 958	9.5222e+01	9.5166	17.806980	0.000475	4.749053	0.804511	0.000047
 959	9.5321e+01	9.5277	17.854231	0.000475	4.749053	0.804511	0.000047
 960	9.5421e+01	9.5381	17.899446	0.000454	4.544353	0.769834	0.000045
 961	9.5520e+01	9.5467	17.949957	0.000508	5.076574	0.859995	0.000051
 962	9.5620e+01	9.5563	17.992728	0.000430	4.298712	0.728222	0.000043
 963	9.5719e+01	9.5673	18.041609	0.000491	4.912814	0.832253	0.000049
 964	9.5819e+01	9.5747	18.089675	0.000483	4.830933	0.818382	0.000048
 965	9.5918e+01	9.5858	18.130817	0.000413	4.134951	0.700480	0.000041
 966	9.6017e+01	9.5967	18.179291	0.000487	4.871873	0.825318	0.000049
 967	9.6117e+01	9.6058	18.230209	0.000512	5.117514	0.866930	0.000051
 968	9.6216e+01	9.6162	18.277460	0.000475	4.749053	0.804511	0.000047
 969	9.6316e+01	9.6272	18.327563	0.000504	5.035634	0.853059	0.000050
 970	9.6415e+01	9.6392	18.376852	0.000495	4.953754	0.839189	0.000050
 971	9.6515e+01	9.6484	18.420845	0.000442	4.421532	0.749028	0.000044
 972	9.6615e+01	9.6564	18.472170	0.000516	5.158454	0.873866	0.000052
 973	9.6714e+01	9.6693	18.519422	0.000475	4.749053	0.804511	0.000047
 974	9.6814e+01	9.6754	18.564637	0.000454	4.544353	0.769834	0.000045
 975	9.6913e+01	9.6864	18.615555	0.000512	5.117514	0.866930	0.000051
 976	9.7013e+01	9.6955	18.662806	0.000475	4.749053	0.804511	0.000047
 977	9.7112e+01	9.7052	18.709651	0.000471	4.708113	0.797576	0.000047
 978	9.7212e+01	9.7182	18.757310	0.000479	4.789993	0.811447	0.000048
 979	9.7311e+01	9.7266	18.800081	0.000430	4.298712	0.728222	0.000043
 980	9.7410e+01	9.7351	18.850184	0.000504	5.035634	0.853059	0.000050
 981	9.7510e+01	9.7462	18.898658	0.000487	4.871873	0.825318	0.000049
 982	9.7609e+01	9.7559	18.947539	0.000491	4.912814	0.832253	0.000049
 983	9.7709e+01	9.7656	18.998049	0.000508	5.076574	0.859995	0.000051
 984	9.7808e+01	9.7754	19.052226	0.000545	5.445035	0.922414	0.000054
 985	9.7908e+01	9.7871	19.102329	0.000504	5.035634	0.853059	0.000050
 986	9.8007e+01	9.7949	19.154876	0.000528	5.281275	0.894672	0.000053
 987	9.8107e+01	9.8037	19.205387	0.000508	5.076574	0.859995	0.000051
 988	9.8207e+01	9.8156	19.259563	0.000545	5.445035	0.922414	0.000054
 989	9.8306e+01	9.8248	19.308852	0.000495	4.953754	0.839189	0.000050
 990	9.8406e+01	9.8364	19.365472	0.000569	5.690676	0.964027	0.000057
 991	9.8505e+01	9.8465	19.420871	0.000557	5.567855	0.943220	0.000056
 992	9.8605e+01	9.8576	19.475862	0.000553	5.526915	0.936285	0.000055
 993	9.8704e+01	9.8658	19.533705	0.000581	5.813496	0.984833	0.000058
 994	9.8803e+01	9.8757	19.587474	0.000540	5.404095	0.915478	0.000054
 995	9.8903e+01	9.8859	19.637984	0.000508	5.076574	0.859995	0.000051
 996	9.9002e+01	9.8962	19.695012	0.000573	5.731616	0.970962	0.000057
 997	9.9102e+01	9.9037	19.753262	0.000585	5.854436	0.991768	0.000059
 998	9.9201e+01	9.9151	19.808661	0.000557	5.567855	0.943220	0.000056
 999	9.9301e+01	9.9270	19.862430	0.000540	5.404095	0.915478	0.000054
1000	9.9400e+01	9.9355	19.920680	0.000585	5.854436	0.991768	0.000059
1001	9.9500e+01	9.9438	19.980967	0.000606	6.059137	1.026446	0.000061
1002	9.9600e+01	9.9561	20.040032	0.000594	5.936316	1.005639	0.000059
1003	9.9699e+01	9.9646	20.096652	0.000569	5.690676	0.964027	0.000057
1004	9.9799e+01	9.9766	20.156939	0.000606	6.059137	1.026446	0.000061
1005	9.9898e+01	9.9854	20.217226	0.000606	6.059137	1.026446	0.000061
1006	9.9998e+01	9.9951	20.273846	0.000569	5.690676	0.964027	0.000057
1007	1.0010e+02	9.9876	20.286474	-0.000127	-1.269143	-0.214999	0.000013
1008	1.0020e+02	9.9756	20.297879	-0.000115	-1.146323	-0.194192	0.000011
1009	1.0030e+02	9.9634	20.311729	-0.000139	-1.391964	-0.235805	0.000014
1010	1.0040e+02	9.9536	20.319876	-0.000082	-0.818802	-0.138709	0.000008
1011	1.0050e+02	9.9451	20.331281	-0.000115	-1.146323	-0.194192	0.000011
1012	1.0059e+02	9.9326	20.342280	-0.000111	-1.105383	-0.187257	0.000011
1013	1.0069e+02	9.9252	20.345538	-0.000033	-0.327521	-0.055484	0.000003
1014	1.0079e+02	9.9152	20.355722	-0.000102	-1.023503	-0.173386	0.000010
1015	1.0089e+02	9.9043	20.361832	-0.000061	-0.614102	-0.104032	0.000006
1016	1.0099e+02	9.8952	20.367535	-0.000057	-0.573162	-0.097096	0.000006
1017	1.0109e+02	9.8853	20.379755	-0.000123	-1.228203	-0.208063	0.000012
1018	1.0119e+02	9.8755	20.384643	-0.000049	-0.491281	-0.083225	0.000005
1019	1.0129e+02	9.8652	20.393605	-0.000090	-0.900682	-0.152580	0.000009
1020	1.0139e+02	9.8553	20.396049	-0.000025	-0.245641	-0.041613	0.000002
1021	1.0149e+02	9.8438	20.400937	-0.000049	-0.491281	-0.083225	0.000005
1022	1.0159e+02	9.8364	20.402159	-0.000012	-0.122820	-0.020806	0.000001
1023	1.0169e+02	9.8277	20.406640	-0.000045	-0.450341	-0.076290	0.000005
1024	1.0179e+02	9.8147	20.412343	-0.000057	-0.573162	-0.097096	0.000006
1025	1.0189e+02	9.8034	20.414379	-0.000020	-0.204701	-0.034677	0.000002
1026	1.0199e+02	9.7935	20.416009	-0.000016	-0.163760	-0.027742	0.000002
1027	1.0209e+02	9.7864	20.420897	-0.000049	-0.491281	-0.083225	0.000005
1028	1.0219e+02	9.7754	20.420082	0.000008	0.081880	0.013871	-0.000001
1029	1.0229e+02	9.7668	20.422119	-0.000020	-0.204701	-0.034677	0.000002
1030	1.0239e+02	9.7550	20.427414	-0.000053	-0.532221	-0.090161	0.000005
1031	1.0248e+02	9.7442	20.425785	0.000016	0.163760	0.027742	-0.000002
1032	1.0258e+02	9.7366	20.432302	-0.000066	-0.655042	-0.110967	0.000007
1033	1.0268e+02	9.7260	20.430266	0.000020	0.204701	0.034677	-0.000002
1034	1.0278e+02	9.7168	20.433932	-0.000037	-0.368461	-0.062419	0.000004
1035	1.0288e+02	9.7064	20.435561	-0.000016	-0.163760	-0.027742	0.000002
1036	1.0298e+02	9.6944	20.438820	-0.000033	-0.327521	-0.055484	0.000003
1037	1.0308e+02	9.6853	20.440857	-0.000020	-0.204701	-0.034677	0.000002
1038	1.0318e+02	9.6759	20.441671	-0.000008	-0.081880	-0.013871	0.000001
1039	1.0328e+02	9.6686	20.443301	-0.000016	-0.163760	-0.027742	0.000002
1040	1.0338e+02	9.6574	20.445745	-0.000025	-0.245641	-0.041613	0.000002
1041	1.0348e+02	9.6450	20.444930	0.000008	0.081880	0.013871	-0.000001
1042	1.0358e+02	9.6346	20.441264	0.000037	0.368461	0.062419	-0.000004
1043	1.0368e+02	9.6268	20.442079	-0.000008	-0.081880	-0.013871	0.000001
1044	1.0378e+02	9.6152	20.438820	0.000033	0.327521	0.055484	-0.000003
1045	1.0388e+02	9.6066	20.437598	0.000012	0.122820	0.020806	-0.000001
1046	1.0398e+02	9.5972	20.433932	0.000037	0.368461	0.062419	-0.000004
1047	1.0408e+02	9.5898	20.427007	0.000070	0.695982	0.117903	-0.000007
1048	1.0418e+02	9.5785	20.422119	0.000049	0.491281	0.083225	-0.000005
1049	1.0428e+02	9.5662	20.416416	0.000057	0.573162	0.097096	-0.000006
1050	1.0438e+02	9.5545	20.411935	0.000045	0.450341	0.076290	-0.000005
1051	1.0447e+02	9.5466	20.406640	0.000053	0.532221	0.090161	-0.000005
1052	1.0457e+02	9.5373	20.403381	0.000033	0.327521	0.055484	-0.000003
1053	1.0467e+02	9.5296	20.398493	0.000049	0.491281	0.083225	-0.000005
1054	1.0477e+02	9.5169	20.391568	0.000070	0.695982	0.117903	-0.000007
1055	1.0487e+02	9.5057	20.386680	0.000049	0.491281	0.083225	-0.000005
1056	1.0497e+02	9.4962	20.383421	0.000033	0.327521	0.055484	-0.000003
1057	1.0507e+02	9.4858	20.383014	0.000004	0.040940	0.006935	-0.000000
1058	1.0517e+02	9.4790	20.372423	0.000106	1.064443	0.180322	-0.000011
1059	1.0527e+02	9.4659	20.366313	0.000061	0.614102	0.104032	-0.000006
1060	1.0537e+02	9.4584	20.361425	0.000049	0.491281	0.083225	-0.000005
1061	1.0547e+02	9.4491	20.357351	0.000041	0.409401	0.069354	-0.000004
1062	1.0557e+02	9.4362	20.356944	0.000004	0.040940	0.006935	-0.000000
1063	1.0567e+02	9.4287	20.351649	0.000053	0.532221	0.090161	-0.000005
1064	1.0577e+02	9.4167	20.345538	0.000061	0.614102	0.104032	-0.000006
1065	1.0587e+02	9.4089	20.339836	0.000057	0.573162	0.097096	-0.000006
1066	1.0597e+02	9.3987	20.335762	0.000041	0.409401	0.069354	-0.000004
1067	1.0607e+02	9.3873	20.331281	0.000045	0.450341	0.076290	-0.000005
1068	1.0617e+02	9.3810	20.324764	0.000066	0.655042	0.110967	-0.000007
1069	1.0627e+02	9.3666	20.319876	0.000049	0.491281	0.083225	-0.000005
1070	1.0637e+02	9.3575	20.316210	0.000037	0.368461	0.062419	-0.000004
1071	1.0647e+02	9.3484	20.307656	0.000086	0.859742	0.145644	-0.000009
1072	1.0656e+02	9.3372	20.303989	0.000037	0.368461	0.062419	-0.000004
1073	1.0666e+02	9.3266	20.294213	0.000098	0.982563	0.166451	-0.000010
1074	1.0676e+02	9.3180	20.283622	0.000106	1.064443	0.180322	-0.000011
1075	1.0686e+02	9.3089	20.278734	0.000049	0.491281	0.083225	-0.000005
1076	1.0696e+02	9.2988	20.269773	0.000090	0.900682	0.152580	-0.000009
1077	1.0706e+02	9.2872	20.260811	0.000090	0.900682	0.152580	-0.000009
1078	1.0716e+02	9.2780	20.247369	0.000135	1.351024	0.228870	-0.000014
1079	1.0726e+02	9.2706	20.238407	0.000090	0.900682	0.152580	-0.000009
1080	1.0736e+02	9.2567	20.230260	0.000082	0.818802	0.138709	-0.000008
1081	1.0746e+02	9.2524	20.217226	0.000131	1.310084	0.221934	-0.000013
1082	1.0756e+02	9.2387	20.205413	0.000119	1.187263	0.201128	-0.000012
1083	1.0766e+02	9.2272	20.193192	0.000123	1.228203	0.208063	-0.000012
1084	1.0776e+02	9.2206	20.179343	0.000139	1.391964	0.235805	-0.000014
1085	1.0786e+02	9.2079	20.169974	0.000094	0.941623	0.159515	-0.000009
1086	1.0796e+02	9.1973	20.154087	0.000160	1.596664	0.270482	-0.000016
1087	1.0806e+02	9.1911	20.139830	0.000143	1.432904	0.242741	-0.000014
1088	1.0816e+02	9.1767	20.125573	0.000143	1.432904	0.242741	-0.000014
1089	1.0826e+02	9.1682	20.112131	0.000135	1.351024	0.228870	-0.000014
1090	1.0836e+02	9.1590	20.100726	0.000115	1.146323	0.194192	-0.000011
1091	1.0845e+02	9.1455	20.086876	0.000139	1.391964	0.235805	-0.000014
1092	1.0855e+02	9.1386	20.071804	0.000151	1.514784	0.256611	-0.000015
1093	1.0865e+02	9.1268	20.056325	0.000156	1.555724	0.263547	-0.000016
1094	1.0875e+02	9.1211	20.039217	0.000172	1.719485	0.291289	-0.000017
1095	1.0885e+02	9.1084	20.026589	0.000127	1.269143	0.214999	-0.000013
1096	1.0895e+02	9.0996	20.011110	0.000156	1.555724	0.263547	-0.000016
1097	1.0905e+02	9.0909	19.993187	0.000180	1.801365	0.305159	-0.000018
1098	1.0915e+02	9.0812	19.975671	0.000176	1.760425	0.298224	-0.000018
1099	1.0925e+02	9.0674	19.964266	0.000115	1.146323	0.194192	-0.000011
1100	1.0935e+02	9.0625	19.944306	0.000201	2.006066	0.339837	-0.000020
1101	1.0945e+02	9.0503	19.929234	0.000151	1.514784	0.256611	-0.000015
1102	1.0955e+02	9.0414	19.911311	0.000180	1.801365	0.305159	-0.000018
1103	1.0965e+02	9.0305	19.896647	0.000147	1.473844	0.249676	-0.000015
1104	1.0975e+02	9.0188	19.875058	0.000217	2.169826	0.367578	-0.000022
1105	1.0985e+02	9.0088	19.857135	0.000180	1.801365	0.305159	-0.000018
1106	1.0995e+02	8.9997	19.840841	0.000164	1.637605	0.277418	-0.000016
1107	1.1005e+02	8.9918	19.822103	0.000188	1.883245	0.319030	-0.000019
1108	1.1015e+02	8.9795	19.802551	0.000197	1.965125	0.332901	-0.000020
1109	1.1025e+02	8.9704	19.791553	0.000111	1.105383	0.187257	-0.000011
1110	1.1035e+02	8.9606	19.769149	0.000225	2.251706	0.381449	-0.000023
1111	1.1044e+02	8.9514	19.748782	0.000205	2.047006	0.346772	-0.000020
1112	1.1054e+02	8.9417	19.731673	0.000172	1.719485	0.291289	-0.000017
1113	1.1064e+02	8.9285	19.710899	0.000209	2.087946	0.353708	-0.000021
1114	1.1074e+02	8.9178	19.690124	0.000209	2.087946	0.353708	-0.000021
1115	1.1084e+02	8.9111	19.670979	0.000192	1.924185	0.325966	-0.000019
1116	1.1094e+02	8.8989	19.650612	0.000205	2.047006	0.346772	-0.000020
1117	1.1104e+02	8.8895	19.633911	0.000168	1.678545	0.284353	-0.000017
1118	1.1114e+02	8.8809	19.613951	0.000201	2.006066	0.339837	-0.000020
1119	1.1124e+02	8.8705	19.592362	0.000217	2.169826	0.367578	-0.000022
1120	1.1134e+02	8.8624	19.575661	0.000168	1.678545	0.284353	-0.000017
1121	1.1144e+02	8.8484	19.558145	0.000176	1.760425	0.298224	-0.000018
1122	1.1154e+02	8.8408	19.536963	0.000213	2.128886	0.360643	-0.000021
1123	1.1164e+02	8.8306	19.514967	0.000221	2.210766	0.374514	-0.000022
1124	1.1174e+02	8.8216	19.497859	0.000172	1.719485	0.291289	-0.000017
1125	1.1184e+02	8.8126	19.481158	0.000168	1.678545	0.284353	-0.000017
1126	1.1194e+02	8.8017	19.460790	0.000205	2.047006	0.346772	-0.000020
1127	1.1204e+02	8.7923	19.437572	0.000233	2.333586	0.395320	-0.000023
1128	1.1214e+02	8.7806	19.420056	0.000176	1.760425	0.298224	-0.000018
1129	1.1224e+02	8.7744	19.396838	0.000233	2.333586	0.395320	-0.000023
1130	1.1234e+02	8.7607	19.377285	0.000197	1.965125	0.332901	-0.000020
1131	1.1244e+02	8.7551	19.351623	0.000258	2.579227	0.436933	-0.000026
1132	1.1253e+02	8.7394	19.331255	0.000205	2.047006	0.346772	-0.000020
1133	1.1263e+02	8.7338	19.309666	0.000217	2.169826	0.367578	-0.000022
1134	1.1273e+02	8.7217	19.288484	0.000213	2.128886	0.360643	-0.000021
1135	1.1283e+02	8.7128	19.264859	0.000237	2.374527	0.402256	-0.000024
1136	1.1293e+02	8.7013	19.244492	0.000205	2.047006	0.346772	-0.000020
1137	1.1303e+02	8.6958	19.223717	0.000209	2.087946	0.353708	-0.000021
1138	1.1313e+02	8.6832	19.200091	0.000237	2.374527	0.402256	-0.000024
1139	1.1323e+02	8.6723	19.174021	0.000262	2.620167	0.443868	-0.000026
1140	1.1333e+02	8.6622	19.149173	0.000250	2.497347	0.423062	-0.000025
1141	1.1343e+02	8.6518	19.127177	0.000221	2.210766	0.374514	-0.000022
1142	1.1353e+02	8.6405	19.101922	0.000254	2.538287	0.429997	-0.000025
1143	1.1363e+02	8.6301	19.077888	0.000242	2.415467	0.409191	-0.000024
1144	1.1373e+02	8.6225	19.058336	0.000197	1.965125	0.332901	-0.000020
1145	1.1383e+02	8.6113	19.033895	0.000246	2.456407	0.416127	-0.000025
1146	1.1393e+02	8.6021	19.007825	0.000262	2.620167	0.443868	-0.000026
1147	1.1403e+02	8.5924	18.980941	0.000270	2.702047	0.457739	-0.000027
1148	1.1413e+02	8.5841	18.953242	0.000278	2.783928	0.471610	-0.000028
1149	1.1423e+02	8.5726	18.926357	0.000270	2.702047	0.457739	-0.000027
1150	1.1433e+02	8.5635	18.899472	0.000270	2.702047	0.457739	-0.000027
1151	1.1442e+02	8.5533	18.873810	0.000258	2.579227	0.436933	-0.000026
1152	1.1452e+02	8.5453	18.850591	0.000233	2.333586	0.395320	-0.000023
1153	1.1462e+02	8.5336	18.824521	0.000262	2.620167	0.443868	-0.000026
1154	1.1472e+02	8.5217	18.802932	0.000217	2.169826	0.367578	-0.000022
1155	1.1482e+02	8.5120	18.776862	0.000262	2.620167	0.443868	-0.000026
1156	1.1492e+02	8.5037	18.754051	0.000229	2.292646	0.388385	-0.000023
1157	1.1502e+02	8.4914	18.725944	0.000282	2.824868	0.478546	-0.000028
1158	1.1512e+02	8.4829	18.705170	0.000209	2.087946	0.353708	-0.000021
1159	1.1522e+02	8.4727	18.681137	0.000242	2.415467	0.409191	-0.000024
1160	1.1532e+02	8.4647	18.655474	0.000258	2.579227	0.436933	-0.000026
1161	1.1542e+02	8.4570	18.631848	0.000237	2.374527	0.402256	-0.000024
1162	1.1552e+02	8.4415	18.607815	0.000242	2.415467	0.409191	-0.000024
1163	1.1562e+02	8.4351	18.582967	0.000250	2.497347	0.423062	-0.000025
1164	1.1572e+02	8.4218	18.559749	0.000233	2.333586	0.395320	-0.000023
1165	1.1582e+02	8.4143	18.535715	0.000242	2.415467	0.409191	-0.000024
1166	1.1592e+02	8.4028	18.512904	0.000229	2.292646	0.388385	-0.000023
1167	1.1602e+02	8.3942	18.494981	0.000180	1.801365	0.305159	-0.000018
1168	1.1612e+02	8.3857	18.470133	0.000250	2.497347	0.423062	-0.000025
1169	1.1622e+02	8.3744	18.447322	0.000229	2.292646	0.388385	-0.000023
1170	1.1632e+02	8.3668	18.426955	0.000205	2.047006	0.346772	-0.000020
1171	1.1642e+02	8.3540	18.402922	0.000242	2.415467	0.409191	-0.000024
1172	1.1651e+02	8.3459	18.382962	0.000201	2.006066	0.339837	-0.000020
1173	1.1661e+02	8.3338	18.356485	0.000266	2.661107	0.450804	-0.000027
1174	1.1671e+02	8.3238	18.336932	0.000197	1.965125	0.332901	-0.000020
1175	1.1681e+02	8.3151	18.314936	0.000221	2.210766	0.374514	-0.000022
1176	1.1691e+02	8.3038	18.288459	0.000266	2.661107	0.450804	-0.000027
1177	1.1701e+02	8.2931	18.265240	0.000233	2.333586	0.395320	-0.000023
1178	1.1711e+02	8.2822	18.244058	0.000213	2.128886	0.360643	-0.000021
1179	1.1721e+02	8.2743	18.224098	0.000201	2.006066	0.339837	-0.000020
1180	1.1731e+02	8.2652	18.199251	0.000250	2.497347	0.423062	-0.000025
1181	1.1741e+02	8.2549	18.175625	0.000237	2.374527	0.402256	-0.000024
1182	1.1751e+02	8.2449	18.154035	0.000217	2.169826	0.367578	-0.000022
1183	1.1761e+02	8.2316	18.129188	0.000250	2.497347	0.423062	-0.000025
1184	1.1771e+02	8.2242	18.105562	0.000237	2.374527	0.402256	-0.000024
1185	1.1781e+02	8.2150	18.087231	0.000184	1.842305	0.312095	-0.000018
1186	1.1791e+02	8.2056	18.060347	0.000270	2.702047	0.457739	-0.000027
1187	1.1801e+02	8.1940	18.039980	0.000205	2.047006	0.346772	-0.000020
1188	1.1811e+02	8.1845	18.019612	0.000205	2.047006	0.346772	-0.000020
1189	1.1821e+02	8.1741	17.995579	0.000242	2.415467	0.409191	-0.000024
1190	1.1831e+02	8.1647	17.970731	0.000250	2.497347	0.423062	-0.000025
1191	1.1841e+02	8.1545	17.953216	0.000176	1.760425	0.298224	-0.000018
1192	1.1850e+02	8.1455	17.929997	0.000233	2.333586	0.395320	-0.000023
1193	1.1860e+02	8.1342	17.906779	0.000233	2.333586	0.395320	-0.000023
1194	1.1870e+02	8.1243	17.881931	0.000250	2.497347	0.423062	-0.000025
1195	1.1880e+02	8.1172	17.861971	0.000201	2.006066	0.339837	-0.000020
1196	1.1890e+02	8.1030	17.834272	0.000278	2.783928	0.471610	-0.000028
1197	1.1900e+02	8.0930	17.812275	0.000221	2.210766	0.374514	-0.000022
1198	1.1910e+02	8.0878	17.787835	0.000246	2.456407	0.416127	-0.000025
1199	1.1920e+02	8.0750	17.767467	0.000205	2.047006	0.346772	-0.000020
1200	1.1930e+02	8.0653	17.743027	0.000246	2.456407	0.416127	-0.000025
1201	1.1940e+02	8.0547	17.720216	0.000229	2.292646	0.388385	-0.000023
1202	1.1950e+02	8.0460	17.701071	0.000192	1.924185	0.325966	-0.000019
1203	1.1960e+02	8.0357	17.675001	0.000262	2.620167	0.443868	-0.000026
1204	1.1970e+02	8.0226	17.651782	0.000233	2.333586	0.395320	-0.000023
1205	1.1980e+02	8.0152	17.629786	0.000221	2.210766	0.374514	-0.000022
1206	1.1990e+02	8.0064	17.609419	0.000205	2.047006	0.346772	-0.000020
1207	1.2000e+02	7.9954	17.582534	0.000270	2.702047	0.457739	-0.000027
1208	1.2010e+02	7.9883	17.561759	0.000209	2.087946	0.353708	-0.000021
1209	1.2020e+02	7.9749	17.538134	0.000237	2.374527	0.402256	-0.000024
1210	1.2030e+02	7.9681	17.513286	0.000250	2.497347	0.423062	-0.000025
1211	1.2039e+02	7.9559	17.488845	0.000246	2.456407	0.416127	-0.000025
1212	1.2049e+02	7.9446	17.466849	0.000221	2.210766	0.374514	-0.000022
1213	1.2059e+02	7.9379	17.446074	0.000209	2.087946	0.353708	-0.000021
1214	1.2069e+02	7.9259	17.417560	0.000287	2.865808	0.485481	-0.000029
1215	1.2079e+02	7.9140	17.395156	0.000225	2.251706	0.381449	-0.000023
1216	1.2089e+02	7.9070	17.373567	0.000217	2.169826	0.367578	-0.000022
1217	1.2099e+02	7.8949	17.350349	0.000233	2.333586	0.395320	-0.000023
1218	1.2109e+02	7.8869	17.324279	0.000262	2.620167	0.443868	-0.000026
1219	1.2119e+02	7.8774	17.301875	0.000225	2.251706	0.381449	-0.000023
1220	1.2129e+02	7.8648	17.280286	0.000217	2.169826	0.367578	-0.000022
1221	1.2139e+02	7.8570	17.254216	0.000262	2.620167	0.443868	-0.000026
1222	1.2149e+02	7.8431	17.236293	0.000180	1.801365	0.305159	-0.000018
1223	1.2159e+02	7.8376	17.212260	0.000242	2.415467	0.409191	-0.000024
1224	1.2169e+02	7.8271	17.192300	0.000201	2.006066	0.339837	-0.000020
1225	1.2179e+02	7.8155	17.169081	0.000233	2.333586	0.395320	-0.000023
1226	1.2189e+02	7.8040	17.145455	0.000237	2.374527	0.402256	-0.000024
1227	1.2199e+02	7.7959	17.125088	0.000205	2.047006	0.346772	-0.000020
1228	1.2209e+02	7.7871	17.101462	0.000237	2.374527	0.402256	-0.000024
1229	1.2219e+02	7.7773	17.078651	0.000229	2.292646	0.388385	-0.000023
1230	1.2229e+02	7.7670	17.058284	0.000205	2.047006	0.346772	-0.000020
1231	1.2239e+02	7.7572	17.038732	0.000197	1.965125	0.332901	-0.000020
1232	1.2248e+02	7.7493	17.015920	0.000229	2.292646	0.388385	-0.000023
1233	1.2258e+02	7.7399	16.997183	0.000188	1.883245	0.319030	-0.000019
1234	1.2268e+02	7.7276	16.976816	0.000205	2.047006	0.346772	-0.000020
1235	1.2278e+02	7.7161	16.952782	0.000242	2.415467	0.409191	-0.000024
1236	1.2288e+02	7.7055	16.929564	0.000233	2.333586	0.395320	-0.000023
1237	1.2298e+02	7.6963	16.904309	0.000254	2.538287	0.429997	-0.000025
1238	1.2308e+02	7.6842	16.887200	0.000172	1.719485	0.291289	-0.000017
1239	1.2318e+02	7.6788	16.864796	0.000225	2.251706	0.381449	-0.000023
1240	1.2328e+02	7.6674	16.837504	0.000274	2.742988	0.464675	-0.000027
1241	1.2338e+02	7.6564	16.815915	0.000217	2.169826	0.367578	-0.000022
1242	1.2348e+02	7.6487	16.792289	0.000237	2.374527	0.402256	-0.000024
1243	1.2358e+02	7.6366	16.769478	0.000229	2.292646	0.388385	-0.000023
1244	1.2368e+02	7.6258	16.746260	0.000233	2.333586	0.395320	-0.000023
1245	1.2378e+02	7.6208	16.723041	0.000233	2.333586	0.395320	-0.000023
1246	1.2388e+02	7.6060	16.694527	0.000287	2.865808	0.485481	-0.000029
1247	1.2398e+02	7.5954	16.671716	0.000229	2.292646	0.388385	-0.000023
1248	1.2408e+02	7.5862	16.642795	0.000291	2.906748	0.492416	-0.000029
1249	1.2418e+02	7.5768	16.618761	0.000242	2.415467	0.409191	-0.000024
1250	1.2428e+02	7.5652	16.593099	0.000258	2.579227	0.436933	-0.000026
1251	1.2438e+02	7.5564	16.567844	0.000254	2.538287	0.429997	-0.000025
1252	1.2447e+02	7.5484	16.539330	0.000287	2.865808	0.485481	-0.000029
1253	1.2457e+02	7.5368	16.512445	0.000270	2.702047	0.457739	-0.000027
1254	1.2467e+02	7.5286	16.485560	0.000270	2.702047	0.457739	-0.000027
1255	1.2477e+02	7.5179	16.460305	0.000254	2.538287	0.429997	-0.000025
1256	1.2487e+02	7.5098	16.430569	0.000299	2.988628	0.506287	-0.000030
1257	1.2497e+02	7.4993	16.403277	0.000274	2.742988	0.464675	-0.000027
1258	1.2507e+02	7.4908	16.376393	0.000270	2.702047	0.457739	-0.000027
1259	1.2517e+02	7.4796	16.350730	0.000258	2.579227	0.436933	-0.000026
1260	1.2527e+02	7.4673	16.320587	0.000303	3.029568	0.513223	-0.000030
1261	1.2537e+02	7.4575	16.297368	0.000233	2.333586	0.395320	-0.000023
1262	1.2547e+02	7.4508	16.270891	0.000266	2.661107	0.450804	-0.000027
1263	1.2557e+02	7.4376	16.242784	0.000282	2.824868	0.478546	-0.000028
1264	1.2567e+02	7.4302	16.217122	0.000258	2.579227	0.436933	-0.000026
1265	1.2577e+02	7.4192	16.187793	0.000295	2.947688	0.499352	-0.000029
1266	1.2587e+02	7.4076	16.157650	0.000303	3.029568	0.513223	-0.000030
1267	1.2597e+02	7.3966	16.129543	0.000282	2.824868	0.478546	-0.000028
1268	1.2607e+02	7.3867	16.105510	0.000242	2.415467	0.409191	-0.000024
1269	1.2617e+02	7.3785	16.073737	0.000319	3.193329	0.540965	-0.000032
1270	1.2627e+02	7.3653	16.049704	0.000242	2.415467	0.409191	-0.000024
1271	1.2636e+02	7.3592	16.020375	0.000295	2.947688	0.499352	-0.000029
1272	1.2646e+02	7.3470	15.992269	0.000282	2.824868	0.478546	-0.000028
1273	1.2656e+02	7.3397	15.964977	0.000274	2.742988	0.464675	-0.000027
1274	1.2666e+02	7.3284	15.934833	0.000303	3.029568	0.513223	-0.000030
1275	1.2676e+02	7.3199	15.903875	0.000311	3.111449	0.527094	-0.000031
1276	1.2686e+02	7.3075	15.876583	0.000274	2.742988	0.464675	-0.000027
1277	1.2696e+02	7.2963	15.848884	0.000278	2.783928	0.471610	-0.000028
1278	1.2706e+02	7.2928	15.819555	0.000295	2.947688	0.499352	-0.000029
1279	1.2716e+02	7.2778	15.786968	0.000328	3.275209	0.554835	-0.000033
1280	1.2726e+02	7.2692	15.760491	0.000266	2.661107	0.450804	-0.000027
1281	1.2736e+02	7.2594	15.729125	0.000315	3.152389	0.534029	-0.000032
1282	1.2746e+02	7.2527	15.698982	0.000303	3.029568	0.513223	-0.000030
1283	1.2756e+02	7.2405	15.668431	0.000307	3.070508	0.520158	-0.000031
1284	1.2766e+02	7.2280	15.636659	0.000319	3.193329	0.540965	-0.000032
1285	1.2776e+02	7.2214	15.610996	0.000258	2.579227	0.436933	-0.000026
1286	1.2786e+02	7.2096	15.582482	0.000287	2.865808	0.485481	-0.000029
1287	1.2796e+02	7.2002	15.553153	0.000295	2.947688	0.499352	-0.000029
1288	1.2806e+02	7.1889	15.521788	0.000315	3.152389	0.534029	-0.000032
1289	1.2816e+02	7.1804	15.493274	0.000287	2.865808	0.485481	-0.000029
1290	1.2826e+02	7.1680	15.464760	0.000287	2.865808	0.485481	-0.000029
1291	1.2835e+02	7.1598	15.434617	0.000303	3.029568	0.513223	-0.000030
1292	1.2845e+02	7.1500	15.406510	0.000282	2.824868	0.478546	-0.000028
1293	1.2855e+02	7.1398	15.373108	0.000336	3.357089	0.568706	-0.000034
1294	1.2865e+02	7.1300	15.346631	0.000266	2.661107	0.450804	-0.000027
1295	1.2875e+02	7.1212	15.314451	0.000323	3.234269	0.547900	-0.000032
1296	1.2885e+02	7.1101	15.287566	0.000270	2.702047	0.457739	-0.000027
1297	1.2895e+02	7.0991	15.254164	0.000336	3.357089	0.568706	-0.000034
1298	1.2905e+02	7.0917	15.224021	0.000303	3.029568	0.513223	-0.000030
1299	1.2915e+02	7.0799	15.194692	0.000295	2.947688	0.499352	-0.000029
1300	1.2925e+02	7.0683	15.165363	0.000295	2.947688	0.499352	-0.000029
1301	1.2935e+02	7.0610	15.133183	0.000323	3.234269	0.547900	-0.000032
1302	1.2945e+02	7.0516	15.103040	0.000303	3.029568	0.513223	-0.000030
1303	1.2955e+02	7.0399	15.072082	0.000311	3.111449	0.527094	-0.000031
1304	1.2965e+02	7.0326	15.040309	0.000319	3.193329	0.540965	-0.000032
1305	1.2975e+02	7.0200	15.009758	0.000307	3.070508	0.520158	-0.000031
1306	1.2985e+02	7.0084	14.977986	0.000319	3.193329	0.540965	-0.000032
1307	1.2995e+02	6.9994	14.944584	0.000336	3.357089	0.568706	-0.000034
1308	1.3005e+02	6.9878	14.915255	0.000295	2.947688	0.499352	-0.000029
1309	1.3015e+02	6.9798	14.882667	0.000328	3.275209	0.554835	-0.000033
1310	1.3025e+02	6.9704	14.848858	0.000340	3.398029	0.575642	-0.000034
1311	1.3034e+02	6.9633	14.817493	0.000315	3.152389	0.534029	-0.000032
1312	1.3044e+02	6.9531	14.784091	0.000336	3.357089	0.568706	-0.000034
1313	1.3054e+02	6.9408	14.751503	0.000328	3.275209	0.554835	-0.000033
1314	1.3064e+02	6.9289	14.720952	0.000307	3.070508	0.520158	-0.000031
1315	1.3074e+02	6.9204	14.681440	0.000397	3.971191	0.672738	-0.000040
1316	1.3084e+02	6.9094	14.648853	0.000328	3.275209	0.554835	-0.000033
1317	1.3094e+02	6.9007	14.612192	0.000368	3.684610	0.624190	-0.000037
1318	1.3104e+02	6.8918	14.583271	0.000291	2.906748	0.492416	-0.000029
1319	1.3114e+02	6.8787	14.551091	0.000323	3.234269	0.547900	-0.000032
1320	1.3124e+02	6.8692	14.519318	0.000319	3.193329	0.540965	-0.000032
1321	1.3134e+02	6.8591	14.482657	0.000368	3.684610	0.624190	-0.000037
1322	1.3144e+02	6.8511	14.453328	0.000295	2.947688	0.499352	-0.000029
1323	1.3154e+02	6.8408	14.423185	0.000303	3.029568	0.513223	-0.000030
1324	1.3164e+02	6.8300	14.387339	0.000360	3.602730	0.610319	-0.000036
1325	1.3174e+02	6.8223	14.354752	0.000328	3.275209	0.554835	-0.000033
1326	1.3184e+02	6.8140	14.320535	0.000344	3.438969	0.582577	-0.000034
1327	1.3194e+02	6.7994	14.290391	0.000303	3.029568	0.513223	-0.000030
1328	1.3204e+02	6.7903	14.255767	0.000348	3.479910	0.589513	-0.000035
1329	1.3214e+02	6.7812	14.225624	0.000303	3.029568	0.513223	-0.000030
1330	1.3224e+02	6.7721	14.198739	0.000270	2.702047	0.457739	-0.000027
1331	1.3234e+02	6.7632	14.164115	0.000348	3.479910	0.589513	-0.000035
1332	1.3243e+02	6.7527	14.136416	0.000278	2.783928	0.471610	-0.000028
1333	1.3253e+02	6.7413	14.102199	0.000344	3.438969	0.582577	-0.000034
1334	1.3263e+02	6.7324	14.078981	0.000233	2.333586	0.395320	-0.000023
1335	1.3273e+02	6.7245	14.045171	0.000340	3.398029	0.575642	-0.000034
1336	1.3283e+02	6.7130	14.015028	0.000303	3.029568	0.513223	-0.000030
1337	1.3293e+02	6.7049	13.984884	0.000303	3.029568	0.513223	-0.000030
1338	1.3303e+02	6.6920	13.954334	0.000307	3.070508	0.520158	-0.000031
1339	1.3313e+02	6.6827	13.924190	0.000303	3.029568	0.513223	-0.000030
1340	1.3323e+02	6.6732	13.895269	0.000291	2.906748	0.492416	-0.000029
1341	1.3333e+02	6.6613	13.865940	0.000295	2.947688	0.499352	-0.000029
1342	1.3343e+02	6.6506	13.835797	0.000303	3.029568	0.513223	-0.000030
1343	1.3353e+02	6.6424	13.806061	0.000299	2.988628	0.506287	-0.000030
1344	1.3363e+02	6.6312	13.777954	0.000282	2.824868	0.478546	-0.000028
1345	1.3373e+02	6.6211	13.745774	0.000323	3.234269	0.547900	-0.000032
1346	1.3383e+02	6.6126	13.714409	0.000315	3.152389	0.534029	-0.000032
1347	1.3393e+02	6.6056	13.689561	0.000250	2.497347	0.423062	-0.000025
1348	1.3403e+02	6.5929	13.659418	0.000303	3.029568	0.513223	-0.000030
1349	1.3413e+02	6.5838	13.630496	0.000291	2.906748	0.492416	-0.000029
1350	1.3423e+02	6.5746	13.597094	0.000336	3.357089	0.568706	-0.000034
1351	1.3432e+02	6.5630	13.571432	0.000258	2.579227	0.436933	-0.000026
1352	1.3442e+02	6.5545	13.541288	0.000303	3.029568	0.513223	-0.000030
1353	1.3452e+02	6.5456	13.511552	0.000299	2.988628	0.506287	-0.000030
1354	1.3462e+02	6.5331	13.481409	0.000303	3.029568	0.513223	-0.000030
1355	1.3472e+02	6.5218	13.453710	0.000278	2.783928	0.471610	-0.000028
1356	1.3482e+02	6.5121	13.421122	0.000328	3.275209	0.554835	-0.000033
1357	1.3492e+02	6.5067	13.391386	0.000299	2.988628	0.506287	-0.000030
1358	1.3502e+02	6.4912	13.361650	0.000299	2.988628	0.506287	-0.000030
1359	1.3512e+02	6.4828	13.334358	0.000274	2.742988	0.464675	-0.000027
1360	1.3522e+02	6.4735	13.310325	0.000242	2.415467	0.409191	-0.000024
1361	1.3532e+02	6.4642	13.282626	0.000278	2.783928	0.471610	-0.000028
1362	1.3542e+02	6.4533	13.248409	0.000344	3.438969	0.582577	-0.000034
1363	1.3552e+02	6.4442	13.220710	0.000278	2.783928	0.471610	-0.000028
1364	1.3562e+02	6.4332	13.190974	0.000299	2.988628	0.506287	-0.000030
1365	1.3572e+02	6.4240	13.166941	0.000242	2.415467	0.409191	-0.000024
1366	1.3582e+02	6.4140	13.132317	0.000348	3.479910	0.589513	-0.000035
1367	1.3592e+02	6.4050	13.101766	0.000307	3.070508	0.520158	-0.000031
1368	1.3602e+02	6.3921	13.075289	0.000266	2.661107	0.450804	-0.000027
1369	1.3612e+02	6.3819	13.045960	0.000295	2.947688	0.499352	-0.000029
1370	1.3622e+02	6.3726	13.019483	0.000266	2.661107	0.450804	-0.000027
1371	1.3631e+02	6.3660	12.985673	0.000340	3.398029	0.575642	-0.000034
1372	1.3641e+02	6.3525	12.960418	0.000254	2.538287	0.429997	-0.000025
1373	1.3651e+02	6.3444	12.931904	0.000287	2.865808	0.485481	-0.000029
1374	1.3661e+02	6.3344	12.899724	0.000323	3.234269	0.547900	-0.000032
1375	1.3671e+02	6.3242	12.873654	0.000262	2.620167	0.443868	-0.000026
1376	1.3681e+02	6.3128	12.841067	0.000328	3.275209	0.554835	-0.000033
1377	1.3691e+02	6.3027	12.814182	0.000270	2.702047	0.457739	-0.000027
1378	1.3701e+02	6.2932	12.788519	0.000258	2.579227	0.436933	-0.000026
1379	1.3711e+02	6.2829	12.756339	0.000323	3.234269	0.547900	-0.000032
1380	1.3721e+02	6.2746	12.725381	0.000311	3.111449	0.527094	-0.000031
1381	1.3731e+02	6.2640	12.694831	0.000307	3.070508	0.520158	-0.000031
1382	1.3741e+02	6.2543	12.668353	0.000266	2.661107	0.450804	-0.000027
1383	1.3751e+02	6.2479	12.638617	0.000299	2.988628	0.506287	-0.000030
1384	1.3761e+02	6.2331	12.609289	0.000295	2.947688	0.499352	-0.000029
1385	1.3771e+02	6.2267	12.580775	0.000287	2.865808	0.485481	-0.000029
1386	1.3781e+02	6.2142	12.554297	0.000266	2.661107	0.450804	-0.000027
1387	1.3791e+02	6.2051	12.525376	0.000291	2.906748	0.492416	-0.000029
1388	1.3801e+02	6.1953	12.496862	0.000287	2.865808	0.485481	-0.000029
1389	1.3811e+02	6.1848	12.466719	0.000303	3.029568	0.513223	-0.000030
1390	1.3821e+02	6.1767	12.442686	0.000242	2.415467	0.409191	-0.000024
1391	1.3831e+02	6.1657	12.414172	0.000287	2.865808	0.485481	-0.000029
1392	1.3840e+02	6.1568	12.384436	0.000299	2.988628	0.506287	-0.000030
1393	1.3850e+02	6.1454	12.353478	0.000311	3.111449	0.527094	-0.000031
1394	1.3860e+02	6.1389	12.328630	0.000250	2.497347	0.423062	-0.000025
1395	1.3870e+02	6.1250	12.301745	0.000270	2.702047	0.457739	-0.000027
1396	1.3880e+02	6.1173	12.275268	0.000266	2.661107	0.450804	-0.000027
1397	1.3890e+02	6.1053	12.245939	0.000295	2.947688	0.499352	-0.000029
1398	1.3900e+02	6.0938	12.219869	0.000262	2.620167	0.443868	-0.000026
1399	1.3910e+02	6.0873	12.197058	0.000229	2.292646	0.388385	-0.000023
1400	1.3920e+02	6.0743	12.170173	0.000270	2.702047	0.457739	-0.000027
1401	1.3930e+02	6.0647	12.143289	0.000270	2.702047	0.457739	-0.000027
1402	1.3940e+02	6.0558	12.116812	0.000266	2.661107	0.450804	-0.000027
1403	1.3950e+02	6.0454	12.089927	0.000270	2.702047	0.457739	-0.000027
1404	1.3960e+02	6.0355	12.058154	0.000319	3.193329	0.540965	-0.000032
1405	1.3970e+02	6.0264	12.034936	0.000233	2.333586	0.395320	-0.000023
1406	1.3980e+02	6.0169	12.004792	0.000303	3.029568	0.513223	-0.000030
1407	1.3990e+02	6.0059	11.976686	0.000282	2.824868	0.478546	-0.000028
1408	1.4000e+02	5.9940	11.946542	0.000303	3.029568	0.513223	-0.000030
1409	1.4010e+02	5.9863	11.920065	0.000266	2.661107	0.450804	-0.000027
1410	1.4020e+02	5.9750	11.893995	0.000262	2.620167	0.443868	-0.000026
1411	1.4029e+02	5.9657	11.863444	0.000307	3.070508	0.520158	-0.000031
1412	1.4039e+02	5.9582	11.835338	0.000282	2.824868	0.478546	-0.000028
1413	1.4049e+02	5.9460	11.804787	0.000307	3.070508	0.520158	-0.000031
1414	1.4059e+02	5.9366	11.771792	0.000332	3.316149	0.561771	-0.000033
1415	1.4069e+02	5.9287	11.743686	0.000282	2.824868	0.478546	-0.000028
1416	1.4079e+02	5.9151	11.712728	0.000311	3.111449	0.527094	-0.000031
1417	1.4089e+02	5.9055	11.681362	0.000315	3.152389	0.534029	-0.000032
1418	1.4099e+02	5.8964	11.646738	0.000348	3.479910	0.589513	-0.000035
1419	1.4109e+02	5.8880	11.615373	0.000315	3.152389	0.534029	-0.000032
1420	1.4119e+02	5.8756	11.586859	0.000287	2.865808	0.485481	-0.000029
1421	1.4129e+02	5.8643	11.555494	0.000315	3.152389	0.534029	-0.000032
1422	1.4139e+02	5.8549	11.520462	0.000352	3.520850	0.596448	-0.000035
1423	1.4149e+02	5.8469	11.489504	0.000311	3.111449	0.527094	-0.000031
1424	1.4159e+02	5.8372	11.456102	0.000336	3.357089	0.568706	-0.000034
1425	1.4169e+02	5.8279	11.425551	0.000307	3.070508	0.520158	-0.000031
1426	1.4179e+02	5.8175	11.395001	0.000307	3.070508	0.520158	-0.000031
1427	1.4189e+02	5.8061	11.360784	0.000344	3.438969	0.582577	-0.000034
1428	1.4199e+02	5.7972	11.330233	0.000307	3.070508	0.520158	-0.000031
1429	1.4209e+02	5.7864	11.297646	0.000328	3.275209	0.554835	-0.000033
1430	1.4219e+02	5.7760	11.267095	0.000307	3.070508	0.520158	-0.000031
1431	1.4228e+02	5.7662	11.233286	0.000340	3.398029	0.575642	-0.000034
1432	1.4238e+02	5.7568	11.202328	0.000311	3.111449	0.527094	-0.000031
1433	1.4248e+02	5.7459	11.172592	0.000299	2.988628	0.506287	-0.000030
1434	1.4258e+02	5.7378	11.137967	0.000348	3.479910	0.589513	-0.000035
1435	1.4268e+02	5.7273	11.107824	0.000303	3.029568	0.513223	-0.000030
1436	1.4278e+02	5.7177	11.071163	0.000368	3.684610	0.624190	-0.000037
1437	1.4288e+02	5.7081	11.035724	0.000356	3.561790	0.603384	-0.000036
1438	1.4298e+02	5.6988	11.005174	0.000307	3.070508	0.520158	-0.000031
1439	1.4308e+02	5.6863	10.970550	0.000348	3.479910	0.589513	-0.000035
1440	1.4318e+02	5.6774	10.935518	0.000352	3.520850	0.596448	-0.000035
1441	1.4328e+02	5.6663	10.905375	0.000303	3.029568	0.513223	-0.000030
1442	1.4338e+02	5.6580	10.869121	0.000364	3.643670	0.617254	-0.000036
1443	1.4348e+02	5.6490	10.838163	0.000311	3.111449	0.527094	-0.000031
1444	1.4358e+02	5.6377	10.805576	0.000328	3.275209	0.554835	-0.000033
1445	1.4368e+02	5.6271	10.770137	0.000356	3.561790	0.603384	-0.000036
1446	1.4378e+02	5.6190	10.736328	0.000340	3.398029	0.575642	-0.000034
1447	1.4388e+02	5.6089	10.704148	0.000323	3.234269	0.547900	-0.000032
1448	1.4398e+02	5.5970	10.667894	0.000364	3.643670	0.617254	-0.000036
1449	1.4408e+02	5.5901	10.635307	0.000328	3.275209	0.554835	-0.000033
1450	1.4418e+02	5.5762	10.599053	0.000364	3.643670	0.617254	-0.000036
1451	1.4428e+02	5.5694	10.566058	0.000332	3.316149	0.561771	-0.000033
1452	1.4437e+02	5.5556	10.531842	0.000344	3.438969	0.582577	-0.000034
1453	1.4447e+02	5.5503	10.500476	0.000315	3.152389	0.534029	-0.000032
1454	1.4457e+02	5.5383	10.462186	0.000385	3.848371	0.651932	-0.000038
1455	1.4467e+02	5.5297	10.430006	0.000323	3.234269	0.547900	-0.000032
1456	1.4477e+02	5.5151	10.398233	0.000319	3.193329	0.540965	-0.000032
1457	1.4487e+02	5.5085	10.364017	0.000344	3.438969	0.582577	-0.000034
1458	1.4497e+02	5.5004	10.328578	0.000356	3.561790	0.603384	-0.000036
1459	1.4507e+02	5.4856	10.292324	0.000364	3.643670	0.617254	-0.000036
1460	1.4517e+02	5.4806	10.258515	0.000340	3.398029	0.575642	-0.000034
1461	1.4527e+02	5.4682	10.223891	0.000348	3.479910	0.589513	-0.000035
1462	1.4537e+02	5.4598	10.188045	0.000360	3.602730	0.610319	-0.000036
1463	1.4547e+02	5.4487	10.154642	0.000336	3.357089	0.568706	-0.000034
1464	1.4557e+02	5.4408	10.122055	0.000328	3.275209	0.554835	-0.000033
1465	1.4567e+02	5.4272	10.086616	0.000356	3.561790	0.603384	-0.000036
1466	1.4577e+02	5.4192	10.051992	0.000348	3.479910	0.589513	-0.000035
1467	1.4587e+02	5.4096	10.018183	0.000340	3.398029	0.575642	-0.000034
1468	1.4597e+02	5.4004	9.981115	0.000373	3.725550	0.631125	-0.000037
1469	1.4607e+02	5.3904	9.946898	0.000344	3.438969	0.582577	-0.000034
1470	1.4617e+02	5.3783	9.911866	0.000352	3.520850	0.596448	-0.000035
1471	1.4626e+02	5.3681	9.876835	0.000352	3.520850	0.596448	-0.000035
1472	1.4636e+02	5.3576	9.841396	0.000356	3.561790	0.603384	-0.000036
1473	1.4646e+02	5.3473	9.804328	0.000373	3.725550	0.631125	-0.000037
1474	1.4656e+02	5.3394	9.769296	0.000352	3.520850	0.596448	-0.000035
1475	1.4666e+02	5.3321	9.731414	0.000381	3.807430	0.644996	-0.000038
1476	1.4676e+02	5.3194	9.694345	0.000373	3.725550	0.631125	-0.000037
1477	1.4686e+02	5.3130	9.657277	0.000373	3.725550	0.631125	-0.000037
1478	1.4696e+02	5.2998	9.620616	0.000368	3.684610	0.624190	-0.000037
1479	1.4706e+02	5.2886	9.585992	0.000348	3.479910	0.589513	-0.000035
1480	1.4716e+02	5.2779	9.547295	0.000389	3.889311	0.658867	-0.000039
1481	1.4726e+02	5.2687	9.509412	0.000381	3.807430	0.644996	-0.000038
1482	1.4736e+02	5.2601	9.469085	0.000405	4.053071	0.686609	-0.000041
1483	1.4746e+02	5.2486	9.432831	0.000364	3.643670	0.617254	-0.000036
1484	1.4756e+02	5.2419	9.392097	0.000409	4.094011	0.693544	-0.000041
1485	1.4766e+02	5.2306	9.353807	0.000385	3.848371	0.651932	-0.000038
1486	1.4776e+02	5.2215	9.318368	0.000356	3.561790	0.603384	-0.000036
1487	1.4786e+02	5.2093	9.282522	0.000360	3.602730	0.610319	-0.000036
1488	1.4796e+02	5.2007	9.240973	0.000418	4.175892	0.707415	-0.000042
1489	1.4806e+02	5.1897	9.202683	0.000385	3.848371	0.651932	-0.000038
1490	1.4816e+02	5.1785	9.166022	0.000368	3.684610	0.624190	-0.000037
1491	1.4825e+02	5.1717	9.127325	0.000389	3.889311	0.658867	-0.000039
1492	1.4835e+02	5.1615	9.092293	0.000352	3.520850	0.596448	-0.000035
1493	1.4845e+02	5.1500	9.058891	0.000336	3.357089	0.568706	-0.000034
1494	1.4855e+02	5.1403	9.021008	0.000381	3.807430	0.644996	-0.000038
1495	1.4865e+02	5.1276	8.981903	0.000393	3.930251	0.665803	-0.000039
1496	1.4875e+02	5.1197	8.943613	0.000385	3.848371	0.651932	-0.000038
1497	1.4885e+02	5.1118	8.915506	0.000282	2.824868	0.478546	-0.000028
1498	1.4895e+02	5.0986	8.874365	0.000413	4.134951	0.700480	-0.000041
1499	1.4905e+02	5.0915	8.842185	0.000323	3.234269	0.547900	-0.000032
1500	1.4915e+02	5.0777	8.805931	0.000364	3.643670	0.617254	-0.000036
1501	1.4925e+02	5.0706	8.768048	0.000381	3.807430	0.644996	-0.000038
1502	1.4935e+02	5.0625	8.735868	0.000323	3.234269	0.547900	-0.000032
1503	1.4945e+02	5.0511	8.704096	0.000319	3.193329	0.540965	-0.000032
1504	1.4955e+02	5.0399	8.670694	0.000336	3.357089	0.568706	-0.000034
1505	1.4965e+02	5.0327	8.635255	0.000356	3.561790	0.603384	-0.000036
1506	1.4975e+02	5.0198	8.601038	0.000344	3.438969	0.582577	-0.000034
1507	1.4985e+02	5.0114	8.566007	0.000352	3.520850	0.596448	-0.000035
1508	1.4995e+02	4.9998	8.533826	0.000323	3.234269	0.547900	-0.000032
1509	1.5005e+02	4.9921	8.501239	0.000328	3.275209	0.554835	-0.000033
1510	1.5015e+02	4.9796	8.466615	0.000348	3.479910	0.589513	-0.000035
1511	1.5025e+02	4.9683	8.429954	0.000368	3.684610	0.624190	-0.000037
1512	1.5034e+02	4.9638	8.392479	0.000377	3.766490	0.638061	-0.000038
1513	1.5044e+02	4.9525	8.362743	0.000299	2.988628	0.506287	-0.000030
1514	1.5054e+02	4.9397	8.326082	0.000368	3.684610	0.624190	-0.000037
1515	1.5064e+02	4.9288	8.295124	0.000311	3.111449	0.527094	-0.000031
1516	1.5074e+02	4.9227	8.260092	0.000352	3.520850	0.596448	-0.000035
1517	1.5084e+02	4.9095	8.225875	0.000344	3.438969	0.582577	-0.000034
1518	1.5094e+02	4.8994	8.191659	0.000344	3.438969	0.582577	-0.000034
1519	1.5104e+02	4.8904	8.158257	0.000336	3.357089	0.568706	-0.000034
1520	1.5114e+02	4.8806	8.122818	0.000356	3.561790	0.603384	-0.000036
1521	1.5124e+02	4.8719	8.088601	0.000344	3.438969	0.582577	-0.000034
1522	1.5134e+02	4.8634	8.057643	0.000311	3.111449	0.527094	-0.000031
1523	1.5144e+02	4.8539	8.025463	0.000323	3.234269	0.547900	-0.000032
1524	1.5154e+02	4.8423	7.987987	0.000377	3.766490	0.638061	-0.000038
1525	1.5164e+02	4.8286	7.958659	0.000295	2.947688	0.499352	-0.000029
1526	1.5174e+02	4.8211	7.924035	0.000348	3.479910	0.589513	-0.000035
1527	1.5184e+02	4.8110	7.886152	0.000381	3.807430	0.644996	-0.000038
1528	1.5194e+02	4.8015	7.856823	0.000295	2.947688	0.499352	-0.000029
1529	1.5204e+02	4.7935	7.818940	0.000381	3.807430	0.644996	-0.000038
1530	1.5214e+02	4.7826	7.785946	0.000332	3.316149	0.561771	-0.000033
1531	1.5224e+02	4.7700	7.753765	0.000323	3.234269	0.547900	-0.000032
1532	1.5233e+02	4.7653	7.717919	0.000360	3.602730	0.610319	-0.000036
1533	1.5243e+02	4.7536	7.688998	0.000291	2.906748	0.492416	-0.000029
1534	1.5253e+02	4.7443	7.652337	0.000368	3.684610	0.624190	-0.000037
1535	1.5263e+02	4.7348	7.620157	0.000323	3.234269	0.547900	-0.000032
1536	1.5273e+02	4.7215	7.584718	0.000356	3.561790	0.603384	-0.000036
1537	1.5283e+02	4.7143	7.552538	0.000323	3.234269	0.547900	-0.000032
1538	1.5293e+02	4.7041	7.515470	0.000373	3.725550	0.631125	-0.000037
1539	1.5303e+02	4.6931	7.485734	0.000299	2.988628	0.506287	-0.000030
1540	1.5313e+02	4.6810	7.451110	0.000348	3.479910	0.589513	-0.000035
1541	1.5323e+02	4.6724	7.419337	0.000319	3.193329	0.540965	-0.000032
1542	1.5333e+02	4.6644	7.383491	0.000360	3.602730	0.610319	-0.000036
1543	1.5343e+02	4.6552	7.349682	0.000340	3.398029	0.575642	-0.000034
1544	1.5353e+02	4.6431	7.314243	0.000356	3.561790	0.603384	-0.000036
1545	1.5363e+02	4.6310	7.280841	0.000336	3.357089	0.568706	-0.000034
1546	1.5373e+02	4.6213	7.243365	0.000377	3.766490	0.638061	-0.000038
1547	1.5383e+02	4.6130	7.213629	0.000299	2.988628	0.506287	-0.000030
1548	1.5393e+02	4.6026	7.181042	0.000328	3.275209	0.554835	-0.000033
1549	1.5403e+02	4.5923	7.144788	0.000364	3.643670	0.617254	-0.000036
1550	1.5413e+02	4.5807	7.110979	0.000340	3.398029	0.575642	-0.000034
1551	1.5422e+02	4.5742	7.079206	0.000319	3.193329	0.540965	-0.000032
1552	1.5432e+02	4.5620	7.042545	0.000368	3.684610	0.624190	-0.000037
1553	1.5442e+02	4.5541	7.014031	0.000287	2.865808	0.485481	-0.000029
1554	1.5452e+02	4.5396	6.975334	0.000389	3.889311	0.658867	-0.000039
1555	1.5462e+02	4.5321	6.943968	0.000315	3.152389	0.534029	-0.000032
1556	1.5472e+02	4.5251	6.910566	0.000336	3.357089	0.568706	-0.000034
1557	1.5482e+02	4.5126	6.880016	0.000307	3.070508	0.520158	-0.000031
1558	1.5492e+02	4.5031	6.845799	0.000344	3.438969	0.582577	-0.000034
1559	1.5502e+02	4.4939	6.813212	0.000328	3.275209	0.554835	-0.000033
1560	1.5512e+02	4.4843	6.780217	0.000332	3.316149	0.561771	-0.000033
1561	1.5522e+02	4.4735	6.749259	0.000311	3.111449	0.527094	-0.000031
1562	1.5532e+02	4.4646	6.718301	0.000311	3.111449	0.527094	-0.000031
1563	1.5542e+02	4.4570	6.685306	0.000332	3.316149	0.561771	-0.000033
1564	1.5552e+02	4.4430	6.655977	0.000295	2.947688	0.499352	-0.000029
1565	1.5562e+02	4.4324	6.622983	0.000332	3.316149	0.561771	-0.000033
1566	1.5572e+02	4.4247	6.591210	0.000319	3.193329	0.540965	-0.000032
1567	1.5582e+02	4.4137	6.561881	0.000295	2.947688	0.499352	-0.000029
1568	1.5592e+02	4.4051	6.532552	0.000295	2.947688	0.499352	-0.000029
1569	1.5602e+02	4.3915	6.499150	0.000336	3.357089	0.568706	-0.000034
1570	1.5612e+02	4.3838	6.466156	0.000332	3.316149	0.561771	-0.000033
1571	1.5622e+02	4.3731	6.437234	0.000291	2.906748	0.492416	-0.000029
1572	1.5631e+02	4.3643	6.400574	0.000368	3.684610	0.624190	-0.000037
1573	1.5641e+02	4.3535	6.371652	0.000291	2.906748	0.492416	-0.000029
1574	1.5651e+02	4.3430	6.335399	0.000364	3.643670	0.617254	-0.000036
1575	1.5661e+02	4.3314	6.301182	0.000344	3.438969	0.582577	-0.000034
1576	1.5671e+02	4.3250	6.267780	0.000336	3.357089	0.568706	-0.000034
1577	1.5681e+02	4.3136	6.232341	0.000356	3.561790	0.603384	-0.000036
1578	1.5691e+02	4.3027	6.204234	0.000282	2.824868	0.478546	-0.000028
1579	1.5701e+02	4.2953	6.170425	0.000340	3.398029	0.575642	-0.000034
1580	1.5711e+02	4.2826	6.134579	0.000360	3.602730	0.610319	-0.000036
1581	1.5721e+02	4.2755	6.098733	0.000360	3.602730	0.610319	-0.000036
1582	1.5731e+02	4.2650	6.062479	0.000364	3.643670	0.617254	-0.000036
1583	1.5741e+02	4.2536	6.028262	0.000344	3.438969	0.582577	-0.000034
1584	1.5751e+02	4.2433	5.994453	0.000340	3.398029	0.575642	-0.000034
1585	1.5761e+02	4.2351	5.957792	0.000368	3.684610	0.624190	-0.000037
1586	1.5771e+02	4.2254	5.919095	0.000389	3.889311	0.658867	-0.000039
1587	1.5781e+02	4.2191	5.884063	0.000352	3.520850	0.596448	-0.000035
1588	1.5791e+02	4.2071	5.848217	0.000360	3.602730	0.610319	-0.000036
1589	1.5801e+02	4.1936	5.811556	0.000368	3.684610	0.624190	-0.000037
1590	1.5811e+02	4.1860	5.772044	0.000397	3.971191	0.672738	-0.000040
1591	1.5821e+02	4.1723	5.736605	0.000356	3.561790	0.603384	-0.000036
1592	1.5830e+02	4.1631	5.702388	0.000344	3.438969	0.582577	-0.000034
1593	1.5840e+02	4.1566	5.662469	0.000401	4.012131	0.679673	-0.000040
1594	1.5850e+02	4.1470	5.628252	0.000344	3.438969	0.582577	-0.000034
1595	1.5860e+02	4.1353	5.589147	0.000393	3.930251	0.665803	-0.000039
1596	1.5870e+02	4.1281	5.556152	0.000332	3.316149	0.561771	-0.000033
1597	1.5880e+02	4.1153	5.515418	0.000409	4.094011	0.693544	-0.000041
1598	1.5890e+02	4.1061	5.479572	0.000360	3.602730	0.610319	-0.000036
1599	1.5900e+02	4.0960	5.442911	0.000368	3.684610	0.624190	-0.000037
1600	1.5910e+02	4.0845	5.405843	0.000373	3.725550	0.631125	-0.000037
1601	1.5920e+02	4.0770	5.366738	0.000393	3.930251	0.665803	-0.000039
1602	1.5930e+02	4.0641	5.330077	0.000368	3.684610	0.624190	-0.000037
1603	1.5940e+02	4.0562	5.291787	0.000385	3.848371	0.651932	-0.000038
1604	1.5950e+02	4.0438	5.254719	0.000373	3.725550	0.631125	-0.000037
1605	1.5960e+02	4.0365	5.217651	0.000373	3.725550	0.631125	-0.000037
1606	1.5970e+02	4.0238	5.176509	0.000413	4.134951	0.700480	-0.000041
1607	1.5980e+02	4.0159	5.138626	0.000381	3.807430	0.644996	-0.000038
1608	1.5990e+02	4.0030	5.100336	0.000385	3.848371	0.651932	-0.000038
1609	1.6000e+02	3.9949	5.061639	0.000389	3.889311	0.658867	-0.000039
1610	1.6010e+02	3.9875	5.024163	0.000377	3.766490	0.638061	-0.000038
1611	1.6019e+02	3.9795	4.985873	0.000385	3.848371	0.651932	-0.000038
1612	1.6029e+02	3.9656	4.945953	0.000401	4.012131	0.679673	-0.000040
1613	1.6039e+02	3.9604	4.911329	0.000348	3.479910	0.589513	-0.000035
1614	1.6049e+02	3.9465	4.869373	0.000422	4.216832	0.714351	-0.000042
1615	1.6059e+02	3.9355	4.833119	0.000364	3.643670	0.617254	-0.000036
1616	1.6069e+02	3.9242	4.789534	0.000438	4.380592	0.742092	-0.000044
1617	1.6079e+02	3.9156	4.751244	0.000385	3.848371	0.651932	-0.000038
1618	1.6089e+02	3.9063	4.712546	0.000389	3.889311	0.658867	-0.000039
1619	1.6099e+02	3.8970	4.669775	0.000430	4.298712	0.728222	-0.000043
1620	1.6109e+02	3.8878	4.631485	0.000385	3.848371	0.651932	-0.000038
1621	1.6119e+02	3.8765	4.593602	0.000381	3.807430	0.644996	-0.000038
1622	1.6129e+02	3.8682	4.554904	0.000389	3.889311	0.658867	-0.000039
1623	1.6139e+02	3.8581	4.517429	0.000377	3.766490	0.638061	-0.000038
1624	1.6149e+02	3.8451	4.477509	0.000401	4.012131	0.679673	-0.000040
1625	1.6159e+02	3.8352	4.435960	0.000418	4.175892	0.707415	-0.000042
1626	1.6169e+02	3.8278	4.396041	0.000401	4.012131	0.679673	-0.000040
1627	1.6179e+02	3.8168	4.362639	0.000336	3.357089	0.568706	-0.000034
1628	1.6189e+02	3.8107	4.320682	0.000422	4.216832	0.714351	-0.000042
1629	1.6199e+02	3.7976	4.279134	0.000418	4.175892	0.707415	-0.000042
1630	1.6209e+02	3.7855	4.237992	0.000413	4.134951	0.700480	-0.000041
1631	1.6219e+02	3.7765	4.202146	0.000360	3.602730	0.610319	-0.000036
1632	1.6228e+02	3.7668	4.162226	0.000401	4.012131	0.679673	-0.000040
1633	1.6238e+02	3.7580	4.124751	0.000377	3.766490	0.638061	-0.000038
1634	1.6248e+02	3.7457	4.080350	0.000446	4.462472	0.755963	-0.000045
1635	1.6258e+02	3.7387	4.042467	0.000381	3.807430	0.644996	-0.000038
1636	1.6268e+02	3.7283	4.002955	0.000397	3.971191	0.672738	-0.000040
1637	1.6278e+02	3.7182	3.962628	0.000405	4.053071	0.686609	-0.000041
1638	1.6288e+02	3.7086	3.923523	0.000393	3.930251	0.665803	-0.000039
1639	1.6298e+02	3.6982	3.879938	0.000438	4.380592	0.742092	-0.000044
1640	1.6308e+02	3.6898	3.836759	0.000434	4.339652	0.735157	-0.000043
1641	1.6318e+02	3.6784	3.798062	0.000389	3.889311	0.658867	-0.000039
1642	1.6328e+02	3.6668	3.753662	0.000446	4.462472	0.755963	-0.000045
1643	1.6338e+02	3.6599	3.716593	0.000373	3.725550	0.631125	-0.000037
1644	1.6348e+02	3.6492	3.671786	0.000450	4.503412	0.762899	-0.000045
1645	1.6358e+02	3.6375	3.631052	0.000409	4.094011	0.693544	-0.000041
1646	1.6368e+02	3.6308	3.591132	0.000401	4.012131	0.679673	-0.000040
1647	1.6378e+02	3.6193	3.547139	0.000442	4.421532	0.749028	-0.000044
1648	1.6388e+02	3.6071	3.505183	0.000422	4.216832	0.714351	-0.000042
1649	1.6398e+02	3.5990	3.458338	0.000471	4.708113	0.797576	-0.000047
1650	1.6408e+02	3.5902	3.417604	0.000409	4.094011	0.693544	-0.000041
1651	1.6418e+02	3.5764	3.371167	0.000467	4.667173	0.790640	-0.000047
1652	1.6427e+02	3.5690	3.327174	0.000442	4.421532	0.749028	-0.000044
1653	1.6437e+02	3.5584	3.282366	0.000450	4.503412	0.762899	-0.000045
1654	1.6447e+02	3.5485	3.242447	0.000401	4.012131	0.679673	-0.000040
1655	1.6457e+02	3.5412	3.200490	0.000422	4.216832	0.714351	-0.000042
1656	1.6467e+02	3.5270	3.156090	0.000446	4.462472	0.755963	-0.000045
1657	1.6477e+02	3.5207	3.115356	0.000409	4.094011	0.693544	-0.000041
1658	1.6487e+02	3.5072	3.070141	0.000454	4.544353	0.769834	-0.000045
1659	1.6497e+02	3.4998	3.028592	0.000418	4.175892	0.707415	-0.000042
1660	1.6507e+02	3.4898	2.987043	0.000418	4.175892	0.707415	-0.000042
1661	1.6517e+02	3.4785	2.948345	0.000389	3.889311	0.658867	-0.000039
1662	1.6527e+02	3.4679	2.903130	0.000454	4.544353	0.769834	-0.000045
1663	1.6537e+02	3.4584	2.858730	0.000446	4.462472	0.755963	-0.000045
1664	1.6547e+02	3.4483	2.822069	0.000368	3.684610	0.624190	-0.000037
1665	1.6557e+02	3.4366	2.778891	0.000434	4.339652	0.735157	-0.000043
1666	1.6567e+02	3.4295	2.738971	0.000401	4.012131	0.679673	-0.000040
1667	1.6577e+02	3.4207	2.698237	0.000409	4.094011	0.693544	-0.000041
1668	1.6587e+02	3.4108	2.659947	0.000385	3.848371	0.651932	-0.000038
1669	1.6597e+02	3.3997	2.619620	0.000405	4.053071	0.686609	-0.000041
1670	1.6607e+02	3.3907	2.577664	0.000422	4.216832	0.714351	-0.000042
1671	1.6616e+02	3.3777	2.541003	0.000368	3.684610	0.624190	-0.000037
1672	1.6626e+02	3.3720	2.500269	0.000409	4.094011	0.693544	-0.000041
1673	1.6636e+02	3.3605	2.457905	0.000426	4.257772	0.721286	-0.000043
1674	1.6646e+02	3.3479	2.417985	0.000401	4.012131	0.679673	-0.000040
1675	1.6656e+02	3.3399	2.381732	0.000364	3.643670	0.617254	-0.000036
1676	1.6666e+02	3.3289	2.342627	0.000393	3.930251	0.665803	-0.000039
1677	1.6676e+02	3.3204	2.300671	0.000422	4.216832	0.714351	-0.000042
1678	1.6686e+02	3.3099	2.258307	0.000426	4.257772	0.721286	-0.000043
1679	1.6696e+02	3.2981	2.220832	0.000377	3.766490	0.638061	-0.000038
1680	1.6706e+02	3.2850	2.180097	0.000409	4.094011	0.693544	-0.000041
1681	1.6716e+02	3.2793	2.141400	0.000389	3.889311	0.658867	-0.000039
1682	1.6726e+02	3.2682	2.100258	0.000413	4.134951	0.700480	-0.000041
1683	1.6736e+02	3.2616	2.064412	0.000360	3.602730	0.610319	-0.000036
1684	1.6746e+02	3.2516	2.021234	0.000434	4.339652	0.735157	-0.000043
1685	1.6756e+02	3.2371	1.981314	0.000401	4.012131	0.679673	-0.000040
1686	1.6766e+02	3.2291	1.943431	0.000381	3.807430	0.644996	-0.000038
1687	1.6776e+02	3.2205	1.903104	0.000405	4.053071	0.686609	-0.000041
1688	1.6786e+02	3.2109	1.864000	0.000393	3.930251	0.665803	-0.000039
1689	1.6796e+02	3.1991	1.823265	0.000409	4.094011	0.693544	-0.000041
1690	1.6806e+02	3.1883	1.781309	0.000422	4.216832	0.714351	-0.000042
1691	1.6816e+02	3.1810	1.745055	0.000364	3.643670	0.617254	-0.000036
1692	1.6825e+02	3.1709	1.706358	0.000389	3.889311	0.658867	-0.000039
1693	1.6835e+02	3.1570	1.669290	0.000373	3.725550	0.631125	-0.000037
1694	1.6845e+02	3.1512	1.628148	0.000413	4.134951	0.700480	-0.000041
1695	1.6855e+02	3.1402	1.590673	0.000377	3.766490	0.638061	-0.000038
1696	1.6865e+02	3.1306	1.549124	0.000418	4.175892	0.707415	-0.000042
1697	1.6875e+02	3.1187	1.510019	0.000393	3.930251	0.665803	-0.000039
1698	1.6885e+02	3.1113	1.471729	0.000385	3.848371	0.651932	-0.000038
1699	1.6895e+02	3.1037	1.435475	0.000364	3.643670	0.617254	-0.000036
1700	1.6905e+02	3.0914	1.394334	0.000413	4.134951	0.700480	-0.000041
1701	1.6915e+02	3.0810	1.355229	0.000393	3.930251	0.665803	-0.000039
1702	1.6925e+02	3.0706	1.314087	0.000413	4.134951	0.700480	-0.000041
1703	1.6935e+02	3.0612	1.270909	0.000434	4.339652	0.735157	-0.000043
1704	1.6945e+02	3.0523	1.235470	0.000356	3.561790	0.603384	-0.000036
1705	1.6955e+02	3.0415	1.197587	0.000381	3.807430	0.644996	-0.000038
1706	1.6965e+02	3.0285	1.158482	0.000393	3.930251	0.665803	-0.000039
1707	1.6975e+02	3.0193	1.121007	0.000377	3.766490	0.638061	-0.000038
1708	1.6985e+02	3.0118	1.080680	0.000405	4.053071	0.686609	-0.000041
1709	1.6995e+02	3.0007	1.042390	0.000385	3.848371	0.651932	-0.000038
1710	1.7005e+02	2.9900	0.999211	0.000434	4.339652	0.735157	-0.000043
1711	1.7015e+02	2.9804	0.958884	0.000405	4.053071	0.686609	-0.000041
1712	1.7024e+02	2.9729	0.920187	0.000389	3.889311	0.658867	-0.000039
1713	1.7034e+02	2.9636	0.880675	0.000397	3.971191	0.672738	-0.000040
1714	1.7044e+02	2.9507	0.841162	0.000397	3.971191	0.672738	-0.000040
1715	1.7054e+02	2.9420	0.802465	0.000389	3.889311	0.658867	-0.000039
1716	1.7064e+02	2.9308	0.760916	0.000418	4.175892	0.707415	-0.000042
1717	1.7074e+02	2.9208	0.718960	0.000422	4.216832	0.714351	-0.000042
1718	1.7084e+02	2.9118	0.682706	0.000364	3.643670	0.617254	-0.000036
1719	1.7094e+02	2.9021	0.642379	0.000405	4.053071	0.686609	-0.000041
1720	1.7104e+02	2.8909	0.600423	0.000422	4.216832	0.714351	-0.000042
1721	1.7114e+02	2.8812	0.562540	0.000381	3.807430	0.644996	-0.000038
1722	1.7124e+02	2.8712	0.521398	0.000413	4.134951	0.700480	-0.000041
1723	1.7134e+02	2.8593	0.485145	0.000364	3.643670	0.617254	-0.000036
1724	1.7144e+02	2.8493	0.448891	0.000364	3.643670	0.617254	-0.000036
1725	1.7154e+02	2.8391	0.408157	0.000409	4.094011	0.693544	-0.000041
1726	1.7164e+02	2.8313	0.370682	0.000377	3.766490	0.638061	-0.000038
1727	1.7174e+02	2.8210	0.335243	0.000356	3.561790	0.603384	-0.000036
1728	1.7184e+02	2.8112	0.293287	0.000422	4.216832	0.714351	-0.000042
1729	1.7194e+02	2.8011	0.257033	0.000364	3.643670	0.617254	-0.000036
1730	1.7204e+02	2.7901	0.218336	0.000389	3.889311	0.658867	-0.000039
1731	1.7213e+02	2.7824	0.181267	0.000373	3.725550	0.631125	-0.000037
1732	1.7223e+02	2.7705	0.141755	0.000397	3.971191	0.672738	-0.000040
1733	1.7233e+02	2.7628	0.107131	0.000348	3.479910	0.589513	-0.000035
1734	1.7243e+02	2.7518	0.071285	0.000360	3.602730	0.610319	-0.000036
1735	1.7253e+02	2.7416	0.032180	0.000393	3.930251	0.665803	-0.000039
1736	1.7263e+02	2.7312	-0.006110	0.000385	3.848371	0.651932	-0.000038
1737	1.7273e+02	2.7225	-0.043178	0.000373	3.725550	0.631125	-0.000037
1738	1.7283e+02	2.7087	-0.081876	0.000389	3.889311	0.658867	-0.000039
1739	1.7293e+02	2.7042	-0.119759	0.000381	3.807430	0.644996	-0.000038
1740	1.7303e+02	2.6920	-0.161308	0.000418	4.175892	0.707415	-0.000042
1741	1.7313e+02	2.6839	-0.196339	0.000352	3.520850	0.596448	-0.000035
1742	1.7323e+02	2.6708	-0.236666	0.000405	4.053071	0.686609	-0.000041
1743	1.7333e+02	2.6609	-0.277400	0.000409	4.094011	0.693544	-0.000041
1744	1.7343e+02	2.6532	-0.315690	0.000385	3.848371	0.651932	-0.000038
1745	1.7353e+02	2.6431	-0.357239	0.000418	4.175892	0.707415	-0.000042
1746	1.7363e+02	2.6344	-0.391049	0.000340	3.398029	0.575642	-0.000034
1747	1.7373e+02	2.6250	-0.435449	0.000446	4.462472	0.755963	-0.000045
1748	1.7383e+02	2.6120	-0.477405	0.000422	4.216832	0.714351	-0.000042
1749	1.7393e+02	2.6039	-0.516103	0.000389	3.889311	0.658867	-0.000039
1750	1.7403e+02	2.5932	-0.561725	0.000459	4.585293	0.776770	-0.000046
1751	1.7413e+02	2.5825	-0.600423	0.000389	3.889311	0.658867	-0.000039
1752	1.7422e+02	2.5735	-0.641972	0.000418	4.175892	0.707415	-0.000042
1753	1.7432e+02	2.5622	-0.685150	0.000434	4.339652	0.735157	-0.000043
1754	1.7442e+02	2.5520	-0.723033	0.000381	3.807430	0.644996	-0.000038
1755	1.7452e+02	2.5414	-0.771507	0.000487	4.871873	0.825318	-0.000049
1756	1.7462e+02	2.5327	-0.811426	0.000401	4.012131	0.679673	-0.000040
1757	1.7472e+02	2.5238	-0.855012	0.000438	4.380592	0.742092	-0.000044
1758	1.7482e+02	2.5127	-0.897783	0.000430	4.298712	0.728222	-0.000043
1759	1.7492e+02	2.5018	-0.938517	0.000409	4.094011	0.693544	-0.000041
1760	1.7502e+02	2.4908	-0.979659	0.000413	4.134951	0.700480	-0.000041
1761	1.7512e+02	2.4828	-1.024874	0.000454	4.544353	0.769834	-0.000045
1762	1.7522e+02	2.4748	-1.067645	0.000430	4.298712	0.728222	-0.000043
1763	1.7532e+02	2.4627	-1.112045	0.000446	4.462472	0.755963	-0.000045
1764	1.7542e+02	2.4540	-1.153594	0.000418	4.175892	0.707415	-0.000042
1765	1.7552e+02	2.4426	-1.194328	0.000409	4.094011	0.693544	-0.000041
1766	1.7562e+02	2.4346	-1.239543	0.000454	4.544353	0.769834	-0.000045
1767	1.7572e+02	2.4259	-1.282722	0.000434	4.339652	0.735157	-0.000043
1768	1.7582e+02	2.4131	-1.329159	0.000467	4.667173	0.790640	-0.000047
1769	1.7592e+02	2.4036	-1.370708	0.000418	4.175892	0.707415	-0.000042
1770	1.7602e+02	2.3935	-1.413886	0.000434	4.339652	0.735157	-0.000043
1771	1.7612e+02	2.3817	-1.460730	0.000471	4.708113	0.797576	-0.000047
1772	1.7621e+02	2.3726	-1.505538	0.000450	4.503412	0.762899	-0.000045
1773	1.7631e+02	2.3634	-1.548309	0.000430	4.298712	0.728222	-0.000043
1774	1.7641e+02	2.3524	-1.592302	0.000442	4.421532	0.749028	-0.000044
1775	1.7651e+02	2.3450	-1.639554	0.000475	4.749053	0.804511	-0.000047
1776	1.7661e+02	2.3332	-1.685583	0.000463	4.626233	0.783705	-0.000046
1777	1.7671e+02	2.3226	-1.727540	0.000422	4.216832	0.714351	-0.000042
1778	1.7681e+02	2.3145	-1.771533	0.000442	4.421532	0.749028	-0.000044
1779	1.7691e+02	2.3036	-1.817562	0.000463	4.626233	0.783705	-0.000046
1780	1.7701e+02	2.2939	-1.862370	0.000450	4.503412	0.762899	-0.000045
1781	1.7711e+02	2.2828	-1.907178	0.000450	4.503412	0.762899	-0.000045
1782	1.7721e+02	2.2730	-1.952393	0.000454	4.544353	0.769834	-0.000045
1783	1.7731e+02	2.2655	-2.001681	0.000495	4.953754	0.839189	-0.000050
1784	1.7741e+02	2.2549	-2.043230	0.000418	4.175892	0.707415	-0.000042
1785	1.7751e+02	2.2463	-2.090482	0.000475	4.749053	0.804511	-0.000047
1786	1.7761e+02	2.2369	-2.135290	0.000450	4.503412	0.762899	-0.000045
1787	1.7771e+02	2.2251	-2.182134	0.000471	4.708113	0.797576	-0.000047
1788	1.7781e+02	2.2125	-2.227349	0.000454	4.544353	0.769834	-0.000045
1789	1.7791e+02	2.2054	-2.270935	0.000438	4.380592	0.742092	-0.000044
1790	1.7801e+02	2.1942	-2.320223	0.000495	4.953754	0.839189	-0.000050
1791	1.7810e+02	2.1840	-2.364216	0.000442	4.421532	0.749028	-0.000044
1792	1.7820e+02	2.1757	-2.406987	0.000430	4.298712	0.728222	-0.000043
1793	1.7830e+02	2.1635	-2.456276	0.000495	4.953754	0.839189	-0.000050
1794	1.7840e+02	2.1563	-2.500269	0.000442	4.421532	0.749028	-0.000044
1795	1.7850e+02	2.1442	-2.547113	0.000471	4.708113	0.797576	-0.000047
1796	1.7860e+02	2.1349	-2.591513	0.000446	4.462472	0.755963	-0.000045
1797	1.7870e+02	2.1242	-2.638765	0.000475	4.749053	0.804511	-0.000047
1798	1.7880e+02	2.1152	-2.680314	0.000418	4.175892	0.707415	-0.000042
1799	1.7890e+02	2.1062	-2.728380	0.000483	4.830933	0.818382	-0.000048
1800	1.7900e+02	2.0940	-2.778484	0.000504	5.035634	0.853059	-0.000050
1801	1.7910e+02	2.0841	-2.821662	0.000434	4.339652	0.735157	-0.000043
1802	1.7920e+02	2.0755	-2.868914	0.000475	4.749053	0.804511	-0.000047
1803	1.7930e+02	2.0672	-2.915758	0.000471	4.708113	0.797576	-0.000047
1804	1.7940e+02	2.0553	-2.960973	0.000454	4.544353	0.769834	-0.000045
1805	1.7950e+02	2.0435	-3.009039	0.000483	4.830933	0.818382	-0.000048
1806	1.7960e+02	2.0367	-3.058735	0.000499	4.994694	0.846124	-0.000050
1807	1.7970e+02	2.0246	-3.106802	0.000483	4.830933	0.818382	-0.000048
1808	1.7980e+02	2.0149	-3.156905	0.000504	5.035634	0.853059	-0.000050
1809	1.7990e+02	2.0060	-3.200898	0.000442	4.421532	0.749028	-0.000044
1810	1.8000e+02	1.9947	-3.247335	0.000467	4.667173	0.790640	-0.000047
1811	1.8009e+02	1.9830	-3.297845	0.000508	5.076574	0.859995	-0.000051
1812	1.8019e+02	1.9778	-3.347134	0.000495	4.953754	0.839189	-0.000050
1813	1.8029e+02	1.9645	-3.396015	0.000491	4.912814	0.832253	-0.000049
1814	1.8039e+02	1.9569	-3.440008	0.000442	4.421532	0.749028	-0.000044
1815	1.8049e+02	1.9439	-3.495814	0.000561	5.608795	0.950156	-0.000056
1816	1.8059e+02	1.9366	-3.544695	0.000491	4.912814	0.832253	-0.000049
1817	1.8069e+02	1.9257	-3.593576	0.000491	4.912814	0.832253	-0.000049
1818	1.8079e+02	1.9157	-3.644494	0.000512	5.117514	0.866930	-0.000051
1819	1.8089e+02	1.9071	-3.694597	0.000504	5.035634	0.853059	-0.000050
1820	1.8099e+02	1.8931	-3.747551	0.000532	5.322215	0.901608	-0.000053
1821	1.8109e+02	1.8893	-3.794803	0.000475	4.749053	0.804511	-0.000047
1822	1.8119e+02	1.8781	-3.844092	0.000495	4.953754	0.839189	-0.000050
1823	1.8129e+02	1.8641	-3.892158	0.000483	4.830933	0.818382	-0.000048
1824	1.8139e+02	1.8539	-3.941039	0.000491	4.912814	0.832253	-0.000049
1825	1.8149e+02	1.8468	-3.992364	0.000516	5.158454	0.873866	-0.000052
1826	1.8159e+02	1.8375	-4.041245	0.000491	4.912814	0.832253	-0.000049
1827	1.8169e+02	1.8262	-4.092163	0.000512	5.117514	0.866930	-0.000051
1828	1.8179e+02	1.8185	-4.142266	0.000504	5.035634	0.853059	-0.000050
1829	1.8189e+02	1.8053	-4.186259	0.000442	4.421532	0.749028	-0.000044
1830	1.8199e+02	1.7963	-4.234326	0.000483	4.830933	0.818382	-0.000048
1831	1.8209e+02	1.7876	-4.283614	0.000495	4.953754	0.839189	-0.000050
1832	1.8218e+02	1.7767	-4.328422	0.000450	4.503412	0.762899	-0.000045
1833	1.8228e+02	1.7696	-4.377710	0.000495	4.953754	0.839189	-0.000050
1834	1.8238e+02	1.7562	-4.425369	0.000479	4.789993	0.811447	-0.000048
1835	1.8248e+02	1.7470	-4.472621	0.000475	4.749053	0.804511	-0.000047
1836	1.8258e+02	1.7374	-4.518651	0.000463	4.626233	0.783705	-0.000046
1837	1.8268e+02	1.7294	-4.566717	0.000483	4.830933	0.818382	-0.000048
1838	1.8278e+02	1.7197	-4.613969	0.000475	4.749053	0.804511	-0.000047
1839	1.8288e+02	1.7071	-4.660406	0.000467	4.667173	0.790640	-0.000047
1840	1.8298e+02	1.6971	-4.706436	0.000463	4.626233	0.783705	-0.000046
1841	1.8308e+02	1.6867	-4.752058	0.000459	4.585293	0.776770	-0.000046
1842	1.8318e+02	1.6775	-4.798495	0.000467	4.667173	0.790640	-0.000047
1843	1.8328e+02	1.6658	-4.844525	0.000463	4.626233	0.783705	-0.000046
1844	1.8338e+02	1.6561	-4.895443	0.000512	5.117514	0.866930	-0.000051
1845	1.8348e+02	1.6476	-4.939436	0.000442	4.421532	0.749028	-0.000044
1846	1.8358e+02	1.6398	-4.982207	0.000430	4.298712	0.728222	-0.000043
1847	1.8368e+02	1.6259	-5.030681	0.000487	4.871873	0.825318	-0.000049
1848	1.8378e+02	1.6172	-5.080376	0.000499	4.994694	0.846124	-0.000050
1849	1.8388e+02	1.6070	-5.125591	0.000454	4.544353	0.769834	-0.000045
1850	1.8398e+02	1.5990	-5.170399	0.000450	4.503412	0.762899	-0.000045
1851	1.8407e+02	1.5880	-5.218058	0.000479	4.789993	0.811447	-0.000048
1852	1.8417e+02	1.5765	-5.266125	0.000483	4.830933	0.818382	-0.000048
1853	1.8427e+02	1.5684	-5.308895	0.000430	4.298712	0.728222	-0.000043
1854	1.8437e+02	1.5585	-5.359406	0.000508	5.076574	0.859995	-0.000051
1855	1.8447e+02	1.5468	-5.405843	0.000467	4.667173	0.790640	-0.000047
1856	1.8457e+02	1.5388	-5.451465	0.000459	4.585293	0.776770	-0.000046
1857	1.8467e+02	1.5256	-5.496680	0.000454	4.544353	0.769834	-0.000045
1858	1.8477e+02	1.5186	-5.544747	0.000483	4.830933	0.818382	-0.000048
1859	1.8487e+02	1.5071	-5.588332	0.000438	4.380592	0.742092	-0.000044
1860	1.8497e+02	1.4983	-5.634770	0.000467	4.667173	0.790640	-0.000047
1861	1.8507e+02	1.4890	-5.679577	0.000450	4.503412	0.762899	-0.000045
1862	1.8517e+02	1.4783	-5.726422	0.000471	4.708113	0.797576	-0.000047
1863	1.8527e+02	1.4684	-5.769600	0.000434	4.339652	0.735157	-0.000043
1864	1.8537e+02	1.4575	-5.819703	0.000504	5.035634	0.853059	-0.000050
1865	1.8547e+02	1.4452	-5.866955	0.000475	4.749053	0.804511	-0.000047
1866	1.8557e+02	1.4362	-5.912577	0.000459	4.585293	0.776770	-0.000046
1867	1.8567e+02	1.4288	-5.954126	0.000418	4.175892	0.707415	-0.000042
1868	1.8577e+02	1.4212	-6.005044	0.000512	5.117514	0.866930	-0.000051
1869	1.8587e+02	1.4088	-6.051074	0.000463	4.626233	0.783705	-0.000046
1870	1.8597e+02	1.3986	-6.093437	0.000426	4.257772	0.721286	-0.000043
1871	1.8606e+02	1.3900	-6.138245	0.000450	4.503412	0.762899	-0.000045
1872	1.8616e+02	1.3801	-6.187941	0.000499	4.994694	0.846124	-0.000050
1873	1.8626e+02	1.3686	-6.236007	0.000483	4.830933	0.818382	-0.000048
1874	1.8636e+02	1.3606	-6.277556	0.000418	4.175892	0.707415	-0.000042
1875	1.8646e+02	1.3493	-6.324400	0.000471	4.708113	0.797576	-0.000047
1876	1.8656e+02	1.3383	-6.372467	0.000483	4.830933	0.818382	-0.000048
1877	1.8666e+02	1.3297	-6.422570	0.000504	5.035634	0.853059	-0.000050
1878	1.8676e+02	1.3187	-6.469414	0.000471	4.708113	0.797576	-0.000047
1879	1.8686e+02	1.3105	-6.513407	0.000442	4.421532	0.749028	-0.000044
1880	1.8696e+02	1.3007	-6.562289	0.000491	4.912814	0.832253	-0.000049
1881	1.8706e+02	1.2933	-6.608318	0.000463	4.626233	0.783705	-0.000046
1882	1.8716e+02	1.2790	-6.654348	0.000463	4.626233	0.783705	-0.000046
1883	1.8726e+02	1.2695	-6.700785	0.000467	4.667173	0.790640	-0.000047
1884	1.8736e+02	1.2599	-6.746815	0.000463	4.626233	0.783705	-0.000046
1885	1.8746e+02	1.2495	-6.793659	0.000471	4.708113	0.797576	-0.000047
1886	1.8756e+02	1.2401	-6.837245	0.000438	4.380592	0.742092	-0.000044
1887	1.8766e+02	1.2284	-6.883682	0.000467	4.667173	0.790640	-0.000047
1888	1.8776e+02	1.2213	-6.930119	0.000467	4.667173	0.790640	-0.000047
1889	1.8786e+02	1.2091	-6.976963	0.000471	4.708113	0.797576	-0.000047
1890	1.8796e+02	1.2010	-7.025437	0.000487	4.871873	0.825318	-0.000049
1891	1.8806e+02	1.1920	-7.066171	0.000409	4.094011	0.693544	-0.000041
1892	1.8815e+02	1.1791	-7.114238	0.000483	4.830933	0.818382	-0.000048
1893	1.8825e+02	1.1709	-7.159045	0.000450	4.503412	0.762899	-0.000045
1894	1.8835e+02	1.1600	-7.203446	0.000446	4.462472	0.755963	-0.000045
1895	1.8845e+02	1.1500	-7.248661	0.000454	4.544353	0.769834	-0.000045
1896	1.8855e+02	1.1394	-7.293061	0.000446	4.462472	0.755963	-0.000045
1897	1.8865e+02	1.1293	-7.342349	0.000495	4.953754	0.839189	-0.000050
1898	1.8875e+02	1.1199	-7.383084	0.000409	4.094011	0.693544	-0.000041
1899	1.8885e+02	1.1095	-7.427891	0.000450	4.503412	0.762899	-0.000045
1900	1.8895e+02	1.1009	-7.472292	0.000446	4.462472	0.755963	-0.000045
1901	1.8905e+02	1.0902	-7.515063	0.000430	4.298712	0.728222	-0.000043
1902	1.8915e+02	1.0798	-7.560685	0.000459	4.585293	0.776770	-0.000046
1903	1.8925e+02	1.0717	-7.607529	0.000471	4.708113	0.797576	-0.000047
1904	1.8935e+02	1.0600	-7.649486	0.000422	4.216832	0.714351	-0.000042
1905	1.8945e+02	1.0519	-7.695515	0.000463	4.626233	0.783705	-0.000046
1906	1.8955e+02	1.0411	-7.739508	0.000442	4.421532	0.749028	-0.000044
1907	1.8965e+02	1.0294	-7.788390	0.000491	4.912814	0.832253	-0.000049
1908	1.8975e+02	1.0210	-7.833197	0.000450	4.503412	0.762899	-0.000045
1909	1.8985e+02	1.0125	-7.878412	0.000454	4.544353	0.769834	-0.000045
1910	1.8995e+02	0.9993	-7.925664	0.000475	4.749053	0.804511	-0.000047
1911	1.9004e+02	0.9924	-7.968028	0.000426	4.257772	0.721286	-0.000043
1912	1.9014e+02	0.9840	-8.018945	0.000512	5.117514	0.866930	-0.000051
1913	1.9024e+02	0.9703	-8.063753	0.000450	4.503412	0.762899	-0.000045
1914	1.9034e+02	0.9616	-8.114264	0.000508	5.076574	0.859995	-0.000051
1915	1.9044e+02	0.9538	-8.156220	0.000422	4.216832	0.714351	-0.000042
1916	1.9054e+02	0.9413	-8.205508	0.000495	4.953754	0.839189	-0.000050
1917	1.9064e+02	0.9335	-8.256834	0.000516	5.158454	0.873866	-0.000052
1918	1.9074e+02	0.9200	-8.300419	0.000438	4.380592	0.742092	-0.000044
1919	1.9084e+02	0.9111	-8.352559	0.000524	5.240334	0.887737	-0.000052
1920	1.9094e+02	0.9011	-8.399811	0.000475	4.749053	0.804511	-0.000047
1921	1.9104e+02	0.8901	-8.451543	0.000520	5.199394	0.880801	-0.000052
1922	1.9114e+02	0.8842	-8.501239	0.000499	4.994694	0.846124	-0.000050
1923	1.9124e+02	0.8727	-8.552157	0.000512	5.117514	0.866930	-0.000051
1924	1.9134e+02	0.8620	-8.601445	0.000495	4.953754	0.839189	-0.000050
1925	1.9144e+02	0.8518	-8.651141	0.000499	4.994694	0.846124	-0.000050
1926	1.9154e+02	0.8406	-8.697986	0.000471	4.708113	0.797576	-0.000047
1927	1.9164e+02	0.8317	-8.749718	0.000520	5.199394	0.880801	-0.000052
1928	1.9174e+02	0.8205	-8.801043	0.000516	5.158454	0.873866	-0.000052
1929	1.9184e+02	0.8112	-8.852368	0.000516	5.158454	0.873866	-0.000052
1930	1.9194e+02	0.7992	-8.900435	0.000483	4.830933	0.818382	-0.000048
1931	1.9203e+02	0.7900	-8.951760	0.000516	5.158454	0.873866	-0.000052
1932	1.9213e+02	0.7828	-9.000234	0.000487	4.871873	0.825318	-0.000049
1933	1.9223e+02	0.7717	-9.053596	0.000536	5.363155	0.908543	-0.000054
1934	1.9233e+02	0.7637	-9.101662	0.000483	4.830933	0.818382	-0.000048
1935	1.9243e+02	0.7516	-9.153802	0.000524	5.240334	0.887737	-0.000052
1936	1.9253e+02	0.7449	-9.200646	0.000471	4.708113	0.797576	-0.000047
1937	1.9263e+02	0.7317	-9.256859	0.000565	5.649736	0.957091	-0.000056
1938	1.9273e+02	0.7236	-9.308592	0.000520	5.199394	0.880801	-0.000052
1939	1.9283e+02	0.7123	-9.357473	0.000491	4.912814	0.832253	-0.000049
1940	1.9293e+02	0.7029	-9.407576	0.000504	5.035634	0.853059	-0.000050
1941	1.9303e+02	0.6940	-9.460123	0.000528	5.281275	0.894672	-0.000053
1942	1.9313e+02	0.6833	-9.510227	0.000504	5.035634	0.853059	-0.000050
1943	1.9323e+02	0.6735	-9.563996	0.000540	5.404095	0.915478	-0.000054
1944	1.9333e+02	0.6609	-9.616543	0.000528	5.281275	0.894672	-0.000053
1945	1.9343e+02	0.6543	-9.667868	0.000516	5.158454	0.873866	-0.000052
1946	1.9353e+02	0.6429	-9.717564	0.000499	4.994694	0.846124	-0.000050
1947	1.9363e+02	0.6344	-9.774999	0.000577	5.772556	0.977897	-0.000058
1948	1.9373e+02	0.6228	-9.825102	0.000504	5.035634	0.853059	-0.000050
1949	1.9383e+02	0.6109	-9.874391	0.000495	4.953754	0.839189	-0.000050
1950	1.9393e+02	0.6039	-9.927345	0.000532	5.322215	0.901608	-0.000053
1951	1.9403e+02	0.5973	-9.979893	0.000528	5.281275	0.894672	-0.000053
1952	1.9412e+02	0.5836	-10.034069	0.000545	5.445035	0.922414	-0.000054
1953	1.9422e+02	0.5730	-10.084987	0.000512	5.117514	0.866930	-0.000051
1954	1.9432e+02	0.5627	-10.137941	0.000532	5.322215	0.901608	-0.000053
1955	1.9442e+02	0.5537	-10.188859	0.000512	5.117514	0.866930	-0.000051
1956	1.9452e+02	0.5441	-10.240999	0.000524	5.240334	0.887737	-0.000052
1957	1.9462e+02	0.5347	-10.294768	0.000540	5.404095	0.915478	-0.000054
1958	1.9472e+02	0.5241	-10.349760	0.000553	5.526915	0.936285	-0.000055
1959	1.9482e+02	0.5134	-10.401492	0.000520	5.199394	0.880801	-0.000052
1960	1.9492e+02	0.5059	-10.455261	0.000540	5.404095	0.915478	-0.000054
1961	1.9502e+02	0.4922	-10.506586	0.000516	5.158454	0.873866	-0.000052
1962	1.9512e+02	0.4807	-10.556690	0.000504	5.035634	0.853059	-0.000050
1963	1.9522e+02	0.4715	-10.610866	0.000545	5.445035	0.922414	-0.000054
1964	1.9532e+02	0.4627	-10.663413	0.000528	5.281275	0.894672	-0.000053
1965	1.9542e+02	0.4546	-10.720849	0.000577	5.772556	0.977897	-0.000058
1966	1.9552e+02	0.4444	-10.771359	0.000508	5.076574	0.859995	-0.000051
1967	1.9562e+02	0.4358	-10.823092	0.000520	5.199394	0.880801	-0.000052
1968	1.9572e+02	0.4234	-10.880120	0.000573	5.731616	0.970962	-0.000057
1969	1.9582e+02	0.4144	-10.931037	0.000512	5.117514	0.866930	-0.000051
1970	1.9592e+02	0.4026	-10.984807	0.000540	5.404095	0.915478	-0.000054
1971	1.9601e+02	0.3942	-11.036946	0.000524	5.240334	0.887737	-0.000052
1972	1.9611e+02	0.3863	-11.093567	0.000569	5.690676	0.964027	-0.000057
1973	1.9621e+02	0.3745	-11.148558	0.000553	5.526915	0.936285	-0.000055
1974	1.9631e+02	0.3635	-11.198661	0.000504	5.035634	0.853059	-0.000050
1975	1.9641e+02	0.3549	-11.253653	0.000553	5.526915	0.936285	-0.000055
1976	1.9651e+02	0.3453	-11.308644	0.000553	5.526915	0.936285	-0.000055
1977	1.9661e+02	0.3333	-11.362413	0.000540	5.404095	0.915478	-0.000054
1978	1.9671e+02	0.3215	-11.419848	0.000577	5.772556	0.977897	-0.000058
1979	1.9681e+02	0.3114	-11.474025	0.000545	5.445035	0.922414	-0.000054
1980	1.9691e+02	0.3037	-11.529831	0.000561	5.608795	0.950156	-0.000056
1981	1.9701e+02	0.2935	-11.587266	0.000577	5.772556	0.977897	-0.000058
1982	1.9711e+02	0.2863	-11.644702	0.000577	5.772556	0.977897	-0.000058
1983	1.9721e+02	0.2739	-11.698878	0.000545	5.445035	0.922414	-0.000054
1984	1.9731e+02	0.2645	-11.755906	0.000573	5.731616	0.970962	-0.000057
1985	1.9741e+02	0.2549	-11.814156	0.000585	5.854436	0.991768	-0.000059
1986	1.9751e+02	0.2465	-11.871999	0.000581	5.813496	0.984833	-0.000058
1987	1.9761e+02	0.2371	-11.932693	0.000610	6.100077	1.033381	-0.000061
1988	1.9771e+02	0.2241	-11.984425	0.000520	5.199394	0.880801	-0.000052
1989	1.9781e+02	0.2144	-12.040638	0.000565	5.649736	0.957091	-0.000056
1990	1.9791e+02	0.2052	-12.099296	0.000590	5.895376	0.998704	-0.000059
1991	1.9800e+02	0.1965	-12.155102	0.000561	5.608795	0.950156	-0.000056
1992	1.9810e+02	0.1848	-12.206834	0.000520	5.199394	0.880801	-0.000052
1993	1.9820e+02	0.1734	-12.268343	0.000618	6.181957	1.047252	-0.000062
1994	1.9830e+02	0.1658	-12.320483	0.000524	5.240334	0.887737	-0.000052
1995	1.9840e+02	0.1563	-12.376289	0.000561	5.608795	0.950156	-0.000056
1996	1.9850e+02	0.1462	-12.427614	0.000516	5.158454	0.873866	-0.000052
1997	1.9860e+02	0.1359	-12.489123	0.000618	6.181957	1.047252	-0.000062
1998	1.9870e+02	0.1237	-12.540448	0.000516	5.158454	0.873866	-0.000052
1999	1.9880e+02	0.1140	-12.597476	0.000573	5.731616	0.970962	-0.000057
2000	1.9890e+02	0.1038	-12.652060	0.000549	5.485975	0.929349	-0.000055
2001	1.9900e+02	0.0981	-12.702977	0.000512	5.117514	0.866930	-0.000051
2002	1.9910e+02	0.0855	-12.756747	0.000540	5.404095	0.915478	-0.000054
2003	1.9920e+02	0.0758	-12.814182	0.000577	5.772556	0.977897	-0.000058
2004	1.9930e+02	0.0655	-12.864285	0.000504	5.035634	0.853059	-0.000050
2005	1.9940e+02	0.0556	-12.919684	0.000557	5.567855	0.943220	-0.000056
2006	1.9950e+02	0.0446	-12.974268	0.000549	5.485975	0.929349	-0.000055
2007	1.9960e+02	0.0334	-13.025593	0.000516	5.158454	0.873866	-0.000052
2008	1.9970e+02	0.0233	-13.079769	0.000545	5.445035	0.922414	-0.000054
2009	1.9980e+02	0.0155	-13.128243	0.000487	4.871873	0.825318	-0.000049
2010	1.9990e+02	0.0054	-13.184864	0.000569	5.690676	0.964027	-0.000057
2011	2.0000e+02	-0.0051	-13.234152	0.000569	5.690676	0.964027	-0.000050

PMax (uC/cm2):	4.07e+01
Pr (uC/cm2):	7.21e+00
-Pr (uC/cm2):	0.00e+00
PLoss (uC/cm2):	0.00e+00
C (Max-Eff) (nF):	4.07e-01
K (Eff):	6.90e+02
Vert. (+/-Pr) Shift (uC/cm2):	3.60e+00
Offset (uC/cm2):	2.04e+01

A (Loop Area - uC/cm2·Volts):	-6.79e-02



Hysteresis Version: 5.48.1 - Radiant Technologies, Inc., 1999 - 9/12/24

