»»»»»»»»»»»»»»»»»»»»»»»»»»»»»»»»»»»» Hysteresis ««««««««««««««««««««««««««««««««««««
»»»  Executed Version:	5.48.1
»»»  Vision Version:	5.48.4 (R)
»»»  Vision Compiled:	9/18/24
»»»  Driver Version:	5.47.0
»»»  Windows Version:	Windows 8 or 8.1
»»»  Processor Information:	x86 (AMD or Intel) - 32 Processors
»»»  Tester Name:	PMF21124-494 (100V)
»»»  Tester S/N:	PMF21124-494
»»»  Internal Amp Type:	100V RevK 270k
»»»  Internal Amp S/N:	iAB2-596/K     
»»»  Execution Count:	1
»»»»»»»»»»»»»»»»»»»»»»»»»»»»»»»»»»»»»»»»»»««««««««««««««««««««««««««««««««««««««««««

Stored:	6/30/2025 - 12:22:44
Configured:	06/30/25 10:19:58 AM
Executed:	06/30/25 12:22:17 PM

»»»»»»»»»»»»»»»»»»»»»»»»»»»»»»»»»»» Sample Info ««««««««««««««««««««««««««««««««««««
Sample Name:	
Lot Name:	
Wafer Name:	
Die Row/Column:	0/0
Capacitor Number:	0
Sample Area (cm2):	1.00e-04
Sample Thickness (microns):	1.50e-01

Amplifier:	Internal

»»»»»»»»»»»»»»»»»»»»»»»»»»»»»»»»»»» Tester Info «««««««««««««««««««««««««««««««««««
Tester Name:	PMF21124-494 (100V)
Tester Serial Number:	PMF21124-494
Return Signal Amp. Level:	1.9 [Index: 2]

»»»»»»»»»»»»»»»»»»»»»»»»»»»»»»»» Hysteresis Info ««««««««««««««««««««««««««««««««««
Task Name:	Hyst-1804
Volts:	10.00
Field:	666.67 (kV/cm)
DCBias:	0.00
DCField:	0.00 (kV/cm)
Hysteresis Period (ms):	2.00e+02
Preset:	Enabled
Preset Delay (ms):	1.00e+03
Profile:	Standard Monopolar

»»»»»»»»»»»»»»»»»»»»»»»»»»»»»»»»»»»»»» Data «««««««««««««««««««««««««««««««««««««««
Points:	2011

Valid Data

Point	Time (ms)	Drive Voltage	Measured Polarization (uC/cm2)	Capacitance (uF)	Normalized Capacitance (uF/cm2)	Dielectric Constant	Instantaneous Current (mA)
   1	0.0000e+00	-0.0040	-18.460764	0.000413	4.134967	0.700482	0.000041
   2	9.9500e-02	0.0055	-18.419623	0.000413	4.134967	0.700482	0.000041
   3	1.9900e-01	0.0140	-18.373593	0.000463	4.626250	0.783708	0.000046
   4	2.9850e-01	0.0233	-18.325934	0.000479	4.790011	0.811450	0.000048
   5	3.9800e-01	0.0345	-18.284792	0.000413	4.134967	0.700482	0.000041
   6	4.9750e-01	0.0457	-18.235097	0.000499	4.994713	0.846127	0.000050
   7	5.9700e-01	0.0581	-18.191511	0.000438	4.380609	0.742095	0.000044
   8	6.9650e-01	0.0643	-18.145481	0.000463	4.626250	0.783708	0.000046
   9	7.9600e-01	0.0724	-18.097415	0.000483	4.830952	0.818385	0.000048
  10	8.9550e-01	0.0880	-18.050570	0.000471	4.708131	0.797579	0.000047
  11	9.9500e-01	0.0957	-18.004133	0.000467	4.667191	0.790644	0.000047
  12	1.0945e+00	0.1052	-17.956474	0.000479	4.790011	0.811450	0.000048
  13	1.1940e+00	0.1134	-17.912481	0.000442	4.421549	0.749031	0.000044
  14	1.2935e+00	0.1247	-17.867674	0.000450	4.503430	0.762902	0.000045
  15	1.3930e+00	0.1375	-17.822459	0.000454	4.544370	0.769837	0.000045
  16	1.4925e+00	0.1455	-17.775614	0.000471	4.708131	0.797579	0.000047
  17	1.5920e+00	0.1563	-17.728363	0.000475	4.749071	0.804514	0.000047
  18	1.6915e+00	0.1633	-17.684370	0.000442	4.421549	0.749031	0.000044
  19	1.7910e+00	0.1760	-17.639155	0.000454	4.544370	0.769837	0.000045
  20	1.8905e+00	0.1836	-17.591903	0.000475	4.749071	0.804514	0.000047
  21	1.9900e+00	0.1958	-17.545058	0.000471	4.708131	0.797579	0.000047
  22	2.0895e+00	0.2039	-17.499843	0.000454	4.544370	0.769837	0.000045
  23	2.1890e+00	0.2139	-17.455036	0.000450	4.503430	0.762902	0.000045
  24	2.2885e+00	0.2242	-17.404525	0.000508	5.076593	0.859998	0.000051
  25	2.3880e+00	0.2342	-17.358903	0.000459	4.585310	0.776773	0.000046
  26	2.4875e+00	0.2440	-17.310836	0.000483	4.830952	0.818385	0.000048
  27	2.5870e+00	0.2548	-17.260326	0.000508	5.076593	0.859998	0.000051
  28	2.6865e+00	0.2625	-17.214704	0.000459	4.585310	0.776773	0.000046
  29	2.7860e+00	0.2737	-17.167044	0.000479	4.790011	0.811450	0.000048
  30	2.8855e+00	0.2847	-17.121015	0.000463	4.626250	0.783708	0.000046
  31	2.9850e+00	0.2950	-17.072134	0.000491	4.912832	0.832256	0.000049
  32	3.0845e+00	0.3013	-17.026919	0.000454	4.544370	0.769837	0.000045
  33	3.1840e+00	0.3148	-16.977223	0.000499	4.994713	0.846127	0.000050
  34	3.2835e+00	0.3249	-16.931193	0.000463	4.626250	0.783708	0.000046
  35	3.3830e+00	0.3339	-16.881090	0.000504	5.035653	0.853063	0.000050
  36	3.4825e+00	0.3461	-16.835060	0.000463	4.626250	0.783708	0.000046
  37	3.5820e+00	0.3543	-16.791475	0.000438	4.380609	0.742095	0.000044
  38	3.6815e+00	0.3638	-16.741779	0.000499	4.994713	0.846127	0.000050
  39	3.7810e+00	0.3728	-16.692898	0.000491	4.912832	0.832256	0.000049
  40	3.8805e+00	0.3843	-16.649312	0.000438	4.380609	0.742095	0.000044
  41	3.9800e+00	0.3923	-16.598802	0.000508	5.076593	0.859998	0.000051
  42	4.0795e+00	0.4020	-16.552365	0.000467	4.667191	0.790644	0.000047
  43	4.1790e+00	0.4153	-16.509594	0.000430	4.298728	0.728224	0.000043
  44	4.2785e+00	0.4220	-16.462749	0.000471	4.708131	0.797579	0.000047
  45	4.3780e+00	0.4330	-16.413868	0.000491	4.912832	0.832256	0.000049
  46	4.4775e+00	0.4428	-16.366209	0.000479	4.790011	0.811450	0.000048
  47	4.5770e+00	0.4536	-16.318957	0.000475	4.749071	0.804514	0.000047
  48	4.6765e+00	0.4626	-16.276594	0.000426	4.257788	0.721289	0.000043
  49	4.7760e+00	0.4739	-16.231379	0.000454	4.544370	0.769837	0.000045
  50	4.8755e+00	0.4832	-16.180461	0.000512	5.117534	0.866934	0.000051
  51	4.9750e+00	0.4938	-16.142985	0.000377	3.766505	0.638063	0.000038
  52	5.0745e+00	0.5061	-16.091660	0.000516	5.158474	0.873869	0.000052
  53	5.1740e+00	0.5147	-16.046445	0.000454	4.544370	0.769837	0.000045
  54	5.2735e+00	0.5209	-16.004489	0.000422	4.216848	0.714353	0.000042
  55	5.3730e+00	0.5313	-15.956422	0.000483	4.830952	0.818385	0.000048
  56	5.4725e+00	0.5413	-15.912022	0.000446	4.462489	0.755966	0.000045
  57	5.5720e+00	0.5524	-15.868436	0.000438	4.380609	0.742095	0.000044
  58	5.6715e+00	0.5647	-15.824443	0.000442	4.421549	0.749031	0.000044
  59	5.7710e+00	0.5717	-15.778821	0.000459	4.585310	0.776773	0.000046
  60	5.8705e+00	0.5840	-15.733606	0.000454	4.544370	0.769837	0.000045
  61	5.9700e+00	0.5935	-15.685947	0.000479	4.790011	0.811450	0.000048
  62	6.0695e+00	0.5996	-15.647249	0.000389	3.889326	0.658870	0.000039
  63	6.1690e+00	0.6138	-15.596332	0.000512	5.117534	0.866934	0.000051
  64	6.2685e+00	0.6192	-15.554375	0.000422	4.216848	0.714353	0.000042
  65	6.3680e+00	0.6334	-15.511604	0.000430	4.298728	0.728224	0.000043
  66	6.4675e+00	0.6449	-15.466797	0.000450	4.503430	0.762902	0.000045
  67	6.5670e+00	0.6525	-15.426062	0.000409	4.094027	0.693547	0.000041
  68	6.6665e+00	0.6644	-15.381662	0.000446	4.462489	0.755966	0.000045
  69	6.7660e+00	0.6718	-15.342150	0.000397	3.971206	0.672741	0.000040
  70	6.8655e+00	0.6811	-15.293269	0.000491	4.912832	0.832256	0.000049
  71	6.9650e+00	0.6918	-15.252942	0.000405	4.053087	0.686611	0.000041
  72	7.0645e+00	0.7012	-15.213837	0.000393	3.930266	0.665805	0.000039
  73	7.1640e+00	0.7134	-15.164956	0.000491	4.912832	0.832256	0.000049
  74	7.2635e+00	0.7207	-15.126258	0.000389	3.889326	0.658870	0.000039
  75	7.3630e+00	0.7314	-15.077785	0.000487	4.871892	0.825321	0.000049
  76	7.4625e+00	0.7461	-15.031755	0.000463	4.626250	0.783708	0.000046
  77	7.5620e+00	0.7532	-14.991428	0.000405	4.053087	0.686611	0.000041
  78	7.6615e+00	0.7582	-14.950286	0.000413	4.134967	0.700482	0.000041
  79	7.7610e+00	0.7700	-14.906701	0.000438	4.380609	0.742095	0.000044
  80	7.8605e+00	0.7803	-14.865559	0.000413	4.134967	0.700482	0.000041
  81	7.9600e+00	0.7916	-14.822381	0.000434	4.339669	0.735160	0.000043
  82	8.0595e+00	0.8027	-14.784091	0.000385	3.848385	0.651934	0.000038
  83	8.1590e+00	0.8094	-14.740505	0.000438	4.380609	0.742095	0.000044
  84	8.2585e+00	0.8214	-14.696919	0.000438	4.380609	0.742095	0.000044
  85	8.3580e+00	0.8324	-14.652926	0.000442	4.421549	0.749031	0.000044
  86	8.4575e+00	0.8420	-14.608526	0.000446	4.462489	0.755966	0.000045
  87	8.5570e+00	0.8515	-14.560867	0.000479	4.790011	0.811450	0.000048
  88	8.6565e+00	0.8639	-14.518503	0.000426	4.257788	0.721289	0.000043
  89	8.7560e+00	0.8717	-14.478991	0.000397	3.971206	0.672741	0.000040
  90	8.8555e+00	0.8843	-14.430517	0.000487	4.871892	0.825321	0.000049
  91	8.9550e+00	0.8932	-14.386524	0.000442	4.421549	0.749031	0.000044
  92	9.0545e+00	0.9007	-14.344568	0.000422	4.216848	0.714353	0.000042
  93	9.1540e+00	0.9064	-14.296094	0.000487	4.871892	0.825321	0.000049
  94	9.2535e+00	0.9199	-14.250879	0.000454	4.544370	0.769837	0.000045
  95	9.3530e+00	0.9325	-14.208923	0.000422	4.216848	0.714353	0.000042
  96	9.4525e+00	0.9402	-14.163301	0.000459	4.585310	0.776773	0.000046
  97	9.5520e+00	0.9509	-14.119308	0.000442	4.421549	0.749031	0.000044
  98	9.6515e+00	0.9599	-14.074907	0.000446	4.462489	0.755966	0.000045
  99	9.7510e+00	0.9693	-14.030914	0.000442	4.421549	0.749031	0.000044
 100	9.8505e+00	0.9790	-13.984477	0.000467	4.667191	0.790644	0.000047
 101	9.9500e+00	0.9901	-13.939669	0.000450	4.503430	0.762902	0.000045
 102	1.0050e+01	1.0000	-13.894454	0.000454	4.544370	0.769837	0.000045
 103	1.0149e+01	1.0098	-13.848017	0.000467	4.667191	0.790644	0.000047
 104	1.0248e+01	1.0197	-13.806468	0.000418	4.175907	0.707418	0.000042
 105	1.0348e+01	1.0316	-13.762475	0.000442	4.421549	0.749031	0.000044
 106	1.0447e+01	1.0389	-13.715631	0.000471	4.708131	0.797579	0.000047
 107	1.0547e+01	1.0529	-13.669194	0.000467	4.667191	0.790644	0.000047
 108	1.0646e+01	1.0597	-13.625608	0.000438	4.380609	0.742095	0.000044
 109	1.0746e+01	1.0709	-13.582023	0.000438	4.380609	0.742095	0.000044
 110	1.0845e+01	1.0815	-13.541288	0.000409	4.094027	0.693547	0.000041
 111	1.0945e+01	1.0905	-13.494444	0.000471	4.708131	0.797579	0.000047
 112	1.1044e+01	1.1020	-13.456561	0.000381	3.807445	0.644999	0.000038
 113	1.1144e+01	1.1115	-13.410124	0.000467	4.667191	0.790644	0.000047
 114	1.1243e+01	1.1205	-13.366538	0.000438	4.380609	0.742095	0.000044
 115	1.1343e+01	1.1303	-13.322545	0.000442	4.421549	0.749031	0.000044
 116	1.1443e+01	1.1402	-13.278960	0.000438	4.380609	0.742095	0.000044
 117	1.1542e+01	1.1496	-13.239448	0.000397	3.971206	0.672741	0.000040
 118	1.1642e+01	1.1620	-13.187715	0.000520	5.199414	0.880805	0.000052
 119	1.1741e+01	1.1713	-13.147796	0.000401	4.012146	0.679676	0.000040
 120	1.1841e+01	1.1829	-13.105432	0.000426	4.257788	0.721289	0.000043
 121	1.1940e+01	1.1949	-13.058588	0.000471	4.708131	0.797579	0.000047
 122	1.2040e+01	1.1988	-13.018668	0.000401	4.012146	0.679676	0.000040
 123	1.2139e+01	1.2124	-12.972638	0.000463	4.626250	0.783708	0.000046
 124	1.2239e+01	1.2214	-12.929867	0.000430	4.298728	0.728224	0.000043
 125	1.2338e+01	1.2304	-12.887096	0.000430	4.298728	0.728224	0.000043
 126	1.2438e+01	1.2367	-12.843511	0.000438	4.380609	0.742095	0.000044
 127	1.2537e+01	1.2515	-12.795852	0.000479	4.790011	0.811450	0.000048
 128	1.2636e+01	1.2591	-12.755117	0.000409	4.094027	0.693547	0.000041
 129	1.2736e+01	1.2700	-12.711939	0.000434	4.339669	0.735160	0.000043
 130	1.2835e+01	1.2768	-12.668761	0.000434	4.339669	0.735160	0.000043
 131	1.2935e+01	1.2887	-12.620694	0.000483	4.830952	0.818385	0.000048
 132	1.3034e+01	1.2960	-12.577516	0.000434	4.339669	0.735160	0.000043
 133	1.3134e+01	1.3111	-12.531894	0.000459	4.585310	0.776773	0.000046
 134	1.3233e+01	1.3194	-12.485049	0.000471	4.708131	0.797579	0.000047
 135	1.3333e+01	1.3269	-12.438205	0.000471	4.708131	0.797579	0.000047
 136	1.3432e+01	1.3395	-12.394619	0.000438	4.380609	0.742095	0.000044
 137	1.3532e+01	1.3473	-12.350626	0.000442	4.421549	0.749031	0.000044
 138	1.3632e+01	1.3583	-12.301338	0.000495	4.953773	0.839192	0.000050
 139	1.3731e+01	1.3670	-12.259381	0.000422	4.216848	0.714353	0.000042
 140	1.3831e+01	1.3805	-12.210500	0.000491	4.912832	0.832256	0.000049
 141	1.3930e+01	1.3882	-12.165693	0.000450	4.503430	0.762902	0.000045
 142	1.4030e+01	1.3984	-12.117219	0.000487	4.871892	0.825321	0.000049
 143	1.4129e+01	1.4083	-12.075670	0.000418	4.175907	0.707418	0.000042
 144	1.4229e+01	1.4188	-12.029233	0.000467	4.667191	0.790644	0.000047
 145	1.4328e+01	1.4318	-11.985240	0.000442	4.421549	0.749031	0.000044
 146	1.4428e+01	1.4379	-11.934322	0.000512	5.117534	0.866934	0.000051
 147	1.4527e+01	1.4478	-11.892773	0.000418	4.175907	0.707418	0.000042
 148	1.4627e+01	1.4603	-11.845929	0.000471	4.708131	0.797579	0.000047
 149	1.4726e+01	1.4687	-11.797862	0.000483	4.830952	0.818385	0.000048
 150	1.4825e+01	1.4787	-11.754684	0.000434	4.339669	0.735160	0.000043
 151	1.4925e+01	1.4889	-11.704988	0.000499	4.994713	0.846127	0.000050
 152	1.5024e+01	1.4964	-11.657329	0.000479	4.790011	0.811450	0.000048
 153	1.5124e+01	1.5099	-11.611707	0.000459	4.585310	0.776773	0.000046
 154	1.5223e+01	1.5199	-11.562418	0.000495	4.953773	0.839192	0.000050
 155	1.5323e+01	1.5284	-11.515981	0.000467	4.667191	0.790644	0.000047
 156	1.5422e+01	1.5361	-11.465878	0.000504	5.035653	0.853063	0.000050
 157	1.5522e+01	1.5457	-11.421885	0.000442	4.421549	0.749031	0.000044
 158	1.5621e+01	1.5580	-11.373819	0.000483	4.830952	0.818385	0.000048
 159	1.5721e+01	1.5684	-11.333084	0.000409	4.094027	0.693547	0.000041
 160	1.5820e+01	1.5778	-11.280130	0.000532	5.322235	0.901611	0.000053
 161	1.5920e+01	1.5912	-11.232064	0.000483	4.830952	0.818385	0.000048
 162	1.6020e+01	1.5984	-11.186034	0.000463	4.626250	0.783708	0.000046
 163	1.6119e+01	1.6096	-11.137967	0.000483	4.830952	0.818385	0.000048
 164	1.6218e+01	1.6155	-11.087457	0.000508	5.076593	0.859998	0.000051
 165	1.6318e+01	1.6267	-11.038576	0.000491	4.912832	0.832256	0.000049
 166	1.6418e+01	1.6386	-10.991324	0.000475	4.749071	0.804514	0.000047
 167	1.6517e+01	1.6496	-10.946516	0.000450	4.503430	0.762902	0.000045
 168	1.6616e+01	1.6602	-10.900894	0.000459	4.585310	0.776773	0.000046
 169	1.6716e+01	1.6673	-10.848754	0.000524	5.240354	0.887740	0.000052
 170	1.6816e+01	1.6755	-10.805169	0.000438	4.380609	0.742095	0.000044
 171	1.6915e+01	1.6861	-10.761176	0.000442	4.421549	0.749031	0.000044
 172	1.7015e+01	1.6965	-10.717590	0.000438	4.380609	0.742095	0.000044
 173	1.7114e+01	1.7086	-10.670338	0.000475	4.749071	0.804514	0.000047
 174	1.7213e+01	1.7202	-10.623494	0.000471	4.708131	0.797579	0.000047
 175	1.7313e+01	1.7251	-10.577871	0.000459	4.585310	0.776773	0.000046
 176	1.7413e+01	1.7364	-10.533878	0.000442	4.421549	0.749031	0.000044
 177	1.7512e+01	1.7467	-10.492737	0.000413	4.134967	0.700482	0.000041
 178	1.7611e+01	1.7578	-10.443041	0.000499	4.994713	0.846127	0.000050
 179	1.7711e+01	1.7663	-10.397826	0.000454	4.544370	0.769837	0.000045
 180	1.7811e+01	1.7759	-10.353426	0.000446	4.462489	0.755966	0.000045
 181	1.7910e+01	1.7867	-10.308211	0.000454	4.544370	0.769837	0.000045
 182	1.8009e+01	1.7982	-10.262996	0.000454	4.544370	0.769837	0.000045
 183	1.8109e+01	1.8099	-10.216966	0.000463	4.626250	0.783708	0.000046
 184	1.8209e+01	1.8180	-10.172566	0.000446	4.462489	0.755966	0.000045
 185	1.8308e+01	1.8273	-10.128980	0.000438	4.380609	0.742095	0.000044
 186	1.8407e+01	1.8378	-10.083765	0.000454	4.544370	0.769837	0.000045
 187	1.8507e+01	1.8474	-10.044253	0.000397	3.971206	0.672741	0.000040
 188	1.8607e+01	1.8575	-9.993742	0.000508	5.076593	0.859998	0.000051
 189	1.8706e+01	1.8664	-9.953008	0.000409	4.094027	0.693547	0.000041
 190	1.8805e+01	1.8795	-9.904941	0.000483	4.830952	0.818385	0.000048
 191	1.8905e+01	1.8884	-9.861356	0.000438	4.380609	0.742095	0.000044
 192	1.9005e+01	1.8997	-9.816955	0.000446	4.462489	0.755966	0.000045
 193	1.9104e+01	1.9069	-9.772148	0.000450	4.503430	0.762902	0.000045
 194	1.9203e+01	1.9150	-9.725303	0.000471	4.708131	0.797579	0.000047
 195	1.9303e+01	1.9269	-9.679681	0.000459	4.585310	0.776773	0.000046
 196	1.9402e+01	1.9360	-9.632022	0.000479	4.790011	0.811450	0.000048
 197	1.9502e+01	1.9440	-9.583956	0.000483	4.830952	0.818385	0.000048
 198	1.9602e+01	1.9559	-9.539555	0.000446	4.462489	0.755966	0.000045
 199	1.9701e+01	1.9675	-9.497599	0.000422	4.216848	0.714353	0.000042
 200	1.9800e+01	1.9747	-9.446681	0.000512	5.117534	0.866934	0.000051
 201	1.9900e+01	1.9851	-9.405132	0.000418	4.175907	0.707418	0.000042
 202	2.0000e+01	1.9962	-9.358288	0.000471	4.708131	0.797579	0.000047
 203	2.0099e+01	2.0034	-9.313480	0.000450	4.503430	0.762902	0.000045
 204	2.0198e+01	2.0142	-9.268265	0.000454	4.544370	0.769837	0.000045
 205	2.0298e+01	2.0257	-9.225087	0.000434	4.339669	0.735160	0.000043
 206	2.0398e+01	2.0342	-9.177020	0.000483	4.830952	0.818385	0.000048
 207	2.0497e+01	2.0444	-9.133842	0.000434	4.339669	0.735160	0.000043
 208	2.0596e+01	2.0531	-9.089034	0.000450	4.503430	0.762902	0.000045
 209	2.0696e+01	2.0647	-9.043005	0.000463	4.626250	0.783708	0.000046
 210	2.0796e+01	2.0738	-9.001456	0.000418	4.175907	0.707418	0.000042
 211	2.0895e+01	2.0879	-8.952982	0.000487	4.871892	0.825321	0.000049
 212	2.0994e+01	2.0953	-8.910618	0.000426	4.257788	0.721289	0.000043
 213	2.1094e+01	2.1052	-8.865811	0.000450	4.503430	0.762902	0.000045
 214	2.1194e+01	2.1145	-8.822632	0.000434	4.339669	0.735160	0.000043
 215	2.1293e+01	2.1265	-8.777010	0.000459	4.585310	0.776773	0.000046
 216	2.1392e+01	2.1336	-8.732202	0.000450	4.503430	0.762902	0.000045
 217	2.1492e+01	2.1463	-8.689839	0.000426	4.257788	0.721289	0.000043
 218	2.1591e+01	2.1556	-8.648697	0.000413	4.134967	0.700482	0.000041
 219	2.1691e+01	2.1665	-8.607963	0.000409	4.094027	0.693547	0.000041
 220	2.1791e+01	2.1718	-8.563970	0.000442	4.421549	0.749031	0.000044
 221	2.1890e+01	2.1827	-8.522014	0.000422	4.216848	0.714353	0.000042
 222	2.1989e+01	2.1944	-8.480872	0.000413	4.134967	0.700482	0.000041
 223	2.2089e+01	2.2038	-8.436879	0.000442	4.421549	0.749031	0.000044
 224	2.2189e+01	2.2142	-8.392479	0.000446	4.462489	0.755966	0.000045
 225	2.2288e+01	2.2231	-8.353781	0.000389	3.889326	0.658870	0.000039
 226	2.2387e+01	2.2352	-8.309381	0.000446	4.462489	0.755966	0.000045
 227	2.2487e+01	2.2427	-8.269461	0.000401	4.012146	0.679676	0.000040
 228	2.2587e+01	2.2532	-8.224246	0.000454	4.544370	0.769837	0.000045
 229	2.2686e+01	2.2660	-8.182290	0.000422	4.216848	0.714353	0.000042
 230	2.2785e+01	2.2742	-8.139112	0.000434	4.339669	0.735160	0.000043
 231	2.2885e+01	2.2836	-8.095119	0.000442	4.421549	0.749031	0.000044
 232	2.2985e+01	2.2943	-8.057236	0.000381	3.807445	0.644999	0.000038
 233	2.3084e+01	2.3053	-8.014465	0.000430	4.298728	0.728224	0.000043
 234	2.3183e+01	2.3122	-7.976989	0.000377	3.766505	0.638063	0.000038
 235	2.3283e+01	2.3254	-7.933811	0.000434	4.339669	0.735160	0.000043
 236	2.3383e+01	2.3325	-7.894299	0.000397	3.971206	0.672741	0.000040
 237	2.3482e+01	2.3460	-7.855601	0.000389	3.889326	0.658870	0.000039
 238	2.3581e+01	2.3553	-7.816089	0.000397	3.971206	0.672741	0.000040
 239	2.3681e+01	2.3646	-7.776577	0.000397	3.971206	0.672741	0.000040
 240	2.3780e+01	2.3757	-7.732176	0.000446	4.462489	0.755966	0.000045
 241	2.3880e+01	2.3849	-7.695515	0.000368	3.684624	0.624192	0.000037
 242	2.3980e+01	2.3925	-7.654781	0.000409	4.094027	0.693547	0.000041
 243	2.4079e+01	2.4065	-7.609159	0.000459	4.585310	0.776773	0.000046
 244	2.4178e+01	2.4132	-7.572905	0.000364	3.643684	0.617257	0.000036
 245	2.4278e+01	2.4223	-7.533393	0.000397	3.971206	0.672741	0.000040
 246	2.4378e+01	2.4323	-7.490622	0.000430	4.298728	0.728224	0.000043
 247	2.4477e+01	2.4454	-7.452332	0.000385	3.848385	0.651934	0.000038
 248	2.4576e+01	2.4535	-7.415671	0.000368	3.684624	0.624192	0.000037
 249	2.4676e+01	2.4672	-7.377381	0.000385	3.848385	0.651934	0.000038
 250	2.4776e+01	2.4735	-7.336647	0.000409	4.094027	0.693547	0.000041
 251	2.4875e+01	2.4848	-7.295505	0.000413	4.134967	0.700482	0.000041
 252	2.4974e+01	2.4932	-7.258030	0.000377	3.766505	0.638063	0.000038
 253	2.5074e+01	2.5021	-7.218110	0.000401	4.012146	0.679676	0.000040
 254	2.5174e+01	2.5128	-7.175746	0.000426	4.257788	0.721289	0.000043
 255	2.5273e+01	2.5230	-7.139086	0.000368	3.684624	0.624192	0.000037
 256	2.5372e+01	2.5321	-7.095500	0.000438	4.380609	0.742095	0.000044
 257	2.5472e+01	2.5416	-7.054766	0.000409	4.094027	0.693547	0.000041
 258	2.5572e+01	2.5507	-7.011995	0.000430	4.298728	0.728224	0.000043
 259	2.5671e+01	2.5613	-6.972482	0.000397	3.971206	0.672741	0.000040
 260	2.5770e+01	2.5709	-6.929304	0.000434	4.339669	0.735160	0.000043
 261	2.5870e+01	2.5799	-6.888570	0.000409	4.094027	0.693547	0.000041
 262	2.5970e+01	2.5929	-6.845392	0.000434	4.339669	0.735160	0.000043
 263	2.6069e+01	2.6009	-6.806694	0.000389	3.889326	0.658870	0.000039
 264	2.6169e+01	2.6138	-6.767996	0.000389	3.889326	0.658870	0.000039
 265	2.6268e+01	2.6231	-6.722374	0.000459	4.585310	0.776773	0.000046
 266	2.6367e+01	2.6338	-6.680825	0.000418	4.175907	0.707418	0.000042
 267	2.6467e+01	2.6374	-6.641720	0.000393	3.930266	0.665805	0.000039
 268	2.6567e+01	2.6508	-6.600171	0.000418	4.175907	0.707418	0.000042
 269	2.6666e+01	2.6607	-6.559437	0.000409	4.094027	0.693547	0.000041
 270	2.6765e+01	2.6719	-6.518296	0.000413	4.134967	0.700482	0.000041
 271	2.6865e+01	2.6812	-6.476747	0.000418	4.175907	0.707418	0.000042
 272	2.6965e+01	2.6891	-6.435198	0.000418	4.175907	0.707418	0.000042
 273	2.7064e+01	2.7003	-6.391612	0.000438	4.380609	0.742095	0.000044
 274	2.7163e+01	2.7117	-6.355766	0.000360	3.602744	0.610321	0.000036
 275	2.7263e+01	2.7236	-6.311773	0.000442	4.421549	0.749031	0.000044
 276	2.7363e+01	2.7335	-6.273075	0.000389	3.889326	0.658870	0.000039
 277	2.7462e+01	2.7409	-6.234785	0.000385	3.848385	0.651934	0.000038
 278	2.7561e+01	2.7533	-6.193643	0.000413	4.134967	0.700482	0.000041
 279	2.7661e+01	2.7637	-6.153724	0.000401	4.012146	0.679676	0.000040
 280	2.7761e+01	2.7749	-6.115434	0.000385	3.848385	0.651934	0.000038
 281	2.7860e+01	2.7799	-6.073477	0.000422	4.216848	0.714353	0.000042
 282	2.7959e+01	2.7916	-6.035595	0.000381	3.807445	0.644999	0.000038
 283	2.8059e+01	2.8011	-5.994453	0.000413	4.134967	0.700482	0.000041
 284	2.8159e+01	2.8097	-5.956163	0.000385	3.848385	0.651934	0.000038
 285	2.8258e+01	2.8214	-5.914207	0.000422	4.216848	0.714353	0.000042
 286	2.8358e+01	2.8340	-5.873065	0.000413	4.134967	0.700482	0.000041
 287	2.8457e+01	2.8416	-5.835997	0.000373	3.725564	0.631128	0.000037
 288	2.8556e+01	2.8513	-5.794040	0.000422	4.216848	0.714353	0.000042
 289	2.8656e+01	2.8590	-5.753306	0.000409	4.094027	0.693547	0.000041
 290	2.8756e+01	2.8715	-5.716645	0.000368	3.684624	0.624192	0.000037
 291	2.8855e+01	2.8825	-5.677540	0.000393	3.930266	0.665805	0.000039
 292	2.8954e+01	2.8944	-5.638436	0.000393	3.930266	0.665805	0.000039
 293	2.9054e+01	2.8997	-5.596072	0.000426	4.257788	0.721289	0.000043
 294	2.9154e+01	2.9128	-5.557782	0.000385	3.848385	0.651934	0.000038
 295	2.9253e+01	2.9202	-5.515418	0.000426	4.257788	0.721289	0.000043
 296	2.9352e+01	2.9318	-5.474684	0.000409	4.094027	0.693547	0.000041
 297	2.9452e+01	2.9423	-5.435986	0.000389	3.889326	0.658870	0.000039
 298	2.9552e+01	2.9520	-5.393623	0.000426	4.257788	0.721289	0.000043
 299	2.9651e+01	2.9609	-5.351259	0.000426	4.257788	0.721289	0.000043
 300	2.9750e+01	2.9714	-5.312562	0.000389	3.889326	0.658870	0.000039
 301	2.9850e+01	2.9823	-5.269791	0.000430	4.298728	0.728224	0.000043
 302	2.9950e+01	2.9915	-5.229056	0.000409	4.094027	0.693547	0.000041
 303	3.0049e+01	3.0018	-5.184656	0.000446	4.462489	0.755966	0.000045
 304	3.0148e+01	3.0108	-5.141885	0.000430	4.298728	0.728224	0.000043
 305	3.0248e+01	3.0190	-5.099929	0.000422	4.216848	0.714353	0.000042
 306	3.0348e+01	3.0303	-5.062453	0.000377	3.766505	0.638063	0.000038
 307	3.0447e+01	3.0415	-5.020497	0.000422	4.216848	0.714353	0.000042
 308	3.0547e+01	3.0527	-4.980985	0.000397	3.971206	0.672741	0.000040
 309	3.0646e+01	3.0598	-4.937399	0.000438	4.380609	0.742095	0.000044
 310	3.0745e+01	3.0702	-4.897479	0.000401	4.012146	0.679676	0.000040
 311	3.0845e+01	3.0795	-4.856338	0.000413	4.134967	0.700482	0.000041
 312	3.0945e+01	3.0926	-4.818862	0.000377	3.766505	0.638063	0.000038
 313	3.1044e+01	3.1025	-4.772425	0.000467	4.667191	0.790644	0.000047
 314	3.1143e+01	3.1092	-4.730062	0.000426	4.257788	0.721289	0.000043
 315	3.1243e+01	3.1205	-4.689735	0.000405	4.053087	0.686611	0.000041
 316	3.1343e+01	3.1277	-4.646964	0.000430	4.298728	0.728224	0.000043
 317	3.1442e+01	3.1391	-4.605822	0.000413	4.134967	0.700482	0.000041
 318	3.1541e+01	3.1496	-4.563051	0.000430	4.298728	0.728224	0.000043
 319	3.1641e+01	3.1599	-4.522724	0.000405	4.053087	0.686611	0.000041
 320	3.1741e+01	3.1675	-4.477102	0.000459	4.585310	0.776773	0.000046
 321	3.1840e+01	3.1810	-4.429443	0.000479	4.790011	0.811450	0.000048
 322	3.1939e+01	3.1889	-4.389931	0.000397	3.971206	0.672741	0.000040
 323	3.2039e+01	3.2009	-4.347160	0.000430	4.298728	0.728224	0.000043
 324	3.2139e+01	3.2104	-4.303981	0.000434	4.339669	0.735160	0.000043
 325	3.2238e+01	3.2206	-4.263654	0.000405	4.053087	0.686611	0.000041
 326	3.2337e+01	3.2318	-4.220476	0.000434	4.339669	0.735160	0.000043
 327	3.2437e+01	3.2393	-4.177298	0.000434	4.339669	0.735160	0.000043
 328	3.2536e+01	3.2487	-4.132490	0.000450	4.503430	0.762902	0.000045
 329	3.2636e+01	3.2593	-4.090127	0.000426	4.257788	0.721289	0.000043
 330	3.2736e+01	3.2686	-4.050207	0.000401	4.012146	0.679676	0.000040
 331	3.2835e+01	3.2825	-4.004992	0.000454	4.544370	0.769837	0.000045
 332	3.2934e+01	3.2883	-3.960999	0.000442	4.421549	0.749031	0.000044
 333	3.3034e+01	3.2983	-3.916599	0.000446	4.462489	0.755966	0.000045
 334	3.3133e+01	3.3113	-3.872198	0.000446	4.462489	0.755966	0.000045
 335	3.3233e+01	3.3177	-3.831871	0.000405	4.053087	0.686611	0.000041
 336	3.3333e+01	3.3295	-3.789508	0.000426	4.257788	0.721289	0.000043
 337	3.3432e+01	3.3395	-3.747144	0.000426	4.257788	0.721289	0.000043
 338	3.3532e+01	3.3498	-3.706410	0.000409	4.094027	0.693547	0.000041
 339	3.3631e+01	3.3585	-3.666083	0.000405	4.053087	0.686611	0.000041
 340	3.3730e+01	3.3678	-3.625756	0.000405	4.053087	0.686611	0.000041
 341	3.3830e+01	3.3781	-3.583800	0.000422	4.216848	0.714353	0.000042
 342	3.3929e+01	3.3841	-3.543880	0.000401	4.012146	0.679676	0.000040
 343	3.4029e+01	3.4011	-3.505183	0.000389	3.889326	0.658870	0.000039
 344	3.4129e+01	3.4109	-3.463226	0.000422	4.216848	0.714353	0.000042
 345	3.4228e+01	3.4216	-3.422492	0.000409	4.094027	0.693547	0.000041
 346	3.4328e+01	3.4292	-3.383795	0.000389	3.889326	0.658870	0.000039
 347	3.4427e+01	3.4413	-3.342246	0.000418	4.175907	0.707418	0.000042
 348	3.4526e+01	3.4460	-3.300289	0.000422	4.216848	0.714353	0.000042
 349	3.4626e+01	3.4589	-3.259148	0.000413	4.134967	0.700482	0.000041
 350	3.4725e+01	3.4708	-3.222894	0.000364	3.643684	0.617257	0.000036
 351	3.4825e+01	3.4787	-3.178901	0.000442	4.421549	0.749031	0.000044
 352	3.4925e+01	3.4888	-3.136945	0.000422	4.216848	0.714353	0.000042
 353	3.5024e+01	3.4989	-3.098655	0.000385	3.848385	0.651934	0.000038
 354	3.5123e+01	3.5082	-3.059550	0.000393	3.930266	0.665805	0.000039
 355	3.5223e+01	3.5195	-3.018816	0.000409	4.094027	0.693547	0.000041
 356	3.5322e+01	3.5270	-2.979711	0.000393	3.930266	0.665805	0.000039
 357	3.5422e+01	3.5379	-2.943457	0.000364	3.643684	0.617257	0.000036
 358	3.5522e+01	3.5495	-2.904760	0.000389	3.889326	0.658870	0.000039
 359	3.5621e+01	3.5612	-2.858730	0.000463	4.626250	0.783708	0.000046
 360	3.5721e+01	3.5661	-2.822069	0.000368	3.684624	0.624192	0.000037
 361	3.5820e+01	3.5790	-2.779298	0.000430	4.298728	0.728224	0.000043
 362	3.5919e+01	3.5899	-2.738971	0.000405	4.053087	0.686611	0.000041
 363	3.6019e+01	3.6007	-2.693756	0.000454	4.544370	0.769837	0.000045
 364	3.6118e+01	3.6065	-2.655466	0.000385	3.848385	0.651934	0.000038
 365	3.6218e+01	3.6181	-2.612695	0.000430	4.298728	0.728224	0.000043
 366	3.6318e+01	3.6273	-2.571961	0.000409	4.094027	0.693547	0.000041
 367	3.6417e+01	3.6375	-2.532856	0.000393	3.930266	0.665805	0.000039
 368	3.6517e+01	3.6449	-2.488048	0.000450	4.503430	0.762902	0.000045
 369	3.6616e+01	3.6592	-2.448536	0.000397	3.971206	0.672741	0.000040
 370	3.6715e+01	3.6649	-2.412690	0.000360	3.602744	0.610321	0.000036
 371	3.6815e+01	3.6764	-2.371956	0.000409	4.094027	0.693547	0.000041
 372	3.6914e+01	3.6882	-2.328777	0.000434	4.339669	0.735160	0.000043
 373	3.7014e+01	3.6990	-2.288858	0.000401	4.012146	0.679676	0.000040
 374	3.7114e+01	3.7068	-2.251382	0.000377	3.766505	0.638063	0.000038
 375	3.7213e+01	3.7186	-2.210648	0.000409	4.094027	0.693547	0.000041
 376	3.7313e+01	3.7267	-2.168692	0.000422	4.216848	0.714353	0.000042
 377	3.7412e+01	3.7373	-2.129994	0.000389	3.889326	0.658870	0.000039
 378	3.7511e+01	3.7458	-2.086816	0.000434	4.339669	0.735160	0.000043
 379	3.7611e+01	3.7562	-2.048118	0.000389	3.889326	0.658870	0.000039
 380	3.7711e+01	3.7652	-2.009013	0.000393	3.930266	0.665805	0.000039
 381	3.7810e+01	3.7771	-1.971131	0.000381	3.807445	0.644999	0.000038
 382	3.7910e+01	3.7868	-1.932840	0.000385	3.848385	0.651934	0.000038
 383	3.8009e+01	3.7971	-1.896180	0.000368	3.684624	0.624192	0.000037
 384	3.8108e+01	3.8073	-1.855038	0.000413	4.134967	0.700482	0.000041
 385	3.8208e+01	3.8192	-1.821229	0.000340	3.398042	0.575644	0.000034
 386	3.8307e+01	3.8263	-1.782124	0.000393	3.930266	0.665805	0.000039
 387	3.8407e+01	3.8367	-1.747092	0.000352	3.520863	0.596450	0.000035
 388	3.8507e+01	3.8461	-1.709209	0.000381	3.807445	0.644999	0.000038
 389	3.8606e+01	3.8577	-1.671734	0.000377	3.766505	0.638063	0.000038
 390	3.8706e+01	3.8652	-1.632629	0.000393	3.930266	0.665805	0.000039
 391	3.8805e+01	3.8745	-1.594339	0.000385	3.848385	0.651934	0.000038
 392	3.8904e+01	3.8867	-1.559307	0.000352	3.520863	0.596450	0.000035
 393	3.9004e+01	3.8963	-1.517758	0.000418	4.175907	0.707418	0.000042
 394	3.9103e+01	3.9044	-1.480283	0.000377	3.766505	0.638063	0.000038
 395	3.9203e+01	3.9170	-1.442400	0.000381	3.807445	0.644999	0.000038
 396	3.9303e+01	3.9252	-1.405332	0.000373	3.725564	0.631128	0.000037
 397	3.9402e+01	3.9347	-1.367856	0.000377	3.766505	0.638063	0.000038
 398	3.9502e+01	3.9481	-1.334047	0.000340	3.398042	0.575644	0.000034
 399	3.9601e+01	3.9570	-1.294535	0.000397	3.971206	0.672741	0.000040
 400	3.9700e+01	3.9635	-1.253800	0.000409	4.094027	0.693547	0.000041
 401	3.9800e+01	3.9785	-1.222028	0.000319	3.193341	0.540967	0.000032
 402	3.9900e+01	3.9834	-1.185774	0.000364	3.643684	0.617257	0.000036
 403	3.9999e+01	3.9968	-1.151965	0.000340	3.398042	0.575644	0.000034
 404	4.0099e+01	4.0058	-1.117341	0.000348	3.479923	0.589515	0.000035
 405	4.0198e+01	4.0153	-1.083939	0.000336	3.357102	0.568708	0.000034
 406	4.0297e+01	4.0250	-1.045648	0.000385	3.848385	0.651934	0.000038
 407	4.0397e+01	4.0350	-1.013468	0.000323	3.234281	0.547902	0.000032
 408	4.0496e+01	4.0472	-0.978437	0.000352	3.520863	0.596450	0.000035
 409	4.0596e+01	4.0553	-0.935666	0.000430	4.298728	0.728224	0.000043
 410	4.0696e+01	4.0646	-0.904708	0.000311	3.111460	0.527096	0.000031
 411	4.0795e+01	4.0743	-0.864788	0.000401	4.012146	0.679676	0.000040
 412	4.0895e+01	4.0847	-0.835052	0.000299	2.988640	0.506289	0.000030
 413	4.0994e+01	4.0972	-0.796762	0.000385	3.848385	0.651934	0.000038
 414	4.1093e+01	4.1061	-0.764989	0.000319	3.193341	0.540967	0.000032
 415	4.1193e+01	4.1141	-0.730365	0.000348	3.479923	0.589515	0.000035
 416	4.1292e+01	4.1268	-0.697778	0.000328	3.275222	0.554838	0.000033
 417	4.1392e+01	4.1369	-0.663561	0.000344	3.438983	0.582579	0.000034
 418	4.1492e+01	4.1480	-0.630566	0.000332	3.316162	0.561773	0.000033
 419	4.1591e+01	4.1549	-0.592683	0.000381	3.807445	0.644999	0.000038
 420	4.1691e+01	4.1650	-0.558059	0.000348	3.479923	0.589515	0.000035
 421	4.1790e+01	4.1749	-0.521806	0.000364	3.643684	0.617257	0.000036
 422	4.1889e+01	4.1861	-0.487996	0.000340	3.398042	0.575644	0.000034
 423	4.1989e+01	4.1933	-0.450521	0.000377	3.766505	0.638063	0.000038
 424	4.2089e+01	4.2065	-0.414675	0.000360	3.602744	0.610321	0.000036
 425	4.2188e+01	4.2133	-0.377199	0.000377	3.766505	0.638063	0.000038
 426	4.2288e+01	4.2281	-0.340538	0.000368	3.684624	0.624192	0.000037
 427	4.2387e+01	4.2344	-0.305507	0.000352	3.520863	0.596450	0.000035
 428	4.2486e+01	4.2420	-0.270068	0.000356	3.561803	0.603386	0.000036
 429	4.2586e+01	4.2571	-0.232185	0.000381	3.807445	0.644999	0.000038
 430	4.2685e+01	4.2649	-0.196746	0.000356	3.561803	0.603386	0.000036
 431	4.2785e+01	4.2720	-0.159271	0.000377	3.766505	0.638063	0.000038
 432	4.2885e+01	4.2840	-0.127498	0.000319	3.193341	0.540967	0.000032
 433	4.2984e+01	4.2950	-0.089208	0.000385	3.848385	0.651934	0.000038
 434	4.3084e+01	4.3053	-0.050103	0.000393	3.930266	0.665805	0.000039
 435	4.3183e+01	4.3139	-0.013442	0.000368	3.684624	0.624192	0.000037
 436	4.3282e+01	4.3235	0.019552	0.000332	3.316162	0.561773	0.000033
 437	4.3382e+01	4.3336	0.057843	0.000385	3.848385	0.651934	0.000038
 438	4.3481e+01	4.3441	0.090023	0.000323	3.234281	0.547902	0.000032
 439	4.3581e+01	4.3530	0.129535	0.000397	3.971206	0.672741	0.000040
 440	4.3681e+01	4.3652	0.165788	0.000364	3.643684	0.617257	0.000036
 441	4.3780e+01	4.3783	0.201635	0.000360	3.602744	0.610321	0.000036
 442	4.3880e+01	4.3831	0.235444	0.000340	3.398042	0.575644	0.000034
 443	4.3979e+01	4.3946	0.276178	0.000409	4.094027	0.693547	0.000041
 444	4.4078e+01	4.4045	0.311210	0.000352	3.520863	0.596450	0.000035
 445	4.4178e+01	4.4140	0.342168	0.000311	3.111460	0.527096	0.000031
 446	4.4278e+01	4.4247	0.378014	0.000360	3.602744	0.610321	0.000036
 447	4.4377e+01	4.4323	0.410601	0.000328	3.275222	0.554838	0.000033
 448	4.4477e+01	4.4456	0.444818	0.000344	3.438983	0.582579	0.000034
 449	4.4576e+01	4.4527	0.481479	0.000368	3.684624	0.624192	0.000037
 450	4.4675e+01	4.4631	0.514474	0.000332	3.316162	0.561773	0.000033
 451	4.4775e+01	4.4743	0.547061	0.000328	3.275222	0.554838	0.000033
 452	4.4874e+01	4.4810	0.585759	0.000389	3.889326	0.658870	0.000039
 453	4.4974e+01	4.4917	0.618753	0.000332	3.316162	0.561773	0.000033
 454	4.5074e+01	4.5033	0.658673	0.000401	4.012146	0.679676	0.000040
 455	4.5173e+01	4.5159	0.688816	0.000303	3.029580	0.513225	0.000030
 456	4.5273e+01	4.5257	0.723848	0.000352	3.520863	0.596450	0.000035
 457	4.5372e+01	4.5321	0.760509	0.000368	3.684624	0.624192	0.000037
 458	4.5471e+01	4.5422	0.796355	0.000360	3.602744	0.610321	0.000036
 459	4.5571e+01	4.5533	0.830164	0.000340	3.398042	0.575644	0.000034
 460	4.5670e+01	4.5631	0.862752	0.000328	3.275222	0.554838	0.000033
 461	4.5770e+01	4.5722	0.899820	0.000373	3.725564	0.631128	0.000037
 462	4.5870e+01	4.5807	0.932814	0.000332	3.316162	0.561773	0.000033
 463	4.5969e+01	4.5929	0.969883	0.000373	3.725564	0.631128	0.000037
 464	4.6069e+01	4.6020	1.006136	0.000364	3.643684	0.617257	0.000036
 465	4.6168e+01	4.6117	1.044019	0.000381	3.807445	0.644999	0.000038
 466	4.6267e+01	4.6236	1.077421	0.000336	3.357102	0.568708	0.000034
 467	4.6367e+01	4.6348	1.116119	0.000389	3.889326	0.658870	0.000039
 468	4.6467e+01	4.6416	1.151557	0.000356	3.561803	0.603386	0.000036
 469	4.6566e+01	4.6529	1.188626	0.000373	3.725564	0.631128	0.000037
 470	4.6666e+01	4.6604	1.225694	0.000373	3.725564	0.631128	0.000037
 471	4.6765e+01	4.6725	1.265206	0.000397	3.971206	0.672741	0.000040
 472	4.6864e+01	4.6850	1.299015	0.000340	3.398042	0.575644	0.000034
 473	4.6964e+01	4.6918	1.334047	0.000352	3.520863	0.596450	0.000035
 474	4.7063e+01	4.7025	1.371522	0.000377	3.766505	0.638063	0.000038
 475	4.7163e+01	4.7121	1.406554	0.000352	3.520863	0.596450	0.000035
 476	4.7263e+01	4.7217	1.444029	0.000377	3.766505	0.638063	0.000038
 477	4.7362e+01	4.7298	1.481505	0.000377	3.766505	0.638063	0.000038
 478	4.7462e+01	4.7417	1.518980	0.000377	3.766505	0.638063	0.000038
 479	4.7561e+01	4.7517	1.553604	0.000348	3.479923	0.589515	0.000035
 480	4.7660e+01	4.7608	1.593117	0.000397	3.971206	0.672741	0.000040
 481	4.7760e+01	4.7730	1.625704	0.000328	3.275222	0.554838	0.000033
 482	4.7859e+01	4.7825	1.664809	0.000393	3.930266	0.665805	0.000039
 483	4.7959e+01	4.7936	1.701877	0.000373	3.725564	0.631128	0.000037
 484	4.8059e+01	4.8009	1.739353	0.000377	3.766505	0.638063	0.000038
 485	4.8158e+01	4.8107	1.776828	0.000377	3.766505	0.638063	0.000038
 486	4.8258e+01	4.8233	1.813896	0.000373	3.725564	0.631128	0.000037
 487	4.8357e+01	4.8322	1.847706	0.000340	3.398042	0.575644	0.000034
 488	4.8456e+01	4.8415	1.890477	0.000430	4.298728	0.728224	0.000043
 489	4.8556e+01	4.8547	1.928767	0.000385	3.848385	0.651934	0.000038
 490	4.8656e+01	4.8618	1.965835	0.000373	3.725564	0.631128	0.000037
 491	4.8755e+01	4.8720	2.005347	0.000397	3.971206	0.672741	0.000040
 492	4.8855e+01	4.8804	2.040379	0.000352	3.520863	0.596450	0.000035
 493	4.8954e+01	4.8923	2.079484	0.000393	3.930266	0.665805	0.000039
 494	4.9053e+01	4.9023	2.117367	0.000381	3.807445	0.644999	0.000038
 495	4.9153e+01	4.9110	2.156471	0.000393	3.930266	0.665805	0.000039
 496	4.9252e+01	4.9206	2.194354	0.000381	3.807445	0.644999	0.000038
 497	4.9352e+01	4.9310	2.230200	0.000360	3.602744	0.610321	0.000036
 498	4.9452e+01	4.9389	2.270935	0.000409	4.094027	0.693547	0.000041
 499	4.9551e+01	4.9525	2.310854	0.000401	4.012146	0.679676	0.000040
 500	4.9651e+01	4.9639	2.349959	0.000393	3.930266	0.665805	0.000039
 501	4.9750e+01	4.9715	2.389471	0.000397	3.971206	0.672741	0.000040
 502	4.9849e+01	4.9809	2.425318	0.000360	3.602744	0.610321	0.000036
 503	4.9949e+01	4.9932	2.462793	0.000377	3.766505	0.638063	0.000038
 504	5.0048e+01	5.0053	2.499047	0.000364	3.643684	0.617257	0.000036
 505	5.0148e+01	5.0098	2.534893	0.000360	3.602744	0.610321	0.000036
 506	5.0248e+01	5.0198	2.570739	0.000360	3.602744	0.610321	0.000036
 507	5.0347e+01	5.0314	2.607400	0.000368	3.684624	0.624192	0.000037
 508	5.0447e+01	5.0397	2.643246	0.000360	3.602744	0.610321	0.000036
 509	5.0546e+01	5.0498	2.681129	0.000381	3.807445	0.644999	0.000038
 510	5.0645e+01	5.0597	2.714531	0.000336	3.357102	0.568708	0.000034
 511	5.0745e+01	5.0719	2.751599	0.000373	3.725564	0.631128	0.000037
 512	5.0844e+01	5.0791	2.786223	0.000348	3.479923	0.589515	0.000035
 513	5.0944e+01	5.0906	2.822477	0.000364	3.643684	0.617257	0.000036
 514	5.1044e+01	5.1009	2.857915	0.000356	3.561803	0.603386	0.000036
 515	5.1143e+01	5.1104	2.893761	0.000360	3.602744	0.610321	0.000036
 516	5.1242e+01	5.1211	2.929608	0.000360	3.602744	0.610321	0.000036
 517	5.1342e+01	5.1295	2.967083	0.000377	3.766505	0.638063	0.000038
 518	5.1441e+01	5.1397	3.000485	0.000336	3.357102	0.568708	0.000034
 519	5.1541e+01	5.1486	3.040812	0.000405	4.053087	0.686611	0.000041
 520	5.1641e+01	5.1580	3.074214	0.000336	3.357102	0.568708	0.000034
 521	5.1740e+01	5.1707	3.108838	0.000348	3.479923	0.589515	0.000035
 522	5.1840e+01	5.1809	3.140204	0.000315	3.152401	0.534031	0.000032
 523	5.1939e+01	5.1900	3.178901	0.000389	3.889326	0.658870	0.000039
 524	5.2038e+01	5.2002	3.212303	0.000336	3.357102	0.568708	0.000034
 525	5.2138e+01	5.2076	3.248150	0.000360	3.602744	0.610321	0.000036
 526	5.2237e+01	5.2203	3.283588	0.000356	3.561803	0.603386	0.000036
 527	5.2337e+01	5.2296	3.319027	0.000356	3.561803	0.603386	0.000036
 528	5.2437e+01	5.2386	3.354059	0.000352	3.520863	0.596450	0.000035
 529	5.2536e+01	5.2474	3.396015	0.000422	4.216848	0.714353	0.000042
 530	5.2636e+01	5.2584	3.433490	0.000377	3.766505	0.638063	0.000038
 531	5.2735e+01	5.2706	3.467300	0.000340	3.398042	0.575644	0.000034
 532	5.2834e+01	5.2778	3.503553	0.000364	3.643684	0.617257	0.000036
 533	5.2934e+01	5.2906	3.538177	0.000348	3.479923	0.589515	0.000035
 534	5.3033e+01	5.3019	3.577282	0.000393	3.930266	0.665805	0.000039
 535	5.3133e+01	5.3112	3.610684	0.000336	3.357102	0.568708	0.000034
 536	5.3233e+01	5.3181	3.646123	0.000356	3.561803	0.603386	0.000036
 537	5.3332e+01	5.3289	3.680340	0.000344	3.438983	0.582579	0.000034
 538	5.3431e+01	5.3380	3.718223	0.000381	3.807445	0.644999	0.000038
 539	5.3531e+01	5.3488	3.755698	0.000377	3.766505	0.638063	0.000038
 540	5.3630e+01	5.3576	3.786656	0.000311	3.111460	0.527096	0.000031
 541	5.3730e+01	5.3706	3.828205	0.000418	4.175907	0.707418	0.000042
 542	5.3830e+01	5.3850	3.861607	0.000336	3.357102	0.568708	0.000034
 543	5.3929e+01	5.3898	3.896639	0.000352	3.520863	0.596450	0.000035
 544	5.4029e+01	5.3986	3.934114	0.000377	3.766505	0.638063	0.000038
 545	5.4128e+01	5.4087	3.967109	0.000332	3.316162	0.561773	0.000033
 546	5.4227e+01	5.4180	4.003363	0.000364	3.643684	0.617257	0.000036
 547	5.4327e+01	5.4284	4.038394	0.000352	3.520863	0.596450	0.000035
 548	5.4426e+01	5.4389	4.073018	0.000348	3.479923	0.589515	0.000035
 549	5.4526e+01	5.4470	4.106420	0.000336	3.357102	0.568708	0.000034
 550	5.4626e+01	5.4588	4.138193	0.000319	3.193341	0.540967	0.000032
 551	5.4725e+01	5.4694	4.173632	0.000356	3.561803	0.603386	0.000036
 552	5.4825e+01	5.4790	4.206219	0.000328	3.275222	0.554838	0.000033
 553	5.4924e+01	5.4862	4.242880	0.000368	3.684624	0.624192	0.000037
 554	5.5023e+01	5.4997	4.275060	0.000323	3.234281	0.547902	0.000032
 555	5.5123e+01	5.5071	4.308055	0.000332	3.316162	0.561773	0.000033
 556	5.5222e+01	5.5185	4.339013	0.000311	3.111460	0.527096	0.000031
 557	5.5322e+01	5.5282	4.375266	0.000364	3.643684	0.617257	0.000036
 558	5.5422e+01	5.5376	4.407854	0.000328	3.275222	0.554838	0.000033
 559	5.5521e+01	5.5459	4.440034	0.000323	3.234281	0.547902	0.000032
 560	5.5620e+01	5.5587	4.473029	0.000332	3.316162	0.561773	0.000033
 561	5.5720e+01	5.5689	4.504801	0.000319	3.193341	0.540967	0.000032
 562	5.5819e+01	5.5777	4.539425	0.000348	3.479923	0.589515	0.000035
 563	5.5919e+01	5.5868	4.574864	0.000356	3.561803	0.603386	0.000036
 564	5.6019e+01	5.5972	4.607044	0.000323	3.234281	0.547902	0.000032
 565	5.6118e+01	5.6075	4.643298	0.000364	3.643684	0.617257	0.000036
 566	5.6218e+01	5.6179	4.670590	0.000274	2.742998	0.464676	0.000027
 567	5.6317e+01	5.6313	4.704806	0.000344	3.438983	0.582579	0.000034
 568	5.6416e+01	5.6348	4.733320	0.000287	2.865819	0.485483	0.000029
 569	5.6516e+01	5.6474	4.767945	0.000348	3.479923	0.589515	0.000035
 570	5.6615e+01	5.6548	4.797681	0.000299	2.988640	0.506289	0.000030
 571	5.6715e+01	5.6666	4.826195	0.000287	2.865819	0.485483	0.000029
 572	5.6815e+01	5.6776	4.859189	0.000332	3.316162	0.561773	0.000033
 573	5.6914e+01	5.6875	4.888925	0.000299	2.988640	0.506289	0.000030
 574	5.7014e+01	5.6979	4.920698	0.000319	3.193341	0.540967	0.000032
 575	5.7113e+01	5.7061	4.949212	0.000287	2.865819	0.485483	0.000029
 576	5.7212e+01	5.7162	4.980985	0.000319	3.193341	0.540967	0.000032
 577	5.7312e+01	5.7244	5.014387	0.000336	3.357102	0.568708	0.000034
 578	5.7411e+01	5.7378	5.041271	0.000270	2.702058	0.457741	0.000027
 579	5.7511e+01	5.7482	5.075896	0.000348	3.479923	0.589515	0.000035
 580	5.7611e+01	5.7574	5.102780	0.000270	2.702058	0.457741	0.000027
 581	5.7710e+01	5.7661	5.136590	0.000340	3.398042	0.575644	0.000034
 582	5.7809e+01	5.7751	5.168770	0.000323	3.234281	0.547902	0.000032
 583	5.7909e+01	5.7883	5.194025	0.000254	2.538297	0.429999	0.000025
 584	5.8008e+01	5.7949	5.224576	0.000307	3.070520	0.520160	0.000031
 585	5.8108e+01	5.8068	5.256756	0.000323	3.234281	0.547902	0.000032
 586	5.8208e+01	5.8163	5.284862	0.000282	2.824879	0.478547	0.000028
 587	5.8307e+01	5.8266	5.314191	0.000295	2.947699	0.499354	0.000029
 588	5.8407e+01	5.8373	5.344742	0.000307	3.070520	0.520160	0.000031
 589	5.8506e+01	5.8497	5.377736	0.000332	3.316162	0.561773	0.000033
 590	5.8605e+01	5.8581	5.406250	0.000287	2.865819	0.485483	0.000029
 591	5.8705e+01	5.8687	5.442911	0.000368	3.684624	0.624192	0.000037
 592	5.8804e+01	5.8773	5.475091	0.000323	3.234281	0.547902	0.000032
 593	5.8904e+01	5.8892	5.507679	0.000328	3.275222	0.554838	0.000033
 594	5.9004e+01	5.8955	5.538637	0.000311	3.111460	0.527096	0.000031
 595	5.9103e+01	5.9063	5.571224	0.000328	3.275222	0.554838	0.000033
 596	5.9203e+01	5.9174	5.604219	0.000332	3.316162	0.561773	0.000033
 597	5.9302e+01	5.9255	5.634362	0.000303	3.029580	0.513225	0.000030
 598	5.9401e+01	5.9359	5.665728	0.000315	3.152401	0.534031	0.000032
 599	5.9501e+01	5.9478	5.697500	0.000319	3.193341	0.540967	0.000032
 600	5.9600e+01	5.9553	5.728866	0.000315	3.152401	0.534031	0.000032
 601	5.9700e+01	5.9648	5.761046	0.000323	3.234281	0.547902	0.000032
 602	5.9800e+01	5.9770	5.795262	0.000344	3.438983	0.582579	0.000034
 603	5.9899e+01	5.9863	5.824591	0.000295	2.947699	0.499354	0.000029
 604	5.9998e+01	5.9957	5.855957	0.000315	3.152401	0.534031	0.000032
 605	6.0098e+01	6.0069	5.888544	0.000328	3.275222	0.554838	0.000033
 606	6.0197e+01	6.0157	5.923983	0.000356	3.561803	0.603386	0.000036
 607	6.0297e+01	6.0276	5.953719	0.000299	2.988640	0.506289	0.000030
 608	6.0397e+01	6.0364	5.984269	0.000307	3.070520	0.520160	0.000031
 609	6.0496e+01	6.0474	6.019301	0.000352	3.520863	0.596450	0.000035
 610	6.0596e+01	6.0569	6.051481	0.000323	3.234281	0.547902	0.000032
 611	6.0695e+01	6.0670	6.079588	0.000282	2.824879	0.478547	0.000028
 612	6.0794e+01	6.0754	6.113397	0.000340	3.398042	0.575644	0.000034
 613	6.0894e+01	6.0882	6.142726	0.000295	2.947699	0.499354	0.000029
 614	6.0993e+01	6.0946	6.172054	0.000295	2.947699	0.499354	0.000029
 615	6.1093e+01	6.1047	6.202605	0.000307	3.070520	0.520160	0.000031
 616	6.1193e+01	6.1147	6.230304	0.000278	2.783938	0.471612	0.000028
 617	6.1292e+01	6.1266	6.264521	0.000344	3.438983	0.582579	0.000034
 618	6.1392e+01	6.1353	6.294257	0.000299	2.988640	0.506289	0.000030
 619	6.1491e+01	6.1459	6.322364	0.000282	2.824879	0.478547	0.000028
 620	6.1590e+01	6.1541	6.359025	0.000368	3.684624	0.624192	0.000037
 621	6.1690e+01	6.1647	6.385094	0.000262	2.620177	0.443870	0.000026
 622	6.1789e+01	6.1727	6.418497	0.000336	3.357102	0.568708	0.000034
 623	6.1889e+01	6.1838	6.449862	0.000315	3.152401	0.534031	0.000032
 624	6.1989e+01	6.1968	6.478376	0.000287	2.865819	0.485483	0.000029
 625	6.2088e+01	6.2066	6.509334	0.000311	3.111460	0.527096	0.000031
 626	6.2188e+01	6.2147	6.540292	0.000311	3.111460	0.527096	0.000031
 627	6.2287e+01	6.2240	6.570435	0.000303	3.029580	0.513225	0.000030
 628	6.2386e+01	6.2334	6.603837	0.000336	3.357102	0.568708	0.000034
 629	6.2486e+01	6.2464	6.634388	0.000307	3.070520	0.520160	0.000031
 630	6.2586e+01	6.2553	6.662087	0.000278	2.783938	0.471612	0.000028
 631	6.2685e+01	6.2672	6.699563	0.000377	3.766505	0.638063	0.000038
 632	6.2785e+01	6.2723	6.728892	0.000295	2.947699	0.499354	0.000029
 633	6.2884e+01	6.2855	6.758628	0.000299	2.988640	0.506289	0.000030
 634	6.2983e+01	6.2945	6.792844	0.000344	3.438983	0.582579	0.000034
 635	6.3083e+01	6.3039	6.822173	0.000295	2.947699	0.499354	0.000029
 636	6.3182e+01	6.3143	6.855982	0.000340	3.398042	0.575644	0.000034
 637	6.3282e+01	6.3271	6.889792	0.000340	3.398042	0.575644	0.000034
 638	6.3382e+01	6.3317	6.920750	0.000311	3.111460	0.527096	0.000031
 639	6.3481e+01	6.3404	6.953337	0.000328	3.275222	0.554838	0.000033
 640	6.3581e+01	6.3497	6.985517	0.000323	3.234281	0.547902	0.000032
 641	6.3680e+01	6.3667	7.020549	0.000352	3.520863	0.596450	0.000035
 642	6.3779e+01	6.3731	7.051100	0.000307	3.070520	0.520160	0.000031
 643	6.3879e+01	6.3845	7.085724	0.000348	3.479923	0.589515	0.000035
 644	6.3978e+01	6.3941	7.117089	0.000315	3.152401	0.534031	0.000032
 645	6.4078e+01	6.4031	7.147640	0.000307	3.070520	0.520160	0.000031
 646	6.4177e+01	6.4163	7.179820	0.000323	3.234281	0.547902	0.000032
 647	6.4277e+01	6.4244	7.212000	0.000323	3.234281	0.547902	0.000032
 648	6.4376e+01	6.4373	7.244995	0.000332	3.316162	0.561773	0.000033
 649	6.4476e+01	6.4434	7.278397	0.000336	3.357102	0.568708	0.000034
 650	6.4576e+01	6.4526	7.313428	0.000352	3.520863	0.596450	0.000035
 651	6.4675e+01	6.4645	7.350496	0.000373	3.725564	0.631128	0.000037
 652	6.4775e+01	6.4727	7.377788	0.000274	2.742998	0.464676	0.000027
 653	6.4874e+01	6.4837	7.412820	0.000352	3.520863	0.596450	0.000035
 654	6.4974e+01	6.4933	7.446222	0.000336	3.357102	0.568708	0.000034
 655	6.5073e+01	6.5041	7.479624	0.000336	3.357102	0.568708	0.000034
 656	6.5172e+01	6.5112	7.517914	0.000385	3.848385	0.651934	0.000038
 657	6.5272e+01	6.5224	7.551316	0.000336	3.357102	0.568708	0.000034
 658	6.5371e+01	6.5319	7.584718	0.000336	3.357102	0.568708	0.000034
 659	6.5471e+01	6.5430	7.620564	0.000360	3.602744	0.610321	0.000036
 660	6.5570e+01	6.5520	7.653152	0.000328	3.275222	0.554838	0.000033
 661	6.5670e+01	6.5632	7.683295	0.000303	3.029580	0.513225	0.000030
 662	6.5769e+01	6.5729	7.721585	0.000385	3.848385	0.651934	0.000038
 663	6.5869e+01	6.5816	7.750914	0.000295	2.947699	0.499354	0.000029
 664	6.5969e+01	6.5908	7.786353	0.000356	3.561803	0.603386	0.000036
 665	6.6068e+01	6.6000	7.822199	0.000360	3.602744	0.610321	0.000036
 666	6.6168e+01	6.6128	7.856823	0.000348	3.479923	0.589515	0.000035
 667	6.6267e+01	6.6225	7.895113	0.000385	3.848385	0.651934	0.000038
 668	6.6367e+01	6.6297	7.931367	0.000364	3.643684	0.617257	0.000036
 669	6.6466e+01	6.6427	7.966806	0.000356	3.561803	0.603386	0.000036
 670	6.6566e+01	6.6540	7.995727	0.000291	2.906759	0.492418	0.000029
 671	6.6665e+01	6.6640	8.029536	0.000340	3.398042	0.575644	0.000034
 672	6.6764e+01	6.6732	8.067012	0.000377	3.766505	0.638063	0.000038
 673	6.6864e+01	6.6803	8.096748	0.000299	2.988640	0.506289	0.000030
 674	6.6963e+01	6.6943	8.129743	0.000332	3.316162	0.561773	0.000033
 675	6.7063e+01	6.7022	8.159479	0.000299	2.988640	0.506289	0.000030
 676	6.7162e+01	6.7125	8.193288	0.000340	3.398042	0.575644	0.000034
 677	6.7262e+01	6.7216	8.224246	0.000311	3.111460	0.527096	0.000031
 678	6.7362e+01	6.7342	8.256019	0.000319	3.193341	0.540967	0.000032
 679	6.7461e+01	6.7432	8.290236	0.000344	3.438983	0.582579	0.000034
 680	6.7561e+01	6.7519	8.317935	0.000278	2.783938	0.471612	0.000028
 681	6.7660e+01	6.7605	8.354596	0.000368	3.684624	0.624192	0.000037
 682	6.7760e+01	6.7730	8.388405	0.000340	3.398042	0.575644	0.000034
 683	6.7859e+01	6.7838	8.418549	0.000303	3.029580	0.513225	0.000030
 684	6.7959e+01	6.7907	8.447062	0.000287	2.865819	0.485483	0.000029
 685	6.8058e+01	6.8002	8.482094	0.000352	3.520863	0.596450	0.000035
 686	6.8157e+01	6.8107	8.515496	0.000336	3.357102	0.568708	0.000034
 687	6.8257e+01	6.8213	8.548491	0.000332	3.316162	0.561773	0.000033
 688	6.8356e+01	6.8328	8.578227	0.000299	2.988640	0.506289	0.000030
 689	6.8456e+01	6.8404	8.610814	0.000328	3.275222	0.554838	0.000033
 690	6.8555e+01	6.8529	8.640550	0.000299	2.988640	0.506289	0.000030
 691	6.8655e+01	6.8612	8.673545	0.000332	3.316162	0.561773	0.000033
 692	6.8754e+01	6.8720	8.704910	0.000315	3.152401	0.534031	0.000032
 693	6.8854e+01	6.8816	8.732202	0.000274	2.742998	0.464676	0.000027
 694	6.8954e+01	6.8911	8.765604	0.000336	3.357102	0.568708	0.000034
 695	6.9053e+01	6.9043	8.801451	0.000360	3.602744	0.610321	0.000036
 696	6.9153e+01	6.9124	8.835260	0.000340	3.398042	0.575644	0.000034
 697	6.9252e+01	6.9199	8.865403	0.000303	3.029580	0.513225	0.000030
 698	6.9352e+01	6.9318	8.897583	0.000323	3.234281	0.547902	0.000032
 699	6.9451e+01	6.9393	8.930578	0.000332	3.316162	0.561773	0.000033
 700	6.9550e+01	6.9531	8.963980	0.000336	3.357102	0.568708	0.000034
 701	6.9650e+01	6.9613	8.999419	0.000356	3.561803	0.603386	0.000036
 702	6.9749e+01	6.9713	9.028748	0.000295	2.947699	0.499354	0.000029
 703	6.9849e+01	6.9794	9.063779	0.000352	3.520863	0.596450	0.000035
 704	6.9948e+01	6.9888	9.093108	0.000295	2.947699	0.499354	0.000029
 705	7.0048e+01	6.9997	9.126103	0.000332	3.316162	0.561773	0.000033
 706	7.0147e+01	7.0093	9.157061	0.000311	3.111460	0.527096	0.000031
 707	7.0247e+01	7.0211	9.189241	0.000323	3.234281	0.547902	0.000032
 708	7.0347e+01	7.0304	9.224679	0.000356	3.561803	0.603386	0.000036
 709	7.0446e+01	7.0367	9.259304	0.000348	3.479923	0.589515	0.000035
 710	7.0546e+01	7.0494	9.283744	0.000246	2.456416	0.416128	0.000025
 711	7.0645e+01	7.0647	9.319183	0.000356	3.561803	0.603386	0.000036
 712	7.0745e+01	7.0715	9.352992	0.000340	3.398042	0.575644	0.000034
 713	7.0844e+01	7.0794	9.384358	0.000315	3.152401	0.534031	0.000032
 714	7.0944e+01	7.0901	9.412872	0.000287	2.865819	0.485483	0.000029
 715	7.1043e+01	7.0996	9.445866	0.000332	3.316162	0.561773	0.000033
 716	7.1142e+01	7.1107	9.476824	0.000311	3.111460	0.527096	0.000031
 717	7.1242e+01	7.1190	9.507782	0.000311	3.111460	0.527096	0.000031
 718	7.1341e+01	7.1310	9.537111	0.000295	2.947699	0.499354	0.000029
 719	7.1441e+01	7.1398	9.569699	0.000328	3.275222	0.554838	0.000033
 720	7.1540e+01	7.1508	9.599027	0.000295	2.947699	0.499354	0.000029
 721	7.1640e+01	7.1626	9.631207	0.000323	3.234281	0.547902	0.000032
 722	7.1740e+01	7.1719	9.658907	0.000278	2.783938	0.471612	0.000028
 723	7.1839e+01	7.1804	9.686606	0.000278	2.783938	0.471612	0.000028
 724	7.1939e+01	7.1894	9.717564	0.000311	3.111460	0.527096	0.000031
 725	7.2038e+01	7.2003	9.746485	0.000291	2.906759	0.492418	0.000029
 726	7.2138e+01	7.2071	9.778258	0.000319	3.193341	0.540967	0.000032
 727	7.2237e+01	7.2179	9.809623	0.000315	3.152401	0.534031	0.000032
 728	7.2337e+01	7.2292	9.836101	0.000266	2.661117	0.450806	0.000027
 729	7.2436e+01	7.2384	9.867466	0.000315	3.152401	0.534031	0.000032
 730	7.2535e+01	7.2498	9.895573	0.000282	2.824879	0.478547	0.000028
 731	7.2635e+01	7.2607	9.926531	0.000311	3.111460	0.527096	0.000031
 732	7.2734e+01	7.2711	9.954230	0.000278	2.783938	0.471612	0.000028
 733	7.2834e+01	7.2811	9.983966	0.000299	2.988640	0.506289	0.000030
 734	7.2933e+01	7.2877	10.011665	0.000278	2.783938	0.471612	0.000028
 735	7.3033e+01	7.2986	10.042216	0.000307	3.070520	0.520160	0.000031
 736	7.3132e+01	7.3067	10.070323	0.000282	2.824879	0.478547	0.000028
 737	7.3232e+01	7.3166	10.100059	0.000299	2.988640	0.506289	0.000030
 738	7.3332e+01	7.3299	10.126536	0.000266	2.661117	0.450806	0.000027
 739	7.3431e+01	7.3404	10.150976	0.000246	2.456416	0.416128	0.000025
 740	7.3531e+01	7.3479	10.181120	0.000303	3.029580	0.513225	0.000030
 741	7.3630e+01	7.3598	10.208412	0.000274	2.742998	0.464676	0.000027
 742	7.3730e+01	7.3691	10.235704	0.000274	2.742998	0.464676	0.000027
 743	7.3829e+01	7.3770	10.266662	0.000311	3.111460	0.527096	0.000031
 744	7.3928e+01	7.3904	10.295176	0.000287	2.865819	0.485483	0.000029
 745	7.4028e+01	7.3983	10.322060	0.000270	2.702058	0.457741	0.000027
 746	7.4127e+01	7.4094	10.350167	0.000282	2.824879	0.478547	0.000028
 747	7.4227e+01	7.4168	10.377866	0.000278	2.783938	0.471612	0.000028
 748	7.4326e+01	7.4287	10.405565	0.000278	2.783938	0.471612	0.000028
 749	7.4426e+01	7.4392	10.431228	0.000258	2.579237	0.436935	0.000026
 750	7.4525e+01	7.4479	10.458520	0.000274	2.742998	0.464676	0.000027
 751	7.4625e+01	7.4569	10.484997	0.000266	2.661117	0.450806	0.000027
 752	7.4725e+01	7.4675	10.510253	0.000254	2.538297	0.429999	0.000025
 753	7.4824e+01	7.4783	10.537952	0.000278	2.783938	0.471612	0.000028
 754	7.4924e+01	7.4891	10.563614	0.000258	2.579237	0.436935	0.000026
 755	7.5023e+01	7.4993	10.593758	0.000303	3.029580	0.513225	0.000030
 756	7.5123e+01	7.5091	10.619828	0.000262	2.620177	0.443870	0.000026
 757	7.5222e+01	7.5198	10.649156	0.000295	2.947699	0.499354	0.000029
 758	7.5322e+01	7.5295	10.679300	0.000303	3.029580	0.513225	0.000030
 759	7.5421e+01	7.5380	10.708221	0.000291	2.906759	0.492418	0.000029
 760	7.5520e+01	7.5488	10.737142	0.000291	2.906759	0.492418	0.000029
 761	7.5620e+01	7.5603	10.765656	0.000287	2.865819	0.485483	0.000029
 762	7.5719e+01	7.5665	10.797836	0.000323	3.234281	0.547902	0.000032
 763	7.5819e+01	7.5772	10.822684	0.000250	2.497356	0.423064	0.000025
 764	7.5918e+01	7.5880	10.852828	0.000303	3.029580	0.513225	0.000030
 765	7.6018e+01	7.5965	10.879712	0.000270	2.702058	0.457741	0.000027
 766	7.6118e+01	7.6099	10.912300	0.000328	3.275222	0.554838	0.000033
 767	7.6217e+01	7.6187	10.937962	0.000258	2.579237	0.436935	0.000026
 768	7.6317e+01	7.6270	10.969328	0.000315	3.152401	0.534031	0.000032
 769	7.6416e+01	7.6351	10.994175	0.000250	2.497356	0.423064	0.000025
 770	7.6516e+01	7.6453	11.027170	0.000332	3.316162	0.561773	0.000033
 771	7.6615e+01	7.6579	11.056499	0.000295	2.947699	0.499354	0.000029
 772	7.6715e+01	7.6656	11.082976	0.000266	2.661117	0.450806	0.000027
 773	7.6814e+01	7.6776	11.111897	0.000291	2.906759	0.492418	0.000029
 774	7.6913e+01	7.6865	11.142855	0.000311	3.111460	0.527096	0.000031
 775	7.7013e+01	7.6958	11.174628	0.000319	3.193341	0.540967	0.000032
 776	7.7112e+01	7.7075	11.203550	0.000291	2.906759	0.492418	0.000029
 777	7.7212e+01	7.7148	11.231656	0.000282	2.824879	0.478547	0.000028
 778	7.7311e+01	7.7254	11.260577	0.000291	2.906759	0.492418	0.000029
 779	7.7411e+01	7.7378	11.288684	0.000282	2.824879	0.478547	0.000028
 780	7.7510e+01	7.7457	11.315161	0.000266	2.661117	0.450806	0.000027
 781	7.7610e+01	7.7559	11.342861	0.000278	2.783938	0.471612	0.000028
 782	7.7710e+01	7.7665	11.373004	0.000303	3.029580	0.513225	0.000030
 783	7.7809e+01	7.7740	11.397445	0.000246	2.456416	0.416128	0.000025
 784	7.7909e+01	7.7866	11.424737	0.000274	2.742998	0.464676	0.000027
 785	7.8008e+01	7.7953	11.452028	0.000274	2.742998	0.464676	0.000027
 786	7.8108e+01	7.8042	11.483394	0.000315	3.152401	0.534031	0.000032
 787	7.8207e+01	7.8158	11.510278	0.000270	2.702058	0.457741	0.000027
 788	7.8306e+01	7.8262	11.539200	0.000291	2.906759	0.492418	0.000029
 789	7.8406e+01	7.8351	11.570565	0.000315	3.152401	0.534031	0.000032
 790	7.8505e+01	7.8459	11.597857	0.000274	2.742998	0.464676	0.000027
 791	7.8605e+01	7.8551	11.622705	0.000250	2.497356	0.423064	0.000025
 792	7.8704e+01	7.8657	11.649997	0.000274	2.742998	0.464676	0.000027
 793	7.8804e+01	7.8761	11.682584	0.000328	3.275222	0.554838	0.000033
 794	7.8903e+01	7.8851	11.709062	0.000266	2.661117	0.450806	0.000027
 795	7.9003e+01	7.8983	11.741649	0.000328	3.275222	0.554838	0.000033
 796	7.9103e+01	7.9062	11.764868	0.000233	2.333595	0.395322	0.000023
 797	7.9202e+01	7.9144	11.792567	0.000278	2.783938	0.471612	0.000028
 798	7.9302e+01	7.9253	11.822710	0.000303	3.029580	0.513225	0.000030
 799	7.9401e+01	7.9369	11.855705	0.000332	3.316162	0.561773	0.000033
 800	7.9501e+01	7.9456	11.880146	0.000246	2.456416	0.416128	0.000025
 801	7.9600e+01	7.9523	11.916399	0.000364	3.643684	0.617257	0.000036
 802	7.9700e+01	7.9652	11.944098	0.000278	2.783938	0.471612	0.000028
 803	7.9799e+01	7.9759	11.976686	0.000328	3.275222	0.554838	0.000033
 804	7.9898e+01	7.9862	12.003163	0.000266	2.661117	0.450806	0.000027
 805	7.9998e+01	7.9960	12.034936	0.000319	3.193341	0.540967	0.000032
 806	8.0097e+01	8.0054	12.065079	0.000303	3.029580	0.513225	0.000030
 807	8.0197e+01	8.0145	12.095222	0.000303	3.029580	0.513225	0.000030
 808	8.0296e+01	8.0250	12.126180	0.000311	3.111460	0.527096	0.000031
 809	8.0396e+01	8.0349	12.155916	0.000299	2.988640	0.506289	0.000030
 810	8.0496e+01	8.0459	12.184838	0.000291	2.906759	0.492418	0.000029
 811	8.0595e+01	8.0524	12.216203	0.000315	3.152401	0.534031	0.000032
 812	8.0695e+01	8.0643	12.243088	0.000270	2.702058	0.457741	0.000027
 813	8.0794e+01	8.0762	12.277712	0.000348	3.479923	0.589515	0.000035
 814	8.0894e+01	8.0846	12.309485	0.000319	3.193341	0.540967	0.000032
 815	8.0993e+01	8.0949	12.340850	0.000315	3.152401	0.534031	0.000032
 816	8.1093e+01	8.1071	12.366513	0.000258	2.579237	0.436935	0.000026
 817	8.1192e+01	8.1154	12.402766	0.000364	3.643684	0.617257	0.000036
 818	8.1291e+01	8.1239	12.434131	0.000315	3.152401	0.534031	0.000032
 819	8.1391e+01	8.1351	12.463867	0.000299	2.988640	0.506289	0.000030
 820	8.1490e+01	8.1445	12.490752	0.000270	2.702058	0.457741	0.000027
 821	8.1590e+01	8.1545	12.527413	0.000368	3.684624	0.624192	0.000037
 822	8.1689e+01	8.1642	12.561222	0.000340	3.398042	0.575644	0.000034
 823	8.1789e+01	8.1757	12.590551	0.000295	2.947699	0.499354	0.000029
 824	8.1888e+01	8.1814	12.627212	0.000368	3.684624	0.624192	0.000037
 825	8.1988e+01	8.1949	12.657762	0.000307	3.070520	0.520160	0.000031
 826	8.2088e+01	8.2056	12.687498	0.000299	2.988640	0.506289	0.000030
 827	8.2187e+01	8.2156	12.719679	0.000323	3.234281	0.547902	0.000032
 828	8.2287e+01	8.2229	12.753081	0.000336	3.357102	0.568708	0.000034
 829	8.2386e+01	8.2361	12.785668	0.000328	3.275222	0.554838	0.000033
 830	8.2486e+01	8.2431	12.817441	0.000319	3.193341	0.540967	0.000032
 831	8.2585e+01	8.2544	12.846769	0.000295	2.947699	0.499354	0.000029
 832	8.2684e+01	8.2649	12.882208	0.000356	3.561803	0.603386	0.000036
 833	8.2784e+01	8.2729	12.916425	0.000344	3.438983	0.582579	0.000034
 834	8.2883e+01	8.2861	12.952271	0.000360	3.602744	0.610321	0.000036
 835	8.2983e+01	8.2959	12.984044	0.000319	3.193341	0.540967	0.000032
 836	8.3082e+01	8.3017	13.016631	0.000328	3.275222	0.554838	0.000033
 837	8.3182e+01	8.3155	13.050441	0.000340	3.398042	0.575644	0.000034
 838	8.3281e+01	8.3243	13.083028	0.000328	3.275222	0.554838	0.000033
 839	8.3381e+01	8.3315	13.112764	0.000299	2.988640	0.506289	0.000030
 840	8.3481e+01	8.3443	13.143722	0.000311	3.111460	0.527096	0.000031
 841	8.3580e+01	8.3546	13.176310	0.000328	3.275222	0.554838	0.000033
 842	8.3680e+01	8.3627	13.206860	0.000307	3.070520	0.520160	0.000031
 843	8.3779e+01	8.3743	13.234967	0.000282	2.824879	0.478547	0.000028
 844	8.3879e+01	8.3826	13.266332	0.000315	3.152401	0.534031	0.000032
 845	8.3978e+01	8.3930	13.302178	0.000360	3.602744	0.610321	0.000036
 846	8.4078e+01	8.4049	13.331100	0.000291	2.906759	0.492418	0.000029
 847	8.4177e+01	8.4173	13.364094	0.000332	3.316162	0.561773	0.000033
 848	8.4276e+01	8.4201	13.393830	0.000299	2.988640	0.506289	0.000030
 849	8.4376e+01	8.4311	13.425603	0.000319	3.193341	0.540967	0.000032
 850	8.4475e+01	8.4426	13.454117	0.000287	2.865819	0.485483	0.000029
 851	8.4575e+01	8.4538	13.487112	0.000332	3.316162	0.561773	0.000033
 852	8.4674e+01	8.4644	13.516441	0.000295	2.947699	0.499354	0.000029
 853	8.4774e+01	8.4710	13.545362	0.000291	2.906759	0.492418	0.000029
 854	8.4874e+01	8.4827	13.578764	0.000336	3.357102	0.568708	0.000034
 855	8.4973e+01	8.4924	13.610129	0.000315	3.152401	0.534031	0.000032
 856	8.5073e+01	8.5012	13.639865	0.000299	2.988640	0.506289	0.000030
 857	8.5172e+01	8.5157	13.669601	0.000299	2.988640	0.506289	0.000030
 858	8.5272e+01	8.5221	13.701374	0.000319	3.193341	0.540967	0.000032
 859	8.5371e+01	8.5318	13.729888	0.000287	2.865819	0.485483	0.000029
 860	8.5471e+01	8.5427	13.762883	0.000332	3.316162	0.561773	0.000033
 861	8.5570e+01	8.5535	13.790989	0.000282	2.824879	0.478547	0.000028
 862	8.5669e+01	8.5606	13.823984	0.000332	3.316162	0.561773	0.000033
 863	8.5769e+01	8.5706	13.852498	0.000287	2.865819	0.485483	0.000029
 864	8.5868e+01	8.5840	13.885086	0.000328	3.275222	0.554838	0.000033
 865	8.5968e+01	8.5957	13.922968	0.000381	3.807445	0.644999	0.000038
 866	8.6067e+01	8.6016	13.953519	0.000307	3.070520	0.520160	0.000031
 867	8.6167e+01	8.6146	13.985292	0.000319	3.193341	0.540967	0.000032
 868	8.6266e+01	8.6222	14.016250	0.000311	3.111460	0.527096	0.000031
 869	8.6366e+01	8.6346	14.050874	0.000348	3.479923	0.589515	0.000035
 870	8.6466e+01	8.6416	14.082647	0.000319	3.193341	0.540967	0.000032
 871	8.6565e+01	8.6516	14.112383	0.000299	2.988640	0.506289	0.000030
 872	8.6665e+01	8.6606	14.144563	0.000323	3.234281	0.547902	0.000032
 873	8.6764e+01	8.6727	14.178372	0.000340	3.398042	0.575644	0.000034
 874	8.6864e+01	8.6865	14.202813	0.000246	2.456416	0.416128	0.000025
 875	8.6963e+01	8.6927	14.237844	0.000352	3.520863	0.596450	0.000035
 876	8.7063e+01	8.7025	14.265951	0.000282	2.824879	0.478547	0.000028
 877	8.7162e+01	8.7121	14.300982	0.000352	3.520863	0.596450	0.000035
 878	8.7261e+01	8.7225	14.336421	0.000356	3.561803	0.603386	0.000036
 879	8.7361e+01	8.7319	14.367786	0.000315	3.152401	0.534031	0.000032
 880	8.7460e+01	8.7402	14.396708	0.000291	2.906759	0.492418	0.000029
 881	8.7560e+01	8.7522	14.430110	0.000336	3.357102	0.568708	0.000034
 882	8.7659e+01	8.7605	14.459439	0.000295	2.947699	0.499354	0.000029
 883	8.7759e+01	8.7723	14.491211	0.000319	3.193341	0.540967	0.000032
 884	8.7859e+01	8.7830	14.521355	0.000303	3.029580	0.513225	0.000030
 885	8.7958e+01	8.7928	14.552313	0.000311	3.111460	0.527096	0.000031
 886	8.8058e+01	8.8008	14.580012	0.000278	2.783938	0.471612	0.000028
 887	8.8157e+01	8.8092	14.612192	0.000323	3.234281	0.547902	0.000032
 888	8.8257e+01	8.8210	14.641113	0.000291	2.906759	0.492418	0.000029
 889	8.8356e+01	8.8288	14.668813	0.000278	2.783938	0.471612	0.000028
 890	8.8456e+01	8.8387	14.697327	0.000287	2.865819	0.485483	0.000029
 891	8.8555e+01	8.8496	14.726655	0.000295	2.947699	0.499354	0.000029
 892	8.8654e+01	8.8602	14.760872	0.000344	3.438983	0.582579	0.000034
 893	8.8754e+01	8.8709	14.790608	0.000299	2.988640	0.506289	0.000030
 894	8.8853e+01	8.8788	14.821973	0.000315	3.152401	0.534031	0.000032
 895	8.8953e+01	8.8882	14.848043	0.000262	2.620177	0.443870	0.000026
 896	8.9052e+01	8.8966	14.882260	0.000344	3.438983	0.582579	0.000034
 897	8.9152e+01	8.9094	14.907515	0.000254	2.538297	0.429999	0.000025
 898	8.9251e+01	8.9188	14.938473	0.000311	3.111460	0.527096	0.000031
 899	8.9351e+01	8.9326	14.972690	0.000344	3.438983	0.582579	0.000034
 900	8.9451e+01	8.9413	14.999982	0.000274	2.742998	0.464676	0.000027
 901	8.9550e+01	8.9481	15.031755	0.000319	3.193341	0.540967	0.000032
 902	8.9650e+01	8.9606	15.060269	0.000287	2.865819	0.485483	0.000029
 903	8.9749e+01	8.9730	15.092856	0.000328	3.275222	0.554838	0.000033
 904	8.9849e+01	8.9796	15.118926	0.000262	2.620177	0.443870	0.000026
 905	8.9948e+01	8.9936	15.149069	0.000303	3.029580	0.513225	0.000030
 906	9.0047e+01	8.9999	15.175139	0.000262	2.620177	0.443870	0.000026
 907	9.0147e+01	9.0082	15.200395	0.000254	2.538297	0.429999	0.000025
 908	9.0246e+01	9.0210	15.232167	0.000319	3.193341	0.540967	0.000032
 909	9.0346e+01	9.0302	15.258645	0.000266	2.661117	0.450806	0.000027
 910	9.0445e+01	9.0389	15.287566	0.000291	2.906759	0.492418	0.000029
 911	9.0545e+01	9.0488	15.318931	0.000315	3.152401	0.534031	0.000032
 912	9.0644e+01	9.0621	15.348667	0.000299	2.988640	0.506289	0.000030
 913	9.0744e+01	9.0662	15.371479	0.000229	2.292655	0.388386	0.000023
 914	9.0844e+01	9.0771	15.399178	0.000278	2.783938	0.471612	0.000028
 915	9.0943e+01	9.0918	15.431765	0.000328	3.275222	0.554838	0.000033
 916	9.1043e+01	9.1006	15.457428	0.000258	2.579237	0.436935	0.000026
 917	9.1142e+01	9.1073	15.484720	0.000274	2.742998	0.464676	0.000027
 918	9.1242e+01	9.1189	15.512826	0.000282	2.824879	0.478547	0.000028
 919	9.1341e+01	9.1260	15.540933	0.000282	2.824879	0.478547	0.000028
 920	9.1441e+01	9.1417	15.569040	0.000282	2.824879	0.478547	0.000028
 921	9.1540e+01	9.1504	15.598368	0.000295	2.947699	0.499354	0.000029
 922	9.1639e+01	9.1602	15.629734	0.000315	3.152401	0.534031	0.000032
 923	9.1739e+01	9.1685	15.655804	0.000262	2.620177	0.443870	0.000026
 924	9.1838e+01	9.1791	15.691242	0.000356	3.561803	0.603386	0.000036
 925	9.1938e+01	9.1882	15.718942	0.000278	2.783938	0.471612	0.000028
 926	9.2037e+01	9.1996	15.749085	0.000303	3.029580	0.513225	0.000030
 927	9.2137e+01	9.2075	15.777599	0.000287	2.865819	0.485483	0.000029
 928	9.2237e+01	9.2188	15.807742	0.000303	3.029580	0.513225	0.000030
 929	9.2336e+01	9.2276	15.840330	0.000328	3.275222	0.554838	0.000033
 930	9.2436e+01	9.2384	15.871695	0.000315	3.152401	0.534031	0.000032
 931	9.2535e+01	9.2507	15.902653	0.000311	3.111460	0.527096	0.000031
 932	9.2635e+01	9.2579	15.931575	0.000291	2.906759	0.492418	0.000029
 933	9.2734e+01	9.2693	15.962940	0.000315	3.152401	0.534031	0.000032
 934	9.2834e+01	9.2792	15.990232	0.000274	2.742998	0.464676	0.000027
 935	9.2933e+01	9.2873	16.028522	0.000385	3.848385	0.651934	0.000038
 936	9.3032e+01	9.2975	16.056629	0.000282	2.824879	0.478547	0.000028
 937	9.3132e+01	9.3092	16.089623	0.000332	3.316162	0.561773	0.000033
 938	9.3231e+01	9.3150	16.118545	0.000291	2.906759	0.492418	0.000029
 939	9.3331e+01	9.3288	16.150317	0.000319	3.193341	0.540967	0.000032
 940	9.3430e+01	9.3396	16.184534	0.000344	3.438983	0.582579	0.000034
 941	9.3530e+01	9.3487	16.214270	0.000299	2.988640	0.506289	0.000030
 942	9.3629e+01	9.3569	16.246450	0.000323	3.234281	0.547902	0.000032
 943	9.3729e+01	9.3695	16.273742	0.000274	2.742998	0.464676	0.000027
 944	9.3829e+01	9.3784	16.308774	0.000352	3.520863	0.596450	0.000035
 945	9.3928e+01	9.3900	16.340139	0.000315	3.152401	0.534031	0.000032
 946	9.4028e+01	9.3975	16.368653	0.000287	2.865819	0.485483	0.000029
 947	9.4127e+01	9.4069	16.402870	0.000344	3.438983	0.582579	0.000034
 948	9.4227e+01	9.4178	16.434235	0.000315	3.152401	0.534031	0.000032
 949	9.4326e+01	9.4282	16.460713	0.000266	2.661117	0.450806	0.000027
 950	9.4425e+01	9.4400	16.494115	0.000336	3.357102	0.568708	0.000034
 951	9.4525e+01	9.4458	16.524665	0.000307	3.070520	0.520160	0.000031
 952	9.4624e+01	9.4587	16.552772	0.000282	2.824879	0.478547	0.000028
 953	9.4724e+01	9.4691	16.586989	0.000344	3.438983	0.582579	0.000034
 954	9.4823e+01	9.4791	16.617132	0.000303	3.029580	0.513225	0.000030
 955	9.4923e+01	9.4855	16.651349	0.000344	3.438983	0.582579	0.000034
 956	9.5022e+01	9.4965	16.679863	0.000287	2.865819	0.485483	0.000029
 957	9.5122e+01	9.5051	16.715302	0.000356	3.561803	0.603386	0.000036
 958	9.5222e+01	9.5173	16.740964	0.000258	2.579237	0.436935	0.000026
 959	9.5321e+01	9.5264	16.774774	0.000340	3.398042	0.575644	0.000034
 960	9.5421e+01	9.5391	16.809398	0.000348	3.479923	0.589515	0.000035
 961	9.5520e+01	9.5459	16.843207	0.000340	3.398042	0.575644	0.000034
 962	9.5620e+01	9.5557	16.872128	0.000291	2.906759	0.492418	0.000029
 963	9.5719e+01	9.5687	16.903087	0.000311	3.111460	0.527096	0.000031
 964	9.5819e+01	9.5759	16.936081	0.000332	3.316162	0.561773	0.000033
 965	9.5918e+01	9.5850	16.972742	0.000368	3.684624	0.624192	0.000037
 966	9.6017e+01	9.5990	17.002071	0.000295	2.947699	0.499354	0.000029
 967	9.6117e+01	9.6048	17.034251	0.000323	3.234281	0.547902	0.000032
 968	9.6216e+01	9.6134	17.068468	0.000344	3.438983	0.582579	0.000034
 969	9.6316e+01	9.6265	17.103092	0.000348	3.479923	0.589515	0.000035
 970	9.6415e+01	9.6372	17.137308	0.000344	3.438983	0.582579	0.000034
 971	9.6515e+01	9.6484	17.175191	0.000381	3.807445	0.644999	0.000038
 972	9.6615e+01	9.6564	17.205742	0.000307	3.070520	0.520160	0.000031
 973	9.6714e+01	9.6651	17.241996	0.000364	3.643684	0.617257	0.000036
 974	9.6814e+01	9.6798	17.278656	0.000368	3.684624	0.624192	0.000037
 975	9.6913e+01	9.6859	17.312058	0.000336	3.357102	0.568708	0.000034
 976	9.7013e+01	9.6986	17.347497	0.000356	3.561803	0.603386	0.000036
 977	9.7112e+01	9.7063	17.380899	0.000336	3.357102	0.568708	0.000034
 978	9.7212e+01	9.7173	17.418375	0.000377	3.766505	0.638063	0.000038
 979	9.7311e+01	9.7239	17.451370	0.000332	3.316162	0.561773	0.000033
 980	9.7410e+01	9.7357	17.483142	0.000319	3.193341	0.540967	0.000032
 981	9.7510e+01	9.7456	17.520618	0.000377	3.766505	0.638063	0.000038
 982	9.7609e+01	9.7559	17.558093	0.000377	3.766505	0.638063	0.000038
 983	9.7709e+01	9.7656	17.590273	0.000323	3.234281	0.547902	0.000032
 984	9.7808e+01	9.7778	17.628971	0.000389	3.889326	0.658870	0.000039
 985	9.7908e+01	9.7843	17.662373	0.000336	3.357102	0.568708	0.000034
 986	9.8007e+01	9.7962	17.698627	0.000364	3.643684	0.617257	0.000036
 987	9.8107e+01	9.8071	17.734473	0.000360	3.602744	0.610321	0.000036
 988	9.8207e+01	9.8159	17.768282	0.000340	3.398042	0.575644	0.000034
 989	9.8306e+01	9.8273	17.811460	0.000434	4.339669	0.735160	0.000043
 990	9.8406e+01	9.8352	17.846085	0.000348	3.479923	0.589515	0.000035
 991	9.8505e+01	9.8447	17.883967	0.000381	3.807445	0.644999	0.000038
 992	9.8605e+01	9.8560	17.921443	0.000377	3.766505	0.638063	0.000038
 993	9.8704e+01	9.8657	17.962177	0.000409	4.094027	0.693547	0.000041
 994	9.8803e+01	9.8762	17.998023	0.000360	3.602744	0.610321	0.000036
 995	9.8903e+01	9.8838	18.035091	0.000373	3.725564	0.631128	0.000037
 996	9.9002e+01	9.8950	18.072567	0.000377	3.766505	0.638063	0.000038
 997	9.9102e+01	9.9030	18.110042	0.000377	3.766505	0.638063	0.000038
 998	9.9201e+01	9.9149	18.147111	0.000373	3.725564	0.631128	0.000037
 999	9.9301e+01	9.9244	18.185808	0.000389	3.889326	0.658870	0.000039
1000	9.9400e+01	9.9344	18.226135	0.000405	4.053087	0.686611	0.000041
1001	9.9500e+01	9.9464	18.261574	0.000356	3.561803	0.603386	0.000036
1002	9.9600e+01	9.9575	18.305974	0.000446	4.462489	0.755966	0.000045
1003	9.9699e+01	9.9661	18.345079	0.000393	3.930266	0.665805	0.000039
1004	9.9799e+01	9.9723	18.382147	0.000373	3.725564	0.631128	0.000037
1005	9.9898e+01	9.9842	18.421252	0.000393	3.930266	0.665805	0.000039
1006	9.9998e+01	9.9951	18.460764	0.000397	3.971206	0.672741	0.000040
1007	1.0010e+02	9.9836	18.454654	0.000061	0.614104	0.104032	-0.000006
1008	1.0020e+02	9.9786	18.441619	0.000131	1.310089	0.221935	-0.000013
1009	1.0030e+02	9.9662	18.433880	0.000078	0.777865	0.131774	-0.000008
1010	1.0040e+02	9.9537	18.420845	0.000131	1.310089	0.221935	-0.000013
1011	1.0050e+02	9.9469	18.409439	0.000115	1.146328	0.194193	-0.000011
1012	1.0059e+02	9.9371	18.403329	0.000061	0.614104	0.104032	-0.000006
1013	1.0069e+02	9.9235	18.389072	0.000143	1.432909	0.242741	-0.000014
1014	1.0079e+02	9.9128	18.376037	0.000131	1.310089	0.221935	-0.000013
1015	1.0089e+02	9.9072	18.363817	0.000123	1.228208	0.208064	-0.000012
1016	1.0099e+02	9.8947	18.351189	0.000127	1.269148	0.215000	-0.000013
1017	1.0109e+02	9.8849	18.341413	0.000098	0.982566	0.166451	-0.000010
1018	1.0119e+02	9.8748	18.327156	0.000143	1.432909	0.242741	-0.000014
1019	1.0129e+02	9.8676	18.313306	0.000139	1.391969	0.235806	-0.000014
1020	1.0139e+02	9.8548	18.303938	0.000094	0.941626	0.159516	-0.000009
1021	1.0149e+02	9.8456	18.286422	0.000176	1.760432	0.298225	-0.000018
1022	1.0159e+02	9.8322	18.272572	0.000139	1.391969	0.235806	-0.000014
1023	1.0169e+02	9.8267	18.260759	0.000119	1.187268	0.201129	-0.000012
1024	1.0179e+02	9.8151	18.245280	0.000156	1.555730	0.263548	-0.000016
1025	1.0189e+02	9.8077	18.229801	0.000156	1.555730	0.263548	-0.000016
1026	1.0199e+02	9.7955	18.215137	0.000147	1.473850	0.249677	-0.000015
1027	1.0209e+02	9.7865	18.200473	0.000147	1.473850	0.249677	-0.000015
1028	1.0219e+02	9.7768	18.185808	0.000147	1.473850	0.249677	-0.000015
1029	1.0229e+02	9.7644	18.173181	0.000127	1.269148	0.215000	-0.000013
1030	1.0239e+02	9.7547	18.156480	0.000168	1.678551	0.284354	-0.000017
1031	1.0248e+02	9.7449	18.147111	0.000094	0.941626	0.159516	-0.000009
1032	1.0258e+02	9.7373	18.132446	0.000147	1.473850	0.249677	-0.000015
1033	1.0268e+02	9.7241	18.116153	0.000164	1.637611	0.277419	-0.000016
1034	1.0278e+02	9.7174	18.096600	0.000197	1.965133	0.332903	-0.000020
1035	1.0288e+02	9.7057	18.087231	0.000094	0.941626	0.159516	-0.000009
1036	1.0298e+02	9.6958	18.071752	0.000156	1.555730	0.263548	-0.000016
1037	1.0308e+02	9.6853	18.057088	0.000147	1.473850	0.249677	-0.000015
1038	1.0318e+02	9.6754	18.042424	0.000147	1.473850	0.249677	-0.000015
1039	1.0328e+02	9.6664	18.026537	0.000160	1.596670	0.270483	-0.000016
1040	1.0338e+02	9.6551	18.008614	0.000180	1.801372	0.305161	-0.000018
1041	1.0348e+02	9.6443	17.992728	0.000160	1.596670	0.270483	-0.000016
1042	1.0358e+02	9.6387	17.976434	0.000164	1.637611	0.277419	-0.000016
1043	1.0368e+02	9.6297	17.961362	0.000151	1.514790	0.256612	-0.000015
1044	1.0378e+02	9.6152	17.947513	0.000139	1.391969	0.235806	-0.000014
1045	1.0388e+02	9.6061	17.929590	0.000180	1.801372	0.305161	-0.000018
1046	1.0398e+02	9.5974	17.911259	0.000184	1.842312	0.312096	-0.000018
1047	1.0408e+02	9.5863	17.896188	0.000151	1.514790	0.256612	-0.000015
1048	1.0418e+02	9.5770	17.877450	0.000188	1.883252	0.319032	-0.000019
1049	1.0428e+02	9.5667	17.860749	0.000168	1.678551	0.284354	-0.000017
1050	1.0438e+02	9.5577	17.844048	0.000168	1.678551	0.284354	-0.000017
1051	1.0447e+02	9.5474	17.820829	0.000233	2.333595	0.395322	-0.000023
1052	1.0457e+02	9.5377	17.802906	0.000180	1.801372	0.305161	-0.000018
1053	1.0467e+02	9.5242	17.782132	0.000209	2.087954	0.353709	-0.000021
1054	1.0477e+02	9.5186	17.765023	0.000172	1.719491	0.291290	-0.000017
1055	1.0487e+02	9.5068	17.742620	0.000225	2.251715	0.381451	-0.000023
1056	1.0497e+02	9.4952	17.724289	0.000184	1.842312	0.312096	-0.000018
1057	1.0507e+02	9.4856	17.704737	0.000197	1.965133	0.332903	-0.000020
1058	1.0517e+02	9.4766	17.685592	0.000192	1.924193	0.325967	-0.000019
1059	1.0527e+02	9.4669	17.666039	0.000197	1.965133	0.332903	-0.000020
1060	1.0537e+02	9.4580	17.648523	0.000176	1.760432	0.298225	-0.000018
1061	1.0547e+02	9.4473	17.623675	0.000250	2.497356	0.423064	-0.000025
1062	1.0557e+02	9.4386	17.607789	0.000160	1.596670	0.270483	-0.000016
1063	1.0567e+02	9.4276	17.582941	0.000250	2.497356	0.423064	-0.000025
1064	1.0577e+02	9.4159	17.565018	0.000180	1.801372	0.305161	-0.000018
1065	1.0587e+02	9.4073	17.545466	0.000197	1.965133	0.332903	-0.000020
1066	1.0597e+02	9.3967	17.524691	0.000209	2.087954	0.353709	-0.000021
1067	1.0607e+02	9.3878	17.504324	0.000205	2.047013	0.346773	-0.000020
1068	1.0617e+02	9.3774	17.479069	0.000254	2.538297	0.429999	-0.000025
1069	1.0627e+02	9.3673	17.456258	0.000229	2.292655	0.388386	-0.000023
1070	1.0637e+02	9.3604	17.437927	0.000184	1.842312	0.312096	-0.000018
1071	1.0647e+02	9.3506	17.413894	0.000242	2.415476	0.409193	-0.000024
1072	1.0656e+02	9.3392	17.395156	0.000188	1.883252	0.319032	-0.000019
1073	1.0666e+02	9.3270	17.371938	0.000233	2.333595	0.395322	-0.000023
1074	1.0676e+02	9.3213	17.347090	0.000250	2.497356	0.423064	-0.000025
1075	1.0686e+02	9.3079	17.323057	0.000242	2.415476	0.409193	-0.000024
1076	1.0696e+02	9.2981	17.298209	0.000250	2.497356	0.423064	-0.000025
1077	1.0706e+02	9.2876	17.275398	0.000229	2.292655	0.388386	-0.000023
1078	1.0716e+02	9.2767	17.252994	0.000225	2.251715	0.381451	-0.000023
1079	1.0726e+02	9.2707	17.231812	0.000213	2.128894	0.360644	-0.000021
1080	1.0736e+02	9.2590	17.206557	0.000254	2.538297	0.429999	-0.000025
1081	1.0746e+02	9.2480	17.185782	0.000209	2.087954	0.353709	-0.000021
1082	1.0756e+02	9.2395	17.158898	0.000270	2.702058	0.457741	-0.000027
1083	1.0766e+02	9.2303	17.136494	0.000225	2.251715	0.381451	-0.000023
1084	1.0776e+02	9.2191	17.110831	0.000258	2.579237	0.436935	-0.000026
1085	1.0786e+02	9.2082	17.084354	0.000266	2.661117	0.450806	-0.000027
1086	1.0796e+02	9.2007	17.059913	0.000246	2.456416	0.416128	-0.000025
1087	1.0806e+02	9.1904	17.035880	0.000242	2.415476	0.409193	-0.000024
1088	1.0816e+02	9.1802	17.007774	0.000282	2.824879	0.478547	-0.000028
1089	1.0826e+02	9.1709	16.982518	0.000254	2.538297	0.429999	-0.000025
1090	1.0836e+02	9.1599	16.963373	0.000192	1.924193	0.325967	-0.000019
1091	1.0845e+02	9.1480	16.938118	0.000254	2.538297	0.429999	-0.000025
1092	1.0855e+02	9.1398	16.918566	0.000197	1.965133	0.332903	-0.000020
1093	1.0865e+02	9.1284	16.894940	0.000237	2.374536	0.402257	-0.000024
1094	1.0875e+02	9.1212	16.870092	0.000250	2.497356	0.423064	-0.000025
1095	1.0885e+02	9.1099	16.848095	0.000221	2.210775	0.374515	-0.000022
1096	1.0895e+02	9.1010	16.826506	0.000217	2.169834	0.367580	-0.000022
1097	1.0905e+02	9.0884	16.800436	0.000262	2.620177	0.443870	-0.000026
1098	1.0915e+02	9.0790	16.780476	0.000201	2.006073	0.339838	-0.000020
1099	1.0925e+02	9.0710	16.754814	0.000258	2.579237	0.436935	-0.000026
1100	1.0935e+02	9.0601	16.736483	0.000184	1.842312	0.312096	-0.000018
1101	1.0945e+02	9.0481	16.711228	0.000254	2.538297	0.429999	-0.000025
1102	1.0955e+02	9.0408	16.682714	0.000287	2.865819	0.485483	-0.000029
1103	1.0965e+02	9.0294	16.666420	0.000164	1.637611	0.277419	-0.000016
1104	1.0975e+02	9.0198	16.638314	0.000282	2.824879	0.478547	-0.000028
1105	1.0985e+02	9.0097	16.617947	0.000205	2.047013	0.346773	-0.000020
1106	1.0995e+02	9.0007	16.597172	0.000209	2.087954	0.353709	-0.000021
1107	1.1005e+02	8.9919	16.573139	0.000242	2.415476	0.409193	-0.000024
1108	1.1015e+02	8.9809	16.548291	0.000250	2.497356	0.423064	-0.000025
1109	1.1025e+02	8.9667	16.525073	0.000233	2.333595	0.395322	-0.000023
1110	1.1035e+02	8.9621	16.505113	0.000201	2.006073	0.339838	-0.000020
1111	1.1044e+02	8.9491	16.477006	0.000282	2.824879	0.478547	-0.000028
1112	1.1054e+02	8.9404	16.452158	0.000250	2.497356	0.423064	-0.000025
1113	1.1064e+02	8.9310	16.431791	0.000205	2.047013	0.346773	-0.000020
1114	1.1074e+02	8.9218	16.404499	0.000274	2.742998	0.464676	-0.000027
1115	1.1084e+02	8.9129	16.381281	0.000233	2.333595	0.395322	-0.000023
1116	1.1094e+02	8.9003	16.357247	0.000242	2.415476	0.409193	-0.000024
1117	1.1104e+02	8.8931	16.332807	0.000246	2.456416	0.416128	-0.000025
1118	1.1114e+02	8.8834	16.304700	0.000282	2.824879	0.478547	-0.000028
1119	1.1124e+02	8.8689	16.281074	0.000237	2.374536	0.402257	-0.000024
1120	1.1134e+02	8.8631	16.254597	0.000266	2.661117	0.450806	-0.000027
1121	1.1144e+02	8.8501	16.228527	0.000262	2.620177	0.443870	-0.000026
1122	1.1154e+02	8.8407	16.204901	0.000237	2.374536	0.402257	-0.000024
1123	1.1164e+02	8.8330	16.183720	0.000213	2.128894	0.360644	-0.000021
1124	1.1174e+02	8.8204	16.159279	0.000246	2.456416	0.416128	-0.000025
1125	1.1184e+02	8.8121	16.134838	0.000246	2.456416	0.416128	-0.000025
1126	1.1194e+02	8.7995	16.107139	0.000278	2.783938	0.471612	-0.000028
1127	1.1204e+02	8.7900	16.086365	0.000209	2.087954	0.353709	-0.000021
1128	1.1214e+02	8.7793	16.059480	0.000270	2.702058	0.457741	-0.000027
1129	1.1224e+02	8.7691	16.035854	0.000237	2.374536	0.402257	-0.000024
1130	1.1234e+02	8.7637	16.011414	0.000246	2.456416	0.416128	-0.000025
1131	1.1244e+02	8.7515	15.985344	0.000262	2.620177	0.443870	-0.000026
1132	1.1253e+02	8.7421	15.963755	0.000217	2.169834	0.367580	-0.000022
1133	1.1263e+02	8.7320	15.937685	0.000262	2.620177	0.443870	-0.000026
1134	1.1273e+02	8.7218	15.911615	0.000262	2.620177	0.443870	-0.000026
1135	1.1283e+02	8.7118	15.889618	0.000221	2.210775	0.374515	-0.000022
1136	1.1293e+02	8.7012	15.863956	0.000258	2.579237	0.436935	-0.000026
1137	1.1303e+02	8.6903	15.842367	0.000217	2.169834	0.367580	-0.000022
1138	1.1313e+02	8.6810	15.818741	0.000237	2.374536	0.402257	-0.000024
1139	1.1323e+02	8.6707	15.796337	0.000225	2.251715	0.381451	-0.000023
1140	1.1333e+02	8.6615	15.771082	0.000254	2.538297	0.429999	-0.000025
1141	1.1343e+02	8.6485	15.746641	0.000246	2.456416	0.416128	-0.000025
1142	1.1353e+02	8.6436	15.721386	0.000254	2.538297	0.429999	-0.000025
1143	1.1363e+02	8.6325	15.701019	0.000205	2.047013	0.346773	-0.000020
1144	1.1373e+02	8.6218	15.678207	0.000229	2.292655	0.388386	-0.000023
1145	1.1383e+02	8.6127	15.657433	0.000209	2.087954	0.353709	-0.000021
1146	1.1393e+02	8.6025	15.630548	0.000270	2.702058	0.457741	-0.000027
1147	1.1403e+02	8.5928	15.610181	0.000205	2.047013	0.346773	-0.000020
1148	1.1413e+02	8.5840	15.585333	0.000250	2.497356	0.423064	-0.000025
1149	1.1423e+02	8.5732	15.561707	0.000237	2.374536	0.402257	-0.000024
1150	1.1433e+02	8.5638	15.533601	0.000282	2.824879	0.478547	-0.000028
1151	1.1442e+02	8.5523	15.517307	0.000164	1.637611	0.277419	-0.000016
1152	1.1452e+02	8.5445	15.491645	0.000258	2.579237	0.436935	-0.000026
1153	1.1462e+02	8.5317	15.468833	0.000229	2.292655	0.388386	-0.000023
1154	1.1472e+02	8.5208	15.446837	0.000221	2.210775	0.374515	-0.000022
1155	1.1482e+02	8.5126	15.425248	0.000217	2.169834	0.367580	-0.000022
1156	1.1492e+02	8.5011	15.399178	0.000262	2.620177	0.443870	-0.000026
1157	1.1502e+02	8.4927	15.381662	0.000176	1.760432	0.298225	-0.000018
1158	1.1512e+02	8.4824	15.364554	0.000172	1.719491	0.291290	-0.000017
1159	1.1522e+02	8.4736	15.336447	0.000282	2.824879	0.478547	-0.000028
1160	1.1532e+02	8.4632	15.312007	0.000246	2.456416	0.416128	-0.000025
1161	1.1542e+02	8.4548	15.292047	0.000201	2.006073	0.339838	-0.000020
1162	1.1552e+02	8.4444	15.271272	0.000209	2.087954	0.353709	-0.000021
1163	1.1562e+02	8.4318	15.245610	0.000258	2.579237	0.436935	-0.000026
1164	1.1572e+02	8.4229	15.225243	0.000205	2.047013	0.346773	-0.000020
1165	1.1582e+02	8.4126	15.204468	0.000209	2.087954	0.353709	-0.000021
1166	1.1592e+02	8.4011	15.185730	0.000188	1.883252	0.319032	-0.000019
1167	1.1602e+02	8.3944	15.162512	0.000233	2.333595	0.395322	-0.000023
1168	1.1612e+02	8.3782	15.140515	0.000221	2.210775	0.374515	-0.000022
1169	1.1622e+02	8.3702	15.115667	0.000250	2.497356	0.423064	-0.000025
1170	1.1632e+02	8.3636	15.097744	0.000180	1.801372	0.305161	-0.000018
1171	1.1642e+02	8.3561	15.078192	0.000197	1.965133	0.332903	-0.000020
1172	1.1651e+02	8.3423	15.053344	0.000250	2.497356	0.423064	-0.000025
1173	1.1661e+02	8.3326	15.032977	0.000205	2.047013	0.346773	-0.000020
1174	1.1671e+02	8.3231	15.009351	0.000237	2.374536	0.402257	-0.000024
1175	1.1681e+02	8.3132	14.985725	0.000237	2.374536	0.402257	-0.000024
1176	1.1691e+02	8.3035	14.960470	0.000254	2.538297	0.429999	-0.000025
1177	1.1701e+02	8.2923	14.936029	0.000246	2.456416	0.416128	-0.000025
1178	1.1711e+02	8.2862	14.911181	0.000250	2.497356	0.423064	-0.000025
1179	1.1721e+02	8.2748	14.888778	0.000225	2.251715	0.381451	-0.000023
1180	1.1731e+02	8.2632	14.866374	0.000225	2.251715	0.381451	-0.000023
1181	1.1741e+02	8.2545	14.838674	0.000278	2.783938	0.471612	-0.000028
1182	1.1751e+02	8.2452	14.817900	0.000209	2.087954	0.353709	-0.000021
1183	1.1761e+02	8.2336	14.792645	0.000254	2.538297	0.429999	-0.000025
1184	1.1771e+02	8.2240	14.771056	0.000217	2.169834	0.367580	-0.000022
1185	1.1781e+02	8.2143	14.745393	0.000258	2.579237	0.436935	-0.000026
1186	1.1791e+02	8.2038	14.720545	0.000250	2.497356	0.423064	-0.000025
1187	1.1801e+02	8.1943	14.694068	0.000266	2.661117	0.450806	-0.000027
1188	1.1811e+02	8.1850	14.673701	0.000205	2.047013	0.346773	-0.000020
1189	1.1821e+02	8.1757	14.647223	0.000266	2.661117	0.450806	-0.000027
1190	1.1831e+02	8.1661	14.621968	0.000254	2.538297	0.429999	-0.000025
1191	1.1841e+02	8.1592	14.596713	0.000254	2.538297	0.429999	-0.000025
1192	1.1850e+02	8.1459	14.572272	0.000246	2.456416	0.416128	-0.000025
1193	1.1860e+02	8.1350	14.548647	0.000237	2.374536	0.402257	-0.000024
1194	1.1870e+02	8.1278	14.521355	0.000274	2.742998	0.464676	-0.000027
1195	1.1880e+02	8.1130	14.496914	0.000246	2.456416	0.416128	-0.000025
1196	1.1890e+02	8.1056	14.473696	0.000233	2.333595	0.395322	-0.000023
1197	1.1900e+02	8.0952	14.444774	0.000291	2.906759	0.492418	-0.000029
1198	1.1910e+02	8.0833	14.424000	0.000209	2.087954	0.353709	-0.000021
1199	1.1920e+02	8.0753	14.402411	0.000217	2.169834	0.367580	-0.000022
1200	1.1930e+02	8.0647	14.379599	0.000229	2.292655	0.388386	-0.000023
1201	1.1940e+02	8.0588	14.353529	0.000262	2.620177	0.443870	-0.000026
1202	1.1950e+02	8.0447	14.328274	0.000254	2.538297	0.429999	-0.000025
1203	1.1960e+02	8.0350	14.306278	0.000221	2.210775	0.374515	-0.000022
1204	1.1970e+02	8.0244	14.285503	0.000209	2.087954	0.353709	-0.000021
1205	1.1980e+02	8.0123	14.260248	0.000254	2.538297	0.429999	-0.000025
1206	1.1990e+02	8.0045	14.235807	0.000246	2.456416	0.416128	-0.000025
1207	1.2000e+02	7.9949	14.213811	0.000221	2.210775	0.374515	-0.000022
1208	1.2010e+02	7.9873	14.183260	0.000307	3.070520	0.520160	-0.000031
1209	1.2020e+02	7.9770	14.160856	0.000225	2.251715	0.381451	-0.000023
1210	1.2030e+02	7.9652	14.135601	0.000254	2.538297	0.429999	-0.000025
1211	1.2039e+02	7.9563	14.112790	0.000229	2.292655	0.388386	-0.000023
1212	1.2049e+02	7.9439	14.087127	0.000258	2.579237	0.436935	-0.000026
1213	1.2059e+02	7.9375	14.063094	0.000242	2.415476	0.409193	-0.000024
1214	1.2069e+02	7.9244	14.041098	0.000221	2.210775	0.374515	-0.000022
1215	1.2079e+02	7.9135	14.016250	0.000250	2.497356	0.423064	-0.000025
1216	1.2089e+02	7.9040	13.989365	0.000270	2.702058	0.457741	-0.000027
1217	1.2099e+02	7.8933	13.964110	0.000254	2.538297	0.429999	-0.000025
1218	1.2109e+02	7.8858	13.935189	0.000291	2.906759	0.492418	-0.000029
1219	1.2119e+02	7.8771	13.911563	0.000237	2.374536	0.402257	-0.000024
1220	1.2129e+02	7.8651	13.885900	0.000258	2.579237	0.436935	-0.000026
1221	1.2139e+02	7.8564	13.859423	0.000266	2.661117	0.450806	-0.000027
1222	1.2149e+02	7.8471	13.832538	0.000270	2.702058	0.457741	-0.000027
1223	1.2159e+02	7.8333	13.810949	0.000217	2.169834	0.367580	-0.000022
1224	1.2169e+02	7.8263	13.782843	0.000282	2.824879	0.478547	-0.000028
1225	1.2179e+02	7.8175	13.754329	0.000287	2.865819	0.485483	-0.000029
1226	1.2189e+02	7.8076	13.724185	0.000303	3.029580	0.513225	-0.000030
1227	1.2199e+02	7.7959	13.698930	0.000254	2.538297	0.429999	-0.000025
1228	1.2209e+02	7.7865	13.671231	0.000278	2.783938	0.471612	-0.000028
1229	1.2219e+02	7.7759	13.641902	0.000295	2.947699	0.499354	-0.000029
1230	1.2229e+02	7.7671	13.616239	0.000258	2.579237	0.436935	-0.000026
1231	1.2239e+02	7.7592	13.587725	0.000287	2.865819	0.485483	-0.000029
1232	1.2248e+02	7.7467	13.561248	0.000266	2.661117	0.450806	-0.000027
1233	1.2258e+02	7.7386	13.536808	0.000246	2.456416	0.416128	-0.000025
1234	1.2268e+02	7.7280	13.511960	0.000250	2.497356	0.423064	-0.000025
1235	1.2278e+02	7.7157	13.486705	0.000254	2.538297	0.429999	-0.000025
1236	1.2288e+02	7.7075	13.453302	0.000336	3.357102	0.568708	-0.000034
1237	1.2298e+02	7.6963	13.428862	0.000246	2.456416	0.416128	-0.000025
1238	1.2308e+02	7.6881	13.397904	0.000311	3.111460	0.527096	-0.000031
1239	1.2318e+02	7.6778	13.368168	0.000299	2.988640	0.506289	-0.000030
1240	1.2328e+02	7.6688	13.342098	0.000262	2.620177	0.443870	-0.000026
1241	1.2338e+02	7.6550	13.311547	0.000307	3.070520	0.520160	-0.000031
1242	1.2348e+02	7.6466	13.283033	0.000287	2.865819	0.485483	-0.000029
1243	1.2358e+02	7.6419	13.252890	0.000303	3.029580	0.513225	-0.000030
1244	1.2368e+02	7.6270	13.220710	0.000323	3.234281	0.547902	-0.000032
1245	1.2378e+02	7.6173	13.195047	0.000258	2.579237	0.436935	-0.000026
1246	1.2388e+02	7.6057	13.164904	0.000303	3.029580	0.513225	-0.000030
1247	1.2398e+02	7.5964	13.134353	0.000307	3.070520	0.520160	-0.000031
1248	1.2408e+02	7.5886	13.106654	0.000278	2.783938	0.471612	-0.000028
1249	1.2418e+02	7.5774	13.076103	0.000307	3.070520	0.520160	-0.000031
1250	1.2428e+02	7.5684	13.048404	0.000278	2.783938	0.471612	-0.000028
1251	1.2438e+02	7.5609	13.019075	0.000295	2.947699	0.499354	-0.000029
1252	1.2447e+02	7.5484	12.988525	0.000307	3.070520	0.520160	-0.000031
1253	1.2457e+02	7.5347	12.955530	0.000332	3.316162	0.561773	-0.000033
1254	1.2467e+02	7.5266	12.928238	0.000274	2.742998	0.464676	-0.000027
1255	1.2477e+02	7.5179	12.893614	0.000348	3.479923	0.589515	-0.000035
1256	1.2487e+02	7.5114	12.869173	0.000246	2.456416	0.416128	-0.000025
1257	1.2497e+02	7.5003	12.836586	0.000328	3.275222	0.554838	-0.000033
1258	1.2507e+02	7.4895	12.807665	0.000291	2.906759	0.492418	-0.000029
1259	1.2517e+02	7.4773	12.782002	0.000258	2.579237	0.436935	-0.000026
1260	1.2527e+02	7.4667	12.753081	0.000291	2.906759	0.492418	-0.000029
1261	1.2537e+02	7.4587	12.724974	0.000282	2.824879	0.478547	-0.000028
1262	1.2547e+02	7.4471	12.692794	0.000323	3.234281	0.547902	-0.000032
1263	1.2557e+02	7.4358	12.667946	0.000250	2.497356	0.423064	-0.000025
1264	1.2567e+02	7.4270	12.641061	0.000270	2.702058	0.457741	-0.000027
1265	1.2577e+02	7.4183	12.609289	0.000319	3.193341	0.540967	-0.000032
1266	1.2587e+02	7.4074	12.584033	0.000254	2.538297	0.429999	-0.000025
1267	1.2597e+02	7.3968	12.554297	0.000299	2.988640	0.506289	-0.000030
1268	1.2607e+02	7.3858	12.528635	0.000258	2.579237	0.436935	-0.000026
1269	1.2617e+02	7.3788	12.497677	0.000311	3.111460	0.527096	-0.000031
1270	1.2627e+02	7.3694	12.471607	0.000262	2.620177	0.443870	-0.000026
1271	1.2636e+02	7.3606	12.443093	0.000287	2.865819	0.485483	-0.000029
1272	1.2646e+02	7.3492	12.413357	0.000299	2.988640	0.506289	-0.000030
1273	1.2656e+02	7.3436	12.384843	0.000287	2.865819	0.485483	-0.000029
1274	1.2666e+02	7.3293	12.359995	0.000250	2.497356	0.423064	-0.000025
1275	1.2676e+02	7.3185	12.329444	0.000307	3.070520	0.520160	-0.000031
1276	1.2686e+02	7.3090	12.302560	0.000270	2.702058	0.457741	-0.000027
1277	1.2696e+02	7.2986	12.274860	0.000278	2.783938	0.471612	-0.000028
1278	1.2706e+02	7.2884	12.247976	0.000270	2.702058	0.457741	-0.000027
1279	1.2716e+02	7.2798	12.214981	0.000332	3.316162	0.561773	-0.000033
1280	1.2726e+02	7.2698	12.188096	0.000270	2.702058	0.457741	-0.000027
1281	1.2736e+02	7.2613	12.160397	0.000278	2.783938	0.471612	-0.000028
1282	1.2746e+02	7.2510	12.130661	0.000299	2.988640	0.506289	-0.000030
1283	1.2756e+02	7.2388	12.101333	0.000295	2.947699	0.499354	-0.000029
1284	1.2766e+02	7.2290	12.067930	0.000336	3.357102	0.568708	-0.000034
1285	1.2776e+02	7.2199	12.041046	0.000270	2.702058	0.457741	-0.000027
1286	1.2786e+02	7.2090	12.014161	0.000270	2.702058	0.457741	-0.000027
1287	1.2796e+02	7.1983	11.978722	0.000356	3.561803	0.603386	-0.000036
1288	1.2806e+02	7.1886	11.952652	0.000262	2.620177	0.443870	-0.000026
1289	1.2816e+02	7.1806	11.924546	0.000282	2.824879	0.478547	-0.000028
1290	1.2826e+02	7.1696	11.894403	0.000303	3.029580	0.513225	-0.000030
1291	1.2835e+02	7.1602	11.867111	0.000274	2.742998	0.464676	-0.000027
1292	1.2845e+02	7.1501	11.836967	0.000303	3.029580	0.513225	-0.000030
1293	1.2855e+02	7.1392	11.807231	0.000299	2.988640	0.506289	-0.000030
1294	1.2865e+02	7.1317	11.776273	0.000311	3.111460	0.527096	-0.000031
1295	1.2875e+02	7.1192	11.746944	0.000295	2.947699	0.499354	-0.000029
1296	1.2885e+02	7.1111	11.717616	0.000295	2.947699	0.499354	-0.000029
1297	1.2895e+02	7.1006	11.688287	0.000295	2.947699	0.499354	-0.000029
1298	1.2905e+02	7.0900	11.658144	0.000303	3.029580	0.513225	-0.000030
1299	1.2915e+02	7.0821	11.631259	0.000270	2.702058	0.457741	-0.000027
1300	1.2925e+02	7.0703	11.603967	0.000274	2.742998	0.464676	-0.000027
1301	1.2935e+02	7.0602	11.570565	0.000336	3.357102	0.568708	-0.000034
1302	1.2945e+02	7.0504	11.542051	0.000287	2.865819	0.485483	-0.000029
1303	1.2955e+02	7.0423	11.515981	0.000262	2.620177	0.443870	-0.000026
1304	1.2965e+02	7.0267	11.487875	0.000282	2.824879	0.478547	-0.000028
1305	1.2975e+02	7.0211	11.460990	0.000270	2.702058	0.457741	-0.000027
1306	1.2985e+02	7.0084	11.432476	0.000287	2.865819	0.485483	-0.000029
1307	1.2995e+02	6.9978	11.403555	0.000291	2.906759	0.492418	-0.000029
1308	1.3005e+02	6.9873	11.377485	0.000262	2.620177	0.443870	-0.000026
1309	1.3015e+02	6.9817	11.351008	0.000266	2.661117	0.450806	-0.000027
1310	1.3025e+02	6.9711	11.321272	0.000299	2.988640	0.506289	-0.000030
1311	1.3034e+02	6.9621	11.292350	0.000291	2.906759	0.492418	-0.000029
1312	1.3044e+02	6.9501	11.266688	0.000258	2.579237	0.436935	-0.000026
1313	1.3054e+02	6.9411	11.238581	0.000282	2.824879	0.478547	-0.000028
1314	1.3064e+02	6.9331	11.211289	0.000274	2.742998	0.464676	-0.000027
1315	1.3074e+02	6.9205	11.185626	0.000258	2.579237	0.436935	-0.000026
1316	1.3084e+02	6.9109	11.155076	0.000307	3.070520	0.520160	-0.000031
1317	1.3094e+02	6.9003	11.129413	0.000258	2.579237	0.436935	-0.000026
1318	1.3104e+02	6.8914	11.100085	0.000295	2.947699	0.499354	-0.000029
1319	1.3114e+02	6.8809	11.074829	0.000254	2.538297	0.429999	-0.000025
1320	1.3124e+02	6.8740	11.045093	0.000299	2.988640	0.506289	-0.000030
1321	1.3134e+02	6.8609	11.018616	0.000266	2.661117	0.450806	-0.000027
1322	1.3144e+02	6.8494	10.991324	0.000274	2.742998	0.464676	-0.000027
1323	1.3154e+02	6.8404	10.964847	0.000266	2.661117	0.450806	-0.000027
1324	1.3164e+02	6.8320	10.944072	0.000209	2.087954	0.353709	-0.000021
1325	1.3174e+02	6.8209	10.917595	0.000266	2.661117	0.450806	-0.000027
1326	1.3184e+02	6.8145	10.888266	0.000295	2.947699	0.499354	-0.000029
1327	1.3194e+02	6.8018	10.863011	0.000254	2.538297	0.429999	-0.000025
1328	1.3204e+02	6.7913	10.838978	0.000242	2.415476	0.409193	-0.000024
1329	1.3214e+02	6.7806	10.810464	0.000287	2.865819	0.485483	-0.000029
1330	1.3224e+02	6.7709	10.786838	0.000237	2.374536	0.402257	-0.000024
1331	1.3234e+02	6.7611	10.754658	0.000323	3.234281	0.547902	-0.000032
1332	1.3243e+02	6.7506	10.729403	0.000254	2.538297	0.429999	-0.000025
1333	1.3253e+02	6.7411	10.706592	0.000229	2.292655	0.388386	-0.000023
1334	1.3263e+02	6.7345	10.679707	0.000270	2.702058	0.457741	-0.000027
1335	1.3273e+02	6.7223	10.654452	0.000254	2.538297	0.429999	-0.000025
1336	1.3283e+02	6.7127	10.631641	0.000229	2.292655	0.388386	-0.000023
1337	1.3293e+02	6.7049	10.606793	0.000250	2.497356	0.423064	-0.000025
1338	1.3303e+02	6.6921	10.578686	0.000282	2.824879	0.478547	-0.000028
1339	1.3313e+02	6.6819	10.552616	0.000262	2.620177	0.443870	-0.000026
1340	1.3323e+02	6.6718	10.528990	0.000237	2.374536	0.402257	-0.000024
1341	1.3333e+02	6.6640	10.502513	0.000266	2.661117	0.450806	-0.000027
1342	1.3343e+02	6.6500	10.471962	0.000307	3.070520	0.520160	-0.000031
1343	1.3353e+02	6.6447	10.446707	0.000254	2.538297	0.429999	-0.000025
1344	1.3363e+02	6.6302	10.417378	0.000295	2.947699	0.499354	-0.000029
1345	1.3373e+02	6.6225	10.391308	0.000262	2.620177	0.443870	-0.000026
1346	1.3383e+02	6.6100	10.360350	0.000311	3.111460	0.527096	-0.000031
1347	1.3393e+02	6.6008	10.330614	0.000299	2.988640	0.506289	-0.000030
1348	1.3403e+02	6.5933	10.305767	0.000250	2.497356	0.423064	-0.000025
1349	1.3413e+02	6.5846	10.274809	0.000311	3.111460	0.527096	-0.000031
1350	1.3423e+02	6.5714	10.250368	0.000246	2.456416	0.416128	-0.000025
1351	1.3432e+02	6.5614	10.219817	0.000307	3.070520	0.520160	-0.000031
1352	1.3442e+02	6.5530	10.187230	0.000328	3.275222	0.554838	-0.000033
1353	1.3452e+02	6.5434	10.165233	0.000221	2.210775	0.374515	-0.000022
1354	1.3462e+02	6.5352	10.139163	0.000262	2.620177	0.443870	-0.000026
1355	1.3472e+02	6.5224	10.106983	0.000323	3.234281	0.547902	-0.000032
1356	1.3482e+02	6.5156	10.079284	0.000278	2.783938	0.471612	-0.000028
1357	1.3492e+02	6.5011	10.051992	0.000274	2.742998	0.464676	-0.000027
1358	1.3502e+02	6.4931	10.023071	0.000291	2.906759	0.492418	-0.000029
1359	1.3512e+02	6.4816	9.992113	0.000311	3.111460	0.527096	-0.000031
1360	1.3522e+02	6.4748	9.965228	0.000270	2.702058	0.457741	-0.000027
1361	1.3532e+02	6.4622	9.933863	0.000315	3.152401	0.534031	-0.000032
1362	1.3542e+02	6.4537	9.904534	0.000295	2.947699	0.499354	-0.000029
1363	1.3552e+02	6.4429	9.876835	0.000278	2.783938	0.471612	-0.000028
1364	1.3562e+02	6.4346	9.847914	0.000291	2.906759	0.492418	-0.000029
1365	1.3572e+02	6.4223	9.823473	0.000246	2.456416	0.416128	-0.000025
1366	1.3582e+02	6.4143	9.795366	0.000282	2.824879	0.478547	-0.000028
1367	1.3592e+02	6.4027	9.770111	0.000254	2.538297	0.429999	-0.000025
1368	1.3602e+02	6.3955	9.742412	0.000278	2.783938	0.471612	-0.000028
1369	1.3612e+02	6.3839	9.712676	0.000299	2.988640	0.506289	-0.000030
1370	1.3622e+02	6.3744	9.685384	0.000274	2.742998	0.464676	-0.000027
1371	1.3631e+02	6.3638	9.656870	0.000287	2.865819	0.485483	-0.000029
1372	1.3641e+02	6.3525	9.629171	0.000278	2.783938	0.471612	-0.000028
1373	1.3651e+02	6.3448	9.599027	0.000303	3.029580	0.513225	-0.000030
1374	1.3661e+02	6.3335	9.572550	0.000266	2.661117	0.450806	-0.000027
1375	1.3671e+02	6.3245	9.543629	0.000291	2.906759	0.492418	-0.000029
1376	1.3681e+02	6.3142	9.515929	0.000278	2.783938	0.471612	-0.000028
1377	1.3691e+02	6.3049	9.489045	0.000270	2.702058	0.457741	-0.000027
1378	1.3701e+02	6.2949	9.460938	0.000282	2.824879	0.478547	-0.000028
1379	1.3711e+02	6.2838	9.434053	0.000270	2.702058	0.457741	-0.000027
1380	1.3721e+02	6.2739	9.404725	0.000295	2.947699	0.499354	-0.000029
1381	1.3731e+02	6.2653	9.378655	0.000262	2.620177	0.443870	-0.000026
1382	1.3741e+02	6.2524	9.346068	0.000328	3.275222	0.554838	-0.000033
1383	1.3751e+02	6.2438	9.318368	0.000278	2.783938	0.471612	-0.000028
1384	1.3761e+02	6.2339	9.289854	0.000287	2.865819	0.485483	-0.000029
1385	1.3771e+02	6.2270	9.258489	0.000315	3.152401	0.534031	-0.000032
1386	1.3781e+02	6.2136	9.234456	0.000242	2.415476	0.409193	-0.000024
1387	1.3791e+02	6.2041	9.201461	0.000332	3.316162	0.561773	-0.000033
1388	1.3801e+02	6.1959	9.173762	0.000278	2.783938	0.471612	-0.000028
1389	1.3811e+02	6.1858	9.136693	0.000373	3.725564	0.631128	-0.000037
1390	1.3821e+02	6.1762	9.108587	0.000282	2.824879	0.478547	-0.000028
1391	1.3831e+02	6.1633	9.078851	0.000299	2.988640	0.506289	-0.000030
1392	1.3840e+02	6.1565	9.048707	0.000303	3.029580	0.513225	-0.000030
1393	1.3850e+02	6.1459	9.019786	0.000291	2.906759	0.492418	-0.000029
1394	1.3860e+02	6.1359	8.987199	0.000328	3.275222	0.554838	-0.000033
1395	1.3870e+02	6.1260	8.957055	0.000303	3.029580	0.513225	-0.000030
1396	1.3880e+02	6.1129	8.924468	0.000328	3.275222	0.554838	-0.000033
1397	1.3890e+02	6.1063	8.893510	0.000311	3.111460	0.527096	-0.000031
1398	1.3900e+02	6.0957	8.861330	0.000323	3.234281	0.547902	-0.000032
1399	1.3910e+02	6.0857	8.834445	0.000270	2.702058	0.457741	-0.000027
1400	1.3920e+02	6.0778	8.802265	0.000323	3.234281	0.547902	-0.000032
1401	1.3930e+02	6.0671	8.768048	0.000344	3.438983	0.582579	-0.000034
1402	1.3940e+02	6.0548	8.739942	0.000282	2.824879	0.478547	-0.000028
1403	1.3950e+02	6.0465	8.707354	0.000328	3.275222	0.554838	-0.000033
1404	1.3960e+02	6.0368	8.674767	0.000328	3.275222	0.554838	-0.000033
1405	1.3970e+02	6.0273	8.647882	0.000270	2.702058	0.457741	-0.000027
1406	1.3980e+02	6.0162	8.612851	0.000352	3.520863	0.596450	-0.000035
1407	1.3990e+02	6.0085	8.580264	0.000328	3.275222	0.554838	-0.000033
1408	1.4000e+02	5.9957	8.539937	0.000405	4.053087	0.686611	-0.000041
1409	1.4010e+02	5.9869	8.512237	0.000278	2.783938	0.471612	-0.000028
1410	1.4020e+02	5.9754	8.481279	0.000311	3.111460	0.527096	-0.000031
1411	1.4029e+02	5.9664	8.444211	0.000373	3.725564	0.631128	-0.000037
1412	1.4039e+02	5.9544	8.411624	0.000328	3.275222	0.554838	-0.000033
1413	1.4049e+02	5.9464	8.380258	0.000315	3.152401	0.534031	-0.000032
1414	1.4059e+02	5.9353	8.344005	0.000364	3.643684	0.617257	-0.000036
1415	1.4069e+02	5.9283	8.315898	0.000282	2.824879	0.478547	-0.000028
1416	1.4079e+02	5.9168	8.281274	0.000348	3.479923	0.589515	-0.000035
1417	1.4089e+02	5.9082	8.249501	0.000319	3.193341	0.540967	-0.000032
1418	1.4099e+02	5.8961	8.214877	0.000348	3.479923	0.589515	-0.000035
1419	1.4109e+02	5.8862	8.179438	0.000356	3.561803	0.603386	-0.000036
1420	1.4119e+02	5.8775	8.145222	0.000344	3.438983	0.582579	-0.000034
1421	1.4129e+02	5.8671	8.108968	0.000364	3.643684	0.617257	-0.000036
1422	1.4139e+02	5.8584	8.077603	0.000315	3.152401	0.534031	-0.000032
1423	1.4149e+02	5.8439	8.042571	0.000352	3.520863	0.596450	-0.000035
1424	1.4159e+02	5.8342	8.008762	0.000340	3.398042	0.575644	-0.000034
1425	1.4169e+02	5.8273	7.976989	0.000319	3.193341	0.540967	-0.000032
1426	1.4179e+02	5.8181	7.945624	0.000315	3.152401	0.534031	-0.000032
1427	1.4189e+02	5.8069	7.911814	0.000340	3.398042	0.575644	-0.000034
1428	1.4199e+02	5.7984	7.879634	0.000323	3.234281	0.547902	-0.000032
1429	1.4209e+02	5.7873	7.846232	0.000336	3.357102	0.568708	-0.000034
1430	1.4219e+02	5.7780	7.816904	0.000295	2.947699	0.499354	-0.000029
1431	1.4228e+02	5.7656	7.784724	0.000323	3.234281	0.547902	-0.000032
1432	1.4238e+02	5.7556	7.750507	0.000344	3.438983	0.582579	-0.000034
1433	1.4248e+02	5.7468	7.720771	0.000299	2.988640	0.506289	-0.000030
1434	1.4258e+02	5.7377	7.685739	0.000352	3.520863	0.596450	-0.000035
1435	1.4268e+02	5.7300	7.651930	0.000340	3.398042	0.575644	-0.000034
1436	1.4278e+02	5.7159	7.620564	0.000315	3.152401	0.534031	-0.000032
1437	1.4288e+02	5.7066	7.591236	0.000295	2.947699	0.499354	-0.000029
1438	1.4298e+02	5.6976	7.558648	0.000328	3.275222	0.554838	-0.000033
1439	1.4308e+02	5.6853	7.529320	0.000295	2.947699	0.499354	-0.000029
1440	1.4318e+02	5.6776	7.496732	0.000328	3.275222	0.554838	-0.000033
1441	1.4328e+02	5.6695	7.464145	0.000328	3.275222	0.554838	-0.000033
1442	1.4338e+02	5.6582	7.429928	0.000344	3.438983	0.582579	-0.000034
1443	1.4348e+02	5.6451	7.399785	0.000303	3.029580	0.513225	-0.000030
1444	1.4358e+02	5.6403	7.368419	0.000315	3.152401	0.534031	-0.000032
1445	1.4368e+02	5.6268	7.335832	0.000328	3.275222	0.554838	-0.000033
1446	1.4378e+02	5.6173	7.304059	0.000319	3.193341	0.540967	-0.000032
1447	1.4388e+02	5.6089	7.274323	0.000299	2.988640	0.506289	-0.000030
1448	1.4398e+02	5.5978	7.238477	0.000360	3.602744	0.610321	-0.000036
1449	1.4408e+02	5.5853	7.203446	0.000352	3.520863	0.596450	-0.000035
1450	1.4418e+02	5.5795	7.173302	0.000303	3.029580	0.513225	-0.000030
1451	1.4428e+02	5.5682	7.137864	0.000356	3.561803	0.603386	-0.000036
1452	1.4437e+02	5.5567	7.102017	0.000360	3.602744	0.610321	-0.000036
1453	1.4447e+02	5.5474	7.071467	0.000307	3.070520	0.520160	-0.000031
1454	1.4457e+02	5.5360	7.033991	0.000377	3.766505	0.638063	-0.000038
1455	1.4467e+02	5.5294	7.005477	0.000287	2.865819	0.485483	-0.000029
1456	1.4477e+02	5.5165	6.965558	0.000401	4.012146	0.679676	-0.000040
1457	1.4487e+02	5.5067	6.933785	0.000319	3.193341	0.540967	-0.000032
1458	1.4497e+02	5.4993	6.906900	0.000270	2.702058	0.457741	-0.000027
1459	1.4507e+02	5.4881	6.870239	0.000368	3.684624	0.624192	-0.000037
1460	1.4517e+02	5.4809	6.840096	0.000303	3.029580	0.513225	-0.000030
1461	1.4527e+02	5.4684	6.807916	0.000323	3.234281	0.547902	-0.000032
1462	1.4537e+02	5.4572	6.772070	0.000360	3.602744	0.610321	-0.000036
1463	1.4547e+02	5.4482	6.736224	0.000360	3.602744	0.610321	-0.000036
1464	1.4557e+02	5.4375	6.702822	0.000336	3.357102	0.568708	-0.000034
1465	1.4567e+02	5.4295	6.668198	0.000348	3.479923	0.589515	-0.000035
1466	1.4577e+02	5.4180	6.635203	0.000332	3.316162	0.561773	-0.000033
1467	1.4587e+02	5.4089	6.603023	0.000323	3.234281	0.547902	-0.000032
1468	1.4597e+02	5.3991	6.573694	0.000295	2.947699	0.499354	-0.000029
1469	1.4607e+02	5.3864	6.538255	0.000356	3.561803	0.603386	-0.000036
1470	1.4617e+02	5.3794	6.507297	0.000311	3.111460	0.527096	-0.000031
1471	1.4626e+02	5.3688	6.475525	0.000319	3.193341	0.540967	-0.000032
1472	1.4636e+02	5.3594	6.443344	0.000323	3.234281	0.547902	-0.000032
1473	1.4646e+02	5.3489	6.413201	0.000303	3.029580	0.513225	-0.000030
1474	1.4656e+02	5.3382	6.382650	0.000307	3.070520	0.520160	-0.000031
1475	1.4666e+02	5.3289	6.348026	0.000348	3.479923	0.589515	-0.000035
1476	1.4676e+02	5.3181	6.315846	0.000323	3.234281	0.547902	-0.000032
1477	1.4686e+02	5.3072	6.285703	0.000303	3.029580	0.513225	-0.000030
1478	1.4696e+02	5.2993	6.253523	0.000323	3.234281	0.547902	-0.000032
1479	1.4706e+02	5.2898	6.222565	0.000311	3.111460	0.527096	-0.000031
1480	1.4716e+02	5.2797	6.194051	0.000287	2.865819	0.485483	-0.000029
1481	1.4726e+02	5.2724	6.161463	0.000328	3.275222	0.554838	-0.000033
1482	1.4736e+02	5.2591	6.126839	0.000348	3.479923	0.589515	-0.000035
1483	1.4746e+02	5.2511	6.094252	0.000328	3.275222	0.554838	-0.000033
1484	1.4756e+02	5.2394	6.058813	0.000356	3.561803	0.603386	-0.000036
1485	1.4766e+02	5.2296	6.032743	0.000262	2.620177	0.443870	-0.000026
1486	1.4776e+02	5.2221	5.999341	0.000336	3.357102	0.568708	-0.000034
1487	1.4786e+02	5.2088	5.971642	0.000278	2.783938	0.471612	-0.000028
1488	1.4796e+02	5.1989	5.938240	0.000336	3.357102	0.568708	-0.000034
1489	1.4806e+02	5.1886	5.904430	0.000340	3.398042	0.575644	-0.000034
1490	1.4816e+02	5.1778	5.871436	0.000332	3.316162	0.561773	-0.000033
1491	1.4825e+02	5.1698	5.845366	0.000262	2.620177	0.443870	-0.000026
1492	1.4835e+02	5.1581	5.813593	0.000319	3.193341	0.540967	-0.000032
1493	1.4845e+02	5.1510	5.787116	0.000266	2.661117	0.450806	-0.000027
1494	1.4855e+02	5.1403	5.758194	0.000291	2.906759	0.492418	-0.000029
1495	1.4865e+02	5.1295	5.727236	0.000311	3.111460	0.527096	-0.000031
1496	1.4875e+02	5.1195	5.695056	0.000323	3.234281	0.547902	-0.000032
1497	1.4885e+02	5.1104	5.666135	0.000291	2.906759	0.492418	-0.000029
1498	1.4895e+02	5.1011	5.638843	0.000274	2.742998	0.464676	-0.000027
1499	1.4905e+02	5.0901	5.602182	0.000368	3.684624	0.624192	-0.000037
1500	1.4915e+02	5.0784	5.572853	0.000295	2.947699	0.499354	-0.000029
1501	1.4925e+02	5.0703	5.545561	0.000274	2.742998	0.464676	-0.000027
1502	1.4935e+02	5.0574	5.514603	0.000311	3.111460	0.527096	-0.000031
1503	1.4945e+02	5.0498	5.489348	0.000254	2.538297	0.429999	-0.000025
1504	1.4955e+02	5.0430	5.460427	0.000291	2.906759	0.492418	-0.000029
1505	1.4965e+02	5.0311	5.428247	0.000323	3.234281	0.547902	-0.000032
1506	1.4975e+02	5.0213	5.400548	0.000278	2.783938	0.471612	-0.000028
1507	1.4985e+02	5.0111	5.366331	0.000344	3.438983	0.582579	-0.000034
1508	1.4995e+02	5.0005	5.337002	0.000295	2.947699	0.499354	-0.000029
1509	1.5005e+02	4.9901	5.309710	0.000274	2.742998	0.464676	-0.000027
1510	1.5015e+02	4.9847	5.275493	0.000344	3.438983	0.582579	-0.000034
1511	1.5025e+02	4.9702	5.243721	0.000319	3.193341	0.540967	-0.000032
1512	1.5034e+02	4.9624	5.210726	0.000332	3.316162	0.561773	-0.000033
1513	1.5044e+02	4.9529	5.178139	0.000328	3.275222	0.554838	-0.000033
1514	1.5054e+02	4.9427	5.143107	0.000352	3.520863	0.596450	-0.000035
1515	1.5064e+02	4.9312	5.111742	0.000315	3.152401	0.534031	-0.000032
1516	1.5074e+02	4.9200	5.081191	0.000307	3.070520	0.520160	-0.000031
1517	1.5084e+02	4.9133	5.046974	0.000344	3.438983	0.582579	-0.000034
1518	1.5094e+02	4.9039	5.018460	0.000287	2.865819	0.485483	-0.000029
1519	1.5104e+02	4.8907	4.985058	0.000336	3.357102	0.568708	-0.000034
1520	1.5114e+02	4.8792	4.949619	0.000356	3.561803	0.603386	-0.000036
1521	1.5124e+02	4.8730	4.921920	0.000278	2.783938	0.471612	-0.000028
1522	1.5134e+02	4.8608	4.889333	0.000328	3.275222	0.554838	-0.000033
1523	1.5144e+02	4.8532	4.856338	0.000332	3.316162	0.561773	-0.000033
1524	1.5154e+02	4.8428	4.822121	0.000344	3.438983	0.582579	-0.000034
1525	1.5164e+02	4.8298	4.788719	0.000336	3.357102	0.568708	-0.000034
1526	1.5174e+02	4.8231	4.756539	0.000323	3.234281	0.547902	-0.000032
1527	1.5184e+02	4.8126	4.722730	0.000340	3.398042	0.575644	-0.000034
1528	1.5194e+02	4.8023	4.690142	0.000328	3.275222	0.554838	-0.000033
1529	1.5204e+02	4.7908	4.656333	0.000340	3.398042	0.575644	-0.000034
1530	1.5214e+02	4.7820	4.623745	0.000328	3.275222	0.554838	-0.000033
1531	1.5224e+02	4.7723	4.592380	0.000315	3.152401	0.534031	-0.000032
1532	1.5233e+02	4.7609	4.558978	0.000336	3.357102	0.568708	-0.000034
1533	1.5243e+02	4.7544	4.527205	0.000319	3.193341	0.540967	-0.000032
1534	1.5253e+02	4.7411	4.497469	0.000299	2.988640	0.506289	-0.000030
1535	1.5263e+02	4.7315	4.466104	0.000315	3.152401	0.534031	-0.000032
1536	1.5273e+02	4.7210	4.431887	0.000344	3.438983	0.582579	-0.000034
1537	1.5283e+02	4.7135	4.401336	0.000307	3.070520	0.520160	-0.000031
1538	1.5293e+02	4.7023	4.363861	0.000377	3.766505	0.638063	-0.000038
1539	1.5303e+02	4.6934	4.336569	0.000274	2.742998	0.464676	-0.000027
1540	1.5313e+02	4.6825	4.303167	0.000336	3.357102	0.568708	-0.000034
1541	1.5323e+02	4.6714	4.274245	0.000291	2.906759	0.492418	-0.000029
1542	1.5333e+02	4.6595	4.237177	0.000373	3.725564	0.631128	-0.000037
1543	1.5343e+02	4.6552	4.205405	0.000319	3.193341	0.540967	-0.000032
1544	1.5353e+02	4.6398	4.173224	0.000323	3.234281	0.547902	-0.000032
1545	1.5363e+02	4.6317	4.139008	0.000344	3.438983	0.582579	-0.000034
1546	1.5373e+02	4.6240	4.107642	0.000315	3.152401	0.534031	-0.000032
1547	1.5383e+02	4.6124	4.076277	0.000315	3.152401	0.534031	-0.000032
1548	1.5393e+02	4.6026	4.043690	0.000328	3.275222	0.554838	-0.000033
1549	1.5403e+02	4.5921	4.009880	0.000340	3.398042	0.575644	-0.000034
1550	1.5413e+02	4.5815	3.974849	0.000352	3.520863	0.596450	-0.000035
1551	1.5422e+02	4.5729	3.940632	0.000344	3.438983	0.582579	-0.000034
1552	1.5432e+02	4.5615	3.909266	0.000315	3.152401	0.534031	-0.000032
1553	1.5442e+02	4.5530	3.877494	0.000319	3.193341	0.540967	-0.000032
1554	1.5452e+02	4.5431	3.841240	0.000364	3.643684	0.617257	-0.000036
1555	1.5462e+02	4.5339	3.810282	0.000311	3.111460	0.527096	-0.000031
1556	1.5472e+02	4.5226	3.773214	0.000373	3.725564	0.631128	-0.000037
1557	1.5482e+02	4.5144	3.738183	0.000352	3.520863	0.596450	-0.000035
1558	1.5492e+02	4.5065	3.703151	0.000352	3.520863	0.596450	-0.000035
1559	1.5502e+02	4.4919	3.667712	0.000356	3.561803	0.603386	-0.000036
1560	1.5512e+02	4.4833	3.633496	0.000344	3.438983	0.582579	-0.000034
1561	1.5522e+02	4.4726	3.597649	0.000360	3.602744	0.610321	-0.000036
1562	1.5532e+02	4.4640	3.562618	0.000352	3.520863	0.596450	-0.000035
1563	1.5542e+02	4.4537	3.525550	0.000373	3.725564	0.631128	-0.000037
1564	1.5552e+02	4.4422	3.491333	0.000344	3.438983	0.582579	-0.000034
1565	1.5562e+02	4.4329	3.457524	0.000340	3.398042	0.575644	-0.000034
1566	1.5572e+02	4.4232	3.421270	0.000364	3.643684	0.617257	-0.000036
1567	1.5582e+02	4.4147	3.384609	0.000368	3.684624	0.624192	-0.000037
1568	1.5592e+02	4.4036	3.351615	0.000332	3.316162	0.561773	-0.000033
1569	1.5602e+02	4.3934	3.313324	0.000385	3.848385	0.651934	-0.000038
1570	1.5612e+02	4.3829	3.280330	0.000332	3.316162	0.561773	-0.000033
1571	1.5622e+02	4.3706	3.243669	0.000368	3.684624	0.624192	-0.000037
1572	1.5631e+02	4.3636	3.210267	0.000336	3.357102	0.568708	-0.000034
1573	1.5641e+02	4.3538	3.170347	0.000401	4.012146	0.679676	-0.000040
1574	1.5651e+02	4.3438	3.135316	0.000352	3.520863	0.596450	-0.000035
1575	1.5661e+02	4.3340	3.094989	0.000405	4.053087	0.686611	-0.000041
1576	1.5671e+02	4.3235	3.060365	0.000348	3.479923	0.589515	-0.000035
1577	1.5681e+02	4.3133	3.022074	0.000385	3.848385	0.651934	-0.000038
1578	1.5691e+02	4.3032	2.987858	0.000344	3.438983	0.582579	-0.000034
1579	1.5701e+02	4.2947	2.945494	0.000426	4.257788	0.721289	-0.000043
1580	1.5711e+02	4.2833	2.907611	0.000381	3.807445	0.644999	-0.000038
1581	1.5721e+02	4.2779	2.871765	0.000360	3.602744	0.610321	-0.000036
1582	1.5731e+02	4.2648	2.832660	0.000393	3.930266	0.665805	-0.000039
1583	1.5741e+02	4.2537	2.797629	0.000352	3.520863	0.596450	-0.000035
1584	1.5751e+02	4.2431	2.758931	0.000389	3.889326	0.658870	-0.000039
1585	1.5761e+02	4.2355	2.720234	0.000389	3.889326	0.658870	-0.000039
1586	1.5771e+02	4.2239	2.683573	0.000368	3.684624	0.624192	-0.000037
1587	1.5781e+02	4.2132	2.640394	0.000434	4.339669	0.735160	-0.000043
1588	1.5791e+02	4.2066	2.603734	0.000368	3.684624	0.624192	-0.000037
1589	1.5801e+02	4.1952	2.563814	0.000401	4.012146	0.679676	-0.000040
1590	1.5811e+02	4.1849	2.525524	0.000385	3.848385	0.651934	-0.000038
1591	1.5821e+02	4.1729	2.490900	0.000348	3.479923	0.589515	-0.000035
1592	1.5830e+02	4.1668	2.448536	0.000426	4.257788	0.721289	-0.000043
1593	1.5840e+02	4.1543	2.414727	0.000340	3.398042	0.575644	-0.000034
1594	1.5850e+02	4.1439	2.374807	0.000401	4.012146	0.679676	-0.000040
1595	1.5860e+02	4.1356	2.341405	0.000336	3.357102	0.568708	-0.000034
1596	1.5870e+02	4.1274	2.303115	0.000385	3.848385	0.651934	-0.000038
1597	1.5880e+02	4.1126	2.266861	0.000364	3.643684	0.617257	-0.000036
1598	1.5890e+02	4.1042	2.233052	0.000340	3.398042	0.575644	-0.000034
1599	1.5900e+02	4.0954	2.191096	0.000422	4.216848	0.714353	-0.000042
1600	1.5910e+02	4.0878	2.154027	0.000373	3.725564	0.631128	-0.000037
1601	1.5920e+02	4.0766	2.114515	0.000397	3.971206	0.672741	-0.000040
1602	1.5930e+02	4.0651	2.082742	0.000319	3.193341	0.540967	-0.000032
1603	1.5940e+02	4.0569	2.045674	0.000373	3.725564	0.631128	-0.000037
1604	1.5950e+02	4.0461	2.010643	0.000352	3.520863	0.596450	-0.000035
1605	1.5960e+02	4.0356	1.972353	0.000385	3.848385	0.651934	-0.000038
1606	1.5970e+02	4.0255	1.936506	0.000360	3.602744	0.610321	-0.000036
1607	1.5980e+02	4.0159	1.898216	0.000385	3.848385	0.651934	-0.000038
1608	1.5990e+02	4.0046	1.861555	0.000368	3.684624	0.624192	-0.000037
1609	1.6000e+02	3.9974	1.826524	0.000352	3.520863	0.596450	-0.000035
1610	1.6010e+02	3.9854	1.791493	0.000352	3.520863	0.596450	-0.000035
1611	1.6019e+02	3.9757	1.751573	0.000401	4.012146	0.679676	-0.000040
1612	1.6029e+02	3.9684	1.716134	0.000356	3.561803	0.603386	-0.000036
1613	1.6039e+02	3.9530	1.677437	0.000389	3.889326	0.658870	-0.000039
1614	1.6049e+02	3.9443	1.639146	0.000385	3.848385	0.651934	-0.000038
1615	1.6059e+02	3.9364	1.604522	0.000348	3.479923	0.589515	-0.000035
1616	1.6069e+02	3.9243	1.567454	0.000373	3.725564	0.631128	-0.000037
1617	1.6079e+02	3.9141	1.530386	0.000373	3.725564	0.631128	-0.000037
1618	1.6089e+02	3.9046	1.489244	0.000413	4.134967	0.700482	-0.000041
1619	1.6099e+02	3.8965	1.450954	0.000385	3.848385	0.651934	-0.000038
1620	1.6109e+02	3.8876	1.412257	0.000389	3.889326	0.658870	-0.000039
1621	1.6119e+02	3.8781	1.378040	0.000344	3.438983	0.582579	-0.000034
1622	1.6129e+02	3.8648	1.335269	0.000430	4.298728	0.728224	-0.000043
1623	1.6139e+02	3.8569	1.296979	0.000385	3.848385	0.651934	-0.000038
1624	1.6149e+02	3.8476	1.261133	0.000360	3.602744	0.610321	-0.000036
1625	1.6159e+02	3.8374	1.221620	0.000397	3.971206	0.672741	-0.000040
1626	1.6169e+02	3.8241	1.187404	0.000344	3.438983	0.582579	-0.000034
1627	1.6179e+02	3.8182	1.146669	0.000409	4.094027	0.693547	-0.000041
1628	1.6189e+02	3.8060	1.107972	0.000389	3.889326	0.658870	-0.000039
1629	1.6199e+02	3.7947	1.070904	0.000373	3.725564	0.631128	-0.000037
1630	1.6209e+02	3.7893	1.033428	0.000377	3.766505	0.638063	-0.000038
1631	1.6219e+02	3.7759	0.996767	0.000368	3.684624	0.624192	-0.000037
1632	1.6228e+02	3.7666	0.956848	0.000401	4.012146	0.679676	-0.000040
1633	1.6238e+02	3.7574	0.919779	0.000373	3.725564	0.631128	-0.000037
1634	1.6248e+02	3.7489	0.882711	0.000373	3.725564	0.631128	-0.000037
1635	1.6258e+02	3.7372	0.842792	0.000401	4.012146	0.679676	-0.000040
1636	1.6268e+02	3.7296	0.808982	0.000340	3.398042	0.575644	-0.000034
1637	1.6278e+02	3.7182	0.771507	0.000377	3.766505	0.638063	-0.000038
1638	1.6288e+02	3.7077	0.734031	0.000377	3.766505	0.638063	-0.000038
1639	1.6298e+02	3.6990	0.694112	0.000401	4.012146	0.679676	-0.000040
1640	1.6308e+02	3.6883	0.659895	0.000344	3.438983	0.582579	-0.000034
1641	1.6318e+02	3.6782	0.623234	0.000368	3.684624	0.624192	-0.000037
1642	1.6328e+02	3.6684	0.583315	0.000401	4.012146	0.679676	-0.000040
1643	1.6338e+02	3.6609	0.551949	0.000315	3.152401	0.534031	-0.000032
1644	1.6348e+02	3.6488	0.513659	0.000385	3.848385	0.651934	-0.000038
1645	1.6358e+02	3.6378	0.478627	0.000352	3.520863	0.596450	-0.000035
1646	1.6368e+02	3.6291	0.439115	0.000397	3.971206	0.672741	-0.000040
1647	1.6378e+02	3.6163	0.406935	0.000323	3.234281	0.547902	-0.000032
1648	1.6388e+02	3.6060	0.367830	0.000393	3.930266	0.665805	-0.000039
1649	1.6398e+02	3.5990	0.326689	0.000413	4.134967	0.700482	-0.000041
1650	1.6408e+02	3.5873	0.291657	0.000352	3.520863	0.596450	-0.000035
1651	1.6418e+02	3.5781	0.256626	0.000352	3.520863	0.596450	-0.000035
1652	1.6427e+02	3.5699	0.220780	0.000360	3.602744	0.610321	-0.000036
1653	1.6437e+02	3.5593	0.181675	0.000393	3.930266	0.665805	-0.000039
1654	1.6447e+02	3.5487	0.146236	0.000356	3.561803	0.603386	-0.000036
1655	1.6457e+02	3.5369	0.112427	0.000340	3.398042	0.575644	-0.000034
1656	1.6467e+02	3.5303	0.076580	0.000360	3.602744	0.610321	-0.000036
1657	1.6477e+02	3.5169	0.039105	0.000377	3.766505	0.638063	-0.000038
1658	1.6487e+02	3.5084	0.005295	0.000340	3.398042	0.575644	-0.000034
1659	1.6497e+02	3.4984	-0.029329	0.000348	3.479923	0.589515	-0.000035
1660	1.6507e+02	3.4873	-0.067212	0.000381	3.807445	0.644999	-0.000038
1661	1.6517e+02	3.4797	-0.101836	0.000348	3.479923	0.589515	-0.000035
1662	1.6527e+02	3.4682	-0.136052	0.000344	3.438983	0.582579	-0.000034
1663	1.6537e+02	3.4571	-0.171491	0.000356	3.561803	0.603386	-0.000036
1664	1.6547e+02	3.4501	-0.202857	0.000315	3.152401	0.534031	-0.000032
1665	1.6557e+02	3.4377	-0.238295	0.000356	3.561803	0.603386	-0.000036
1666	1.6567e+02	3.4295	-0.275771	0.000377	3.766505	0.638063	-0.000038
1667	1.6577e+02	3.4188	-0.314061	0.000385	3.848385	0.651934	-0.000038
1668	1.6587e+02	3.4103	-0.350722	0.000368	3.684624	0.624192	-0.000037
1669	1.6597e+02	3.3983	-0.383309	0.000328	3.275222	0.554838	-0.000033
1670	1.6607e+02	3.3887	-0.415082	0.000319	3.193341	0.540967	-0.000032
1671	1.6616e+02	3.3816	-0.450114	0.000352	3.520863	0.596450	-0.000035
1672	1.6626e+02	3.3710	-0.486367	0.000364	3.643684	0.617257	-0.000036
1673	1.6636e+02	3.3607	-0.519362	0.000332	3.316162	0.561773	-0.000033
1674	1.6646e+02	3.3485	-0.555208	0.000360	3.602744	0.610321	-0.000036
1675	1.6656e+02	3.3385	-0.593091	0.000381	3.807445	0.644999	-0.000038
1676	1.6666e+02	3.3291	-0.625678	0.000328	3.275222	0.554838	-0.000033
1677	1.6676e+02	3.3208	-0.665598	0.000401	4.012146	0.679676	-0.000040
1678	1.6686e+02	3.3083	-0.703073	0.000377	3.766505	0.638063	-0.000038
1679	1.6696e+02	3.2995	-0.741771	0.000389	3.889326	0.658870	-0.000039
1680	1.6706e+02	3.2890	-0.776802	0.000352	3.520863	0.596450	-0.000035
1681	1.6716e+02	3.2796	-0.814685	0.000381	3.807445	0.644999	-0.000038
1682	1.6726e+02	3.2670	-0.849717	0.000352	3.520863	0.596450	-0.000035
1683	1.6736e+02	3.2571	-0.888007	0.000385	3.848385	0.651934	-0.000038
1684	1.6746e+02	3.2488	-0.922631	0.000348	3.479923	0.589515	-0.000035
1685	1.6756e+02	3.2378	-0.960514	0.000381	3.807445	0.644999	-0.000038
1686	1.6766e+02	3.2278	-1.000841	0.000405	4.053087	0.686611	-0.000041
1687	1.6776e+02	3.2200	-1.038724	0.000381	3.807445	0.644999	-0.000038
1688	1.6786e+02	3.2094	-1.072126	0.000336	3.357102	0.568708	-0.000034
1689	1.6796e+02	3.2011	-1.114082	0.000422	4.216848	0.714353	-0.000042
1690	1.6806e+02	3.1904	-1.150743	0.000368	3.684624	0.624192	-0.000037
1691	1.6816e+02	3.1799	-1.188626	0.000381	3.807445	0.644999	-0.000038
1692	1.6825e+02	3.1713	-1.226101	0.000377	3.766505	0.638063	-0.000038
1693	1.6835e+02	3.1606	-1.263169	0.000373	3.725564	0.631128	-0.000037
1694	1.6845e+02	3.1506	-1.306755	0.000438	4.380609	0.742095	-0.000044
1695	1.6855e+02	3.1413	-1.340564	0.000340	3.398042	0.575644	-0.000034
1696	1.6865e+02	3.1310	-1.382521	0.000422	4.216848	0.714353	-0.000042
1697	1.6875e+02	3.1196	-1.419996	0.000377	3.766505	0.638063	-0.000038
1698	1.6885e+02	3.1084	-1.455842	0.000360	3.602744	0.610321	-0.000036
1699	1.6895e+02	3.0994	-1.494132	0.000385	3.848385	0.651934	-0.000038
1700	1.6905e+02	3.0920	-1.527942	0.000340	3.398042	0.575644	-0.000034
1701	1.6915e+02	3.0801	-1.569898	0.000422	4.216848	0.714353	-0.000042
1702	1.6925e+02	3.0705	-1.604522	0.000348	3.479923	0.589515	-0.000035
1703	1.6935e+02	3.0611	-1.645257	0.000409	4.094027	0.693547	-0.000041
1704	1.6945e+02	3.0508	-1.680695	0.000356	3.561803	0.603386	-0.000036
1705	1.6955e+02	3.0367	-1.713690	0.000332	3.316162	0.561773	-0.000033
1706	1.6965e+02	3.0312	-1.751166	0.000377	3.766505	0.638063	-0.000038
1707	1.6975e+02	3.0196	-1.791900	0.000409	4.094027	0.693547	-0.000041
1708	1.6985e+02	3.0097	-1.827746	0.000360	3.602744	0.610321	-0.000036
1709	1.6995e+02	3.0035	-1.863185	0.000356	3.561803	0.603386	-0.000036
1710	1.7005e+02	2.9910	-1.905548	0.000426	4.257788	0.721289	-0.000043
1711	1.7015e+02	2.9792	-1.944246	0.000389	3.889326	0.658870	-0.000039
1712	1.7024e+02	2.9714	-1.979685	0.000356	3.561803	0.603386	-0.000036
1713	1.7034e+02	2.9580	-2.020419	0.000409	4.094027	0.693547	-0.000041
1714	1.7044e+02	2.9517	-2.058302	0.000381	3.807445	0.644999	-0.000038
1715	1.7054e+02	2.9409	-2.098221	0.000401	4.012146	0.679676	-0.000040
1716	1.7064e+02	2.9312	-2.133660	0.000356	3.561803	0.603386	-0.000036
1717	1.7074e+02	2.9198	-2.170728	0.000373	3.725564	0.631128	-0.000037
1718	1.7084e+02	2.9128	-2.208611	0.000381	3.807445	0.644999	-0.000038
1719	1.7094e+02	2.8985	-2.245272	0.000368	3.684624	0.624192	-0.000037
1720	1.7104e+02	2.8912	-2.287228	0.000422	4.216848	0.714353	-0.000042
1721	1.7114e+02	2.8806	-2.327148	0.000401	4.012146	0.679676	-0.000040
1722	1.7124e+02	2.8727	-2.369512	0.000426	4.257788	0.721289	-0.000043
1723	1.7134e+02	2.8622	-2.406580	0.000373	3.725564	0.631128	-0.000037
1724	1.7144e+02	2.8513	-2.449758	0.000434	4.339669	0.735160	-0.000043
1725	1.7154e+02	2.8430	-2.487641	0.000381	3.807445	0.644999	-0.000038
1726	1.7164e+02	2.8316	-2.526339	0.000389	3.889326	0.658870	-0.000039
1727	1.7174e+02	2.8256	-2.571146	0.000450	4.503430	0.762902	-0.000045
1728	1.7184e+02	2.8127	-2.607807	0.000368	3.684624	0.624192	-0.000037
1729	1.7194e+02	2.8030	-2.650578	0.000430	4.298728	0.728224	-0.000043
1730	1.7204e+02	2.7938	-2.693756	0.000434	4.339669	0.735160	-0.000043
1731	1.7213e+02	2.7818	-2.733676	0.000401	4.012146	0.679676	-0.000040
1732	1.7223e+02	2.7728	-2.774817	0.000413	4.134967	0.700482	-0.000041
1733	1.7233e+02	2.7608	-2.811886	0.000373	3.725564	0.631128	-0.000037
1734	1.7243e+02	2.7541	-2.854657	0.000430	4.298728	0.728224	-0.000043
1735	1.7253e+02	2.7425	-2.894576	0.000401	4.012146	0.679676	-0.000040
1736	1.7263e+02	2.7318	-2.934088	0.000397	3.971206	0.672741	-0.000040
1737	1.7273e+02	2.7200	-2.975637	0.000418	4.175907	0.707418	-0.000042
1738	1.7283e+02	2.7145	-3.017186	0.000418	4.175907	0.707418	-0.000042
1739	1.7293e+02	2.7039	-3.056291	0.000393	3.930266	0.665805	-0.000039
1740	1.7303e+02	2.6909	-3.102728	0.000467	4.667191	0.790644	-0.000047
1741	1.7313e+02	2.6830	-3.144277	0.000418	4.175907	0.707418	-0.000042
1742	1.7323e+02	2.6731	-3.189900	0.000459	4.585310	0.776773	-0.000046
1743	1.7333e+02	2.6620	-3.232670	0.000430	4.298728	0.728224	-0.000043
1744	1.7343e+02	2.6543	-3.275034	0.000426	4.257788	0.721289	-0.000043
1745	1.7353e+02	2.6440	-3.318212	0.000434	4.339669	0.735160	-0.000043
1746	1.7363e+02	2.6339	-3.359354	0.000413	4.134967	0.700482	-0.000041
1747	1.7373e+02	2.6225	-3.401310	0.000422	4.216848	0.714353	-0.000042
1748	1.7383e+02	2.6125	-3.444896	0.000438	4.380609	0.742095	-0.000044
1749	1.7393e+02	2.6029	-3.489704	0.000450	4.503430	0.762902	-0.000045
1750	1.7403e+02	2.5911	-3.535733	0.000463	4.626250	0.783708	-0.000046
1751	1.7413e+02	2.5808	-3.575246	0.000397	3.971206	0.672741	-0.000040
1752	1.7422e+02	2.5731	-3.620461	0.000454	4.544370	0.769837	-0.000045
1753	1.7432e+02	2.5625	-3.664454	0.000442	4.421549	0.749031	-0.000044
1754	1.7442e+02	2.5542	-3.710483	0.000463	4.626250	0.783708	-0.000046
1755	1.7452e+02	2.5443	-3.756513	0.000463	4.626250	0.783708	-0.000046
1756	1.7462e+02	2.5333	-3.796433	0.000401	4.012146	0.679676	-0.000040
1757	1.7472e+02	2.5219	-3.840426	0.000442	4.421549	0.749031	-0.000044
1758	1.7482e+02	2.5169	-3.885233	0.000450	4.503430	0.762902	-0.000045
1759	1.7492e+02	2.5037	-3.928004	0.000430	4.298728	0.728224	-0.000043
1760	1.7502e+02	2.4923	-3.972405	0.000446	4.462489	0.755966	-0.000045
1761	1.7512e+02	2.4832	-4.011509	0.000393	3.930266	0.665805	-0.000039
1762	1.7522e+02	2.4729	-4.056724	0.000454	4.544370	0.769837	-0.000045
1763	1.7532e+02	2.4638	-4.098681	0.000422	4.216848	0.714353	-0.000042
1764	1.7542e+02	2.4527	-4.138600	0.000401	4.012146	0.679676	-0.000040
1765	1.7552e+02	2.4429	-4.185445	0.000471	4.708131	0.797579	-0.000047
1766	1.7562e+02	2.4361	-4.226586	0.000413	4.134967	0.700482	-0.000041
1767	1.7572e+02	2.4245	-4.269357	0.000430	4.298728	0.728224	-0.000043
1768	1.7582e+02	2.4160	-4.311314	0.000422	4.216848	0.714353	-0.000042
1769	1.7592e+02	2.4038	-4.352863	0.000418	4.175907	0.707418	-0.000042
1770	1.7602e+02	2.3956	-4.397263	0.000446	4.462489	0.755966	-0.000045
1771	1.7612e+02	2.3855	-4.438812	0.000418	4.175907	0.707418	-0.000042
1772	1.7621e+02	2.3715	-4.482397	0.000438	4.380609	0.742095	-0.000044
1773	1.7631e+02	2.3641	-4.526390	0.000442	4.421549	0.749031	-0.000044
1774	1.7641e+02	2.3540	-4.565903	0.000397	3.971206	0.672741	-0.000040
1775	1.7651e+02	2.3441	-4.608674	0.000430	4.298728	0.728224	-0.000043
1776	1.7661e+02	2.3317	-4.649815	0.000413	4.134967	0.700482	-0.000041
1777	1.7671e+02	2.3271	-4.693808	0.000442	4.421549	0.749031	-0.000044
1778	1.7681e+02	2.3164	-4.735357	0.000418	4.175907	0.707418	-0.000042
1779	1.7691e+02	2.3036	-4.776906	0.000418	4.175907	0.707418	-0.000042
1780	1.7701e+02	2.2952	-4.822121	0.000454	4.544370	0.769837	-0.000045
1781	1.7711e+02	2.2823	-4.862448	0.000405	4.053087	0.686611	-0.000041
1782	1.7721e+02	2.2742	-4.904404	0.000422	4.216848	0.714353	-0.000042
1783	1.7731e+02	2.2629	-4.950027	0.000459	4.585310	0.776773	-0.000046
1784	1.7741e+02	2.2552	-4.993205	0.000434	4.339669	0.735160	-0.000043
1785	1.7751e+02	2.2460	-5.039235	0.000463	4.626250	0.783708	-0.000046
1786	1.7761e+02	2.2364	-5.083228	0.000442	4.421549	0.749031	-0.000044
1787	1.7771e+02	2.2248	-5.130887	0.000479	4.790011	0.811450	-0.000048
1788	1.7781e+02	2.2146	-5.171214	0.000405	4.053087	0.686611	-0.000041
1789	1.7791e+02	2.2028	-5.215614	0.000446	4.462489	0.755966	-0.000045
1790	1.7801e+02	2.1925	-5.261236	0.000459	4.585310	0.776773	-0.000046
1791	1.7810e+02	2.1843	-5.302378	0.000413	4.134967	0.700482	-0.000041
1792	1.7820e+02	2.1773	-5.348000	0.000459	4.585310	0.776773	-0.000046
1793	1.7830e+02	2.1656	-5.393623	0.000459	4.585310	0.776773	-0.000046
1794	1.7840e+02	2.1522	-5.433135	0.000397	3.971206	0.672741	-0.000040
1795	1.7850e+02	2.1452	-5.478757	0.000459	4.585310	0.776773	-0.000046
1796	1.7860e+02	2.1328	-5.524380	0.000459	4.585310	0.776773	-0.000046
1797	1.7870e+02	2.1258	-5.568373	0.000442	4.421549	0.749031	-0.000044
1798	1.7880e+02	2.1152	-5.609107	0.000409	4.094027	0.693547	-0.000041
1799	1.7890e+02	2.1066	-5.653100	0.000442	4.421549	0.749031	-0.000044
1800	1.7900e+02	2.0940	-5.696278	0.000434	4.339669	0.735160	-0.000043
1801	1.7910e+02	2.0846	-5.743937	0.000479	4.790011	0.811450	-0.000048
1802	1.7920e+02	2.0761	-5.787930	0.000442	4.421549	0.749031	-0.000044
1803	1.7930e+02	2.0665	-5.826628	0.000389	3.889326	0.658870	-0.000039
1804	1.7940e+02	2.0546	-5.873880	0.000475	4.749071	0.804514	-0.000047
1805	1.7950e+02	2.0446	-5.916243	0.000426	4.257788	0.721289	-0.000043
1806	1.7960e+02	2.0353	-5.958607	0.000426	4.257788	0.721289	-0.000043
1807	1.7970e+02	2.0238	-6.003822	0.000454	4.544370	0.769837	-0.000045
1808	1.7980e+02	2.0171	-6.047000	0.000434	4.339669	0.735160	-0.000043
1809	1.7990e+02	2.0058	-6.088956	0.000422	4.216848	0.714353	-0.000042
1810	1.8000e+02	1.9969	-6.130913	0.000422	4.216848	0.714353	-0.000042
1811	1.8009e+02	1.9863	-6.170832	0.000401	4.012146	0.679676	-0.000040
1812	1.8019e+02	1.9761	-6.214011	0.000434	4.339669	0.735160	-0.000043
1813	1.8029e+02	1.9644	-6.256374	0.000426	4.257788	0.721289	-0.000043
1814	1.8039e+02	1.9556	-6.297516	0.000413	4.134967	0.700482	-0.000041
1815	1.8049e+02	1.9454	-6.340287	0.000430	4.298728	0.728224	-0.000043
1816	1.8059e+02	1.9353	-6.380206	0.000401	4.012146	0.679676	-0.000040
1817	1.8069e+02	1.9248	-6.427458	0.000475	4.749071	0.804514	-0.000047
1818	1.8079e+02	1.9152	-6.474303	0.000471	4.708131	0.797579	-0.000047
1819	1.8089e+02	1.9061	-6.512593	0.000385	3.848385	0.651934	-0.000038
1820	1.8099e+02	1.8964	-6.555771	0.000434	4.339669	0.735160	-0.000043
1821	1.8109e+02	1.8871	-6.598135	0.000426	4.257788	0.721289	-0.000043
1822	1.8119e+02	1.8758	-6.641313	0.000434	4.339669	0.735160	-0.000043
1823	1.8129e+02	1.8661	-6.681233	0.000401	4.012146	0.679676	-0.000040
1824	1.8139e+02	1.8575	-6.726040	0.000450	4.503430	0.762902	-0.000045
1825	1.8149e+02	1.8474	-6.767182	0.000413	4.134967	0.700482	-0.000041
1826	1.8159e+02	1.8382	-6.806287	0.000393	3.930266	0.665805	-0.000039
1827	1.8169e+02	1.8279	-6.849465	0.000434	4.339669	0.735160	-0.000043
1828	1.8179e+02	1.8145	-6.891829	0.000426	4.257788	0.721289	-0.000043
1829	1.8189e+02	1.8059	-6.928489	0.000368	3.684624	0.624192	-0.000037
1830	1.8199e+02	1.7968	-6.970853	0.000426	4.257788	0.721289	-0.000043
1831	1.8209e+02	1.7876	-7.011180	0.000405	4.053087	0.686611	-0.000041
1832	1.8218e+02	1.7781	-7.055580	0.000446	4.462489	0.755966	-0.000045
1833	1.8228e+02	1.7702	-7.096722	0.000413	4.134967	0.700482	-0.000041
1834	1.8238e+02	1.7557	-7.139086	0.000426	4.257788	0.721289	-0.000043
1835	1.8248e+02	1.7464	-7.183079	0.000442	4.421549	0.749031	-0.000044
1836	1.8258e+02	1.7374	-7.219739	0.000368	3.684624	0.624192	-0.000037
1837	1.8268e+02	1.7268	-7.259659	0.000401	4.012146	0.679676	-0.000040
1838	1.8278e+02	1.7132	-7.302430	0.000430	4.298728	0.728224	-0.000043
1839	1.8288e+02	1.7066	-7.343164	0.000409	4.094027	0.693547	-0.000041
1840	1.8298e+02	1.6978	-7.383084	0.000401	4.012146	0.679676	-0.000040
1841	1.8308e+02	1.6879	-7.423818	0.000409	4.094027	0.693547	-0.000041
1842	1.8318e+02	1.6743	-7.466589	0.000430	4.298728	0.728224	-0.000043
1843	1.8328e+02	1.6685	-7.507323	0.000409	4.094027	0.693547	-0.000041
1844	1.8338e+02	1.6576	-7.548872	0.000418	4.175907	0.707418	-0.000042
1845	1.8348e+02	1.6469	-7.590828	0.000422	4.216848	0.714353	-0.000042
1846	1.8358e+02	1.6367	-7.636043	0.000454	4.544370	0.769837	-0.000045
1847	1.8368e+02	1.6275	-7.682073	0.000463	4.626250	0.783708	-0.000046
1848	1.8378e+02	1.6185	-7.722400	0.000405	4.053087	0.686611	-0.000041
1849	1.8388e+02	1.6074	-7.772096	0.000499	4.994713	0.846127	-0.000050
1850	1.8398e+02	1.5983	-7.812015	0.000401	4.012146	0.679676	-0.000040
1851	1.8407e+02	1.5891	-7.857230	0.000454	4.544370	0.769837	-0.000045
1852	1.8417e+02	1.5765	-7.899594	0.000426	4.257788	0.721289	-0.000043
1853	1.8427e+02	1.5707	-7.941550	0.000422	4.216848	0.714353	-0.000042
1854	1.8437e+02	1.5566	-7.984321	0.000430	4.298728	0.728224	-0.000043
1855	1.8447e+02	1.5458	-8.028314	0.000442	4.421549	0.749031	-0.000044
1856	1.8457e+02	1.5392	-8.072715	0.000446	4.462489	0.755966	-0.000045
1857	1.8467e+02	1.5286	-8.118744	0.000463	4.626250	0.783708	-0.000046
1858	1.8477e+02	1.5206	-8.161515	0.000430	4.298728	0.728224	-0.000043
1859	1.8487e+02	1.5085	-8.205101	0.000438	4.380609	0.742095	-0.000044
1860	1.8497e+02	1.4991	-8.251945	0.000471	4.708131	0.797579	-0.000047
1861	1.8507e+02	1.4884	-8.293494	0.000418	4.175907	0.707418	-0.000042
1862	1.8517e+02	1.4785	-8.340746	0.000475	4.749071	0.804514	-0.000047
1863	1.8527e+02	1.4662	-8.384739	0.000442	4.421549	0.749031	-0.000044
1864	1.8537e+02	1.4581	-8.430769	0.000463	4.626250	0.783708	-0.000046
1865	1.8547e+02	1.4464	-8.475576	0.000450	4.503430	0.762902	-0.000045
1866	1.8557e+02	1.4359	-8.519977	0.000446	4.462489	0.755966	-0.000045
1867	1.8567e+02	1.4293	-8.561933	0.000422	4.216848	0.714353	-0.000042
1868	1.8577e+02	1.4173	-8.605519	0.000438	4.380609	0.742095	-0.000044
1869	1.8587e+02	1.4085	-8.650734	0.000454	4.544370	0.769837	-0.000045
1870	1.8597e+02	1.4021	-8.687395	0.000368	3.684624	0.624192	-0.000037
1871	1.8606e+02	1.3889	-8.734646	0.000475	4.749071	0.804514	-0.000047
1872	1.8616e+02	1.3787	-8.780269	0.000459	4.585310	0.776773	-0.000046
1873	1.8626e+02	1.3676	-8.818966	0.000389	3.889326	0.658870	-0.000039
1874	1.8636e+02	1.3586	-8.859700	0.000409	4.094027	0.693547	-0.000041
1875	1.8646e+02	1.3480	-8.908174	0.000487	4.871892	0.825321	-0.000049
1876	1.8656e+02	1.3396	-8.948501	0.000405	4.053087	0.686611	-0.000041
1877	1.8666e+02	1.3291	-8.994531	0.000463	4.626250	0.783708	-0.000046
1878	1.8676e+02	1.3190	-9.040968	0.000467	4.667191	0.790644	-0.000047
1879	1.8686e+02	1.3091	-9.087812	0.000471	4.708131	0.797579	-0.000047
1880	1.8696e+02	1.2979	-9.132213	0.000446	4.462489	0.755966	-0.000045
1881	1.8706e+02	1.2898	-9.175391	0.000434	4.339669	0.735160	-0.000043
1882	1.8716e+02	1.2809	-9.216940	0.000418	4.175907	0.707418	-0.000042
1883	1.8726e+02	1.2692	-9.262970	0.000463	4.626250	0.783708	-0.000046
1884	1.8736e+02	1.2587	-9.305333	0.000426	4.257788	0.721289	-0.000043
1885	1.8746e+02	1.2492	-9.347697	0.000426	4.257788	0.721289	-0.000043
1886	1.8756e+02	1.2364	-9.389246	0.000418	4.175907	0.707418	-0.000042
1887	1.8766e+02	1.2296	-9.436498	0.000475	4.749071	0.804514	-0.000047
1888	1.8776e+02	1.2204	-9.486193	0.000499	4.994713	0.846127	-0.000050
1889	1.8786e+02	1.2090	-9.528964	0.000430	4.298728	0.728224	-0.000043
1890	1.8796e+02	1.1998	-9.577031	0.000483	4.830952	0.818385	-0.000048
1891	1.8806e+02	1.1932	-9.620209	0.000434	4.339669	0.735160	-0.000043
1892	1.8815e+02	1.1787	-9.671942	0.000520	5.199414	0.880805	-0.000052
1893	1.8825e+02	1.1679	-9.717564	0.000459	4.585310	0.776773	-0.000046
1894	1.8835e+02	1.1601	-9.761557	0.000442	4.421549	0.749031	-0.000044
1895	1.8845e+02	1.1502	-9.805957	0.000446	4.462489	0.755966	-0.000045
1896	1.8855e+02	1.1413	-9.857282	0.000516	5.158474	0.873869	-0.000052
1897	1.8865e+02	1.1311	-9.902905	0.000459	4.585310	0.776773	-0.000046
1898	1.8875e+02	1.1201	-9.949749	0.000471	4.708131	0.797579	-0.000047
1899	1.8885e+02	1.1117	-9.997001	0.000475	4.749071	0.804514	-0.000047
1900	1.8895e+02	1.0981	-10.046289	0.000495	4.953773	0.839192	-0.000050
1901	1.8905e+02	1.0915	-10.091912	0.000459	4.585310	0.776773	-0.000046
1902	1.8915e+02	1.0846	-10.138756	0.000471	4.708131	0.797579	-0.000047
1903	1.8925e+02	1.0702	-10.186823	0.000483	4.830952	0.818385	-0.000048
1904	1.8935e+02	1.0585	-10.234074	0.000475	4.749071	0.804514	-0.000047
1905	1.8945e+02	1.0502	-10.278475	0.000446	4.462489	0.755966	-0.000045
1906	1.8955e+02	1.0404	-10.328985	0.000508	5.076593	0.859998	-0.000051
1907	1.8965e+02	1.0298	-10.377459	0.000487	4.871892	0.825321	-0.000049
1908	1.8975e+02	1.0217	-10.424303	0.000471	4.708131	0.797579	-0.000047
1909	1.8985e+02	1.0126	-10.469518	0.000454	4.544370	0.769837	-0.000045
1910	1.8995e+02	0.9995	-10.524102	0.000549	5.485996	0.929353	-0.000055
1911	1.9004e+02	0.9908	-10.572169	0.000483	4.830952	0.818385	-0.000048
1912	1.9014e+02	0.9805	-10.624308	0.000524	5.240354	0.887740	-0.000052
1913	1.9024e+02	0.9715	-10.676041	0.000520	5.199414	0.880805	-0.000052
1914	1.9034e+02	0.9617	-10.724922	0.000491	4.912832	0.832256	-0.000049
1915	1.9044e+02	0.9522	-10.773396	0.000487	4.871892	0.825321	-0.000049
1916	1.9054e+02	0.9409	-10.821462	0.000483	4.830952	0.818385	-0.000048
1917	1.9064e+02	0.9303	-10.869529	0.000483	4.830952	0.818385	-0.000048
1918	1.9074e+02	0.9207	-10.922891	0.000536	5.363175	0.908546	-0.000054
1919	1.9084e+02	0.9115	-10.971772	0.000491	4.912832	0.832256	-0.000049
1920	1.9094e+02	0.9017	-11.022282	0.000508	5.076593	0.859998	-0.000051
1921	1.9104e+02	0.8912	-11.069941	0.000479	4.790011	0.811450	-0.000048
1922	1.9114e+02	0.8830	-11.121266	0.000516	5.158474	0.873869	-0.000052
1923	1.9124e+02	0.8720	-11.171369	0.000504	5.035653	0.853063	-0.000050
1924	1.9134e+02	0.8620	-11.224731	0.000536	5.363175	0.908546	-0.000054
1925	1.9144e+02	0.8496	-11.270761	0.000463	4.626250	0.783708	-0.000046
1926	1.9154e+02	0.8426	-11.323716	0.000532	5.322235	0.901611	-0.000053
1927	1.9164e+02	0.8330	-11.371782	0.000483	4.830952	0.818385	-0.000048
1928	1.9174e+02	0.8215	-11.423922	0.000524	5.240354	0.887740	-0.000052
1929	1.9184e+02	0.8115	-11.472396	0.000487	4.871892	0.825321	-0.000049
1930	1.9194e+02	0.8030	-11.520462	0.000483	4.830952	0.818385	-0.000048
1931	1.9203e+02	0.7912	-11.567714	0.000475	4.749071	0.804514	-0.000047
1932	1.9213e+02	0.7822	-11.619039	0.000516	5.158474	0.873869	-0.000052
1933	1.9223e+02	0.7739	-11.665476	0.000467	4.667191	0.790644	-0.000047
1934	1.9233e+02	0.7610	-11.715172	0.000499	4.994713	0.846127	-0.000050
1935	1.9243e+02	0.7538	-11.766497	0.000516	5.158474	0.873869	-0.000052
1936	1.9253e+02	0.7442	-11.811712	0.000454	4.544370	0.769837	-0.000045
1937	1.9263e+02	0.7311	-11.861408	0.000499	4.994713	0.846127	-0.000050
1938	1.9273e+02	0.7220	-11.915177	0.000540	5.404116	0.915482	-0.000054
1939	1.9283e+02	0.7156	-11.957541	0.000426	4.257788	0.721289	-0.000043
1940	1.9293e+02	0.7018	-12.008051	0.000508	5.076593	0.859998	-0.000051
1941	1.9303e+02	0.6918	-12.054081	0.000463	4.626250	0.783708	-0.000046
1942	1.9313e+02	0.6805	-12.106628	0.000528	5.281295	0.894676	-0.000053
1943	1.9323e+02	0.6727	-12.152658	0.000463	4.626250	0.783708	-0.000046
1944	1.9333e+02	0.6593	-12.201539	0.000491	4.912832	0.832256	-0.000049
1945	1.9343e+02	0.6521	-12.251642	0.000504	5.035653	0.853063	-0.000050
1946	1.9353e+02	0.6409	-12.298486	0.000471	4.708131	0.797579	-0.000047
1947	1.9363e+02	0.6329	-12.348997	0.000508	5.076593	0.859998	-0.000051
1948	1.9373e+02	0.6228	-12.399100	0.000504	5.035653	0.853063	-0.000050
1949	1.9383e+02	0.6110	-12.442686	0.000438	4.380609	0.742095	-0.000044
1950	1.9393e+02	0.6026	-12.493603	0.000512	5.117534	0.866934	-0.000051
1951	1.9403e+02	0.5943	-12.545743	0.000524	5.240354	0.887740	-0.000052
1952	1.9412e+02	0.5834	-12.595032	0.000495	4.953773	0.839192	-0.000050
1953	1.9422e+02	0.5743	-12.646357	0.000516	5.158474	0.873869	-0.000052
1954	1.9432e+02	0.5623	-12.695238	0.000491	4.912832	0.832256	-0.000049
1955	1.9442e+02	0.5532	-12.749007	0.000540	5.404116	0.915482	-0.000054
1956	1.9452e+02	0.5441	-12.794630	0.000459	4.585310	0.776773	-0.000046
1957	1.9462e+02	0.5331	-12.850028	0.000557	5.567877	0.943224	-0.000056
1958	1.9472e+02	0.5245	-12.898095	0.000483	4.830952	0.818385	-0.000048
1959	1.9482e+02	0.5152	-12.950642	0.000528	5.281295	0.894676	-0.000053
1960	1.9492e+02	0.5023	-12.999116	0.000487	4.871892	0.825321	-0.000049
1961	1.9502e+02	0.4935	-13.046775	0.000479	4.790011	0.811450	-0.000048
1962	1.9512e+02	0.4848	-13.097692	0.000512	5.117534	0.866934	-0.000051
1963	1.9522e+02	0.4725	-13.147388	0.000499	4.994713	0.846127	-0.000050
1964	1.9532e+02	0.4652	-13.197084	0.000499	4.994713	0.846127	-0.000050
1965	1.9542e+02	0.4508	-13.247187	0.000504	5.035653	0.853063	-0.000050
1966	1.9552e+02	0.4421	-13.299734	0.000528	5.281295	0.894676	-0.000053
1967	1.9562e+02	0.4358	-13.343727	0.000442	4.421549	0.749031	-0.000044
1968	1.9572e+02	0.4232	-13.399941	0.000565	5.649757	0.957095	-0.000056
1969	1.9582e+02	0.4130	-13.450044	0.000504	5.035653	0.853063	-0.000050
1970	1.9592e+02	0.4049	-13.499739	0.000499	4.994713	0.846127	-0.000050
1971	1.9601e+02	0.3939	-13.548213	0.000487	4.871892	0.825321	-0.000049
1972	1.9611e+02	0.3830	-13.594650	0.000467	4.667191	0.790644	-0.000047
1973	1.9621e+02	0.3743	-13.645568	0.000512	5.117534	0.866934	-0.000051
1974	1.9631e+02	0.3646	-13.695671	0.000504	5.035653	0.853063	-0.000050
1975	1.9641e+02	0.3516	-13.744960	0.000495	4.953773	0.839192	-0.000050
1976	1.9651e+02	0.3466	-13.792619	0.000479	4.790011	0.811450	-0.000048
1977	1.9661e+02	0.3330	-13.839056	0.000467	4.667191	0.790644	-0.000047
1978	1.9671e+02	0.3254	-13.892825	0.000540	5.404116	0.915482	-0.000054
1979	1.9681e+02	0.3137	-13.938855	0.000463	4.626250	0.783708	-0.000046
1980	1.9691e+02	0.3020	-13.986107	0.000475	4.749071	0.804514	-0.000047
1981	1.9701e+02	0.2928	-14.033766	0.000479	4.790011	0.811450	-0.000048
1982	1.9711e+02	0.2838	-14.082239	0.000487	4.871892	0.825321	-0.000049
1983	1.9721e+02	0.2756	-14.130713	0.000487	4.871892	0.825321	-0.000049
1984	1.9731e+02	0.2682	-14.176335	0.000459	4.585310	0.776773	-0.000046
1985	1.9741e+02	0.2542	-14.229697	0.000536	5.363175	0.908546	-0.000054
1986	1.9751e+02	0.2440	-14.278986	0.000495	4.953773	0.839192	-0.000050
1987	1.9761e+02	0.2367	-14.327867	0.000491	4.912832	0.832256	-0.000049
1988	1.9771e+02	0.2224	-14.376341	0.000487	4.871892	0.825321	-0.000049
1989	1.9781e+02	0.2139	-14.423592	0.000475	4.749071	0.804514	-0.000047
1990	1.9791e+02	0.2042	-14.478991	0.000557	5.567877	0.943224	-0.000056
1991	1.9800e+02	0.1991	-14.519318	0.000405	4.053087	0.686611	-0.000041
1992	1.9810e+02	0.1862	-14.567384	0.000483	4.830952	0.818385	-0.000048
1993	1.9820e+02	0.1746	-14.616265	0.000491	4.912832	0.832256	-0.000049
1994	1.9830e+02	0.1663	-14.657814	0.000418	4.175907	0.707418	-0.000042
1995	1.9840e+02	0.1551	-14.711991	0.000545	5.445056	0.922417	-0.000054
1996	1.9850e+02	0.1442	-14.757613	0.000459	4.585310	0.776773	-0.000046
1997	1.9860e+02	0.1364	-14.802828	0.000454	4.544370	0.769837	-0.000045
1998	1.9870e+02	0.1235	-14.850895	0.000483	4.830952	0.818385	-0.000048
1999	1.9880e+02	0.1152	-14.895295	0.000446	4.462489	0.755966	-0.000045
2000	1.9890e+02	0.1042	-14.947028	0.000520	5.199414	0.880805	-0.000052
2001	1.9900e+02	0.0954	-14.994687	0.000479	4.790011	0.811450	-0.000048
2002	1.9910e+02	0.0840	-15.040716	0.000463	4.626250	0.783708	-0.000046
2003	1.9920e+02	0.0739	-15.090820	0.000504	5.035653	0.853063	-0.000050
2004	1.9930e+02	0.0654	-15.138071	0.000475	4.749071	0.804514	-0.000047
2005	1.9940e+02	0.0557	-15.180842	0.000430	4.298728	0.728224	-0.000043
2006	1.9950e+02	0.0435	-15.224021	0.000434	4.339669	0.735160	-0.000043
2007	1.9960e+02	0.0330	-15.271680	0.000479	4.790011	0.811450	-0.000048
2008	1.9970e+02	0.0251	-15.318524	0.000471	4.708131	0.797579	-0.000047
2009	1.9980e+02	0.0196	-15.364554	0.000463	4.626250	0.783708	-0.000046
2010	1.9990e+02	0.0050	-15.414249	0.000499	4.994713	0.846127	-0.000050
2011	2.0000e+02	-0.0046	-15.457835	0.000499	4.994713	0.846127	-0.000044

PMax (uC/cm2):	3.69e+01
Pr (uC/cm2):	3.03e+00
-Pr (uC/cm2):	0.00e+00
PLoss (uC/cm2):	0.00e+00
C (Max-Eff) (nF):	3.70e-01
K (Eff):	6.26e+02
Vert. (+/-Pr) Shift (uC/cm2):	1.51e+00
Offset (uC/cm2):	1.85e+01

A (Loop Area - uC/cm2·Volts):	-2.97e-02



Hysteresis Version: 5.48.1 - Radiant Technologies, Inc., 1999 - 9/12/24

