»»»»»»»»»»»»»»»»»»»»»»»»»»»»»»»»»»»» Hysteresis ««««««««««««««««««««««««««««««««««««
»»»  Executed Version:	5.48.1
»»»  Vision Version:	5.48.4 (R)
»»»  Vision Compiled:	9/18/24
»»»  Driver Version:	5.47.0
»»»  Windows Version:	Windows 8 or 8.1
»»»  Processor Information:	x86 (AMD or Intel) - 32 Processors
»»»  Tester Name:	PMF21124-494 (100V)
»»»  Tester S/N:	PMF21124-494
»»»  Internal Amp Type:	100V RevK 270k
»»»  Internal Amp S/N:	iAB2-596/K     
»»»  Execution Count:	1
»»»»»»»»»»»»»»»»»»»»»»»»»»»»»»»»»»»»»»»»»»««««««««««««««««««««««««««««««««««««««««««

Stored:	6/30/2025 - 12:26:1
Configured:	06/30/25 10:19:58 AM
Executed:	06/30/25 12:25:35 PM

»»»»»»»»»»»»»»»»»»»»»»»»»»»»»»»»»»» Sample Info ««««««««««««««««««««««««««««««««««««
Sample Name:	
Lot Name:	
Wafer Name:	
Die Row/Column:	0/0
Capacitor Number:	0
Sample Area (cm2):	1.00e-04
Sample Thickness (microns):	1.50e-01

Amplifier:	Internal

»»»»»»»»»»»»»»»»»»»»»»»»»»»»»»»»»»» Tester Info «««««««««««««««««««««««««««««««««««
Tester Name:	PMF21124-494 (100V)
Tester Serial Number:	PMF21124-494
Return Signal Amp. Level:	1.9 [Index: 2]

»»»»»»»»»»»»»»»»»»»»»»»»»»»»»»»» Hysteresis Info ««««««««««««««««««««««««««««««««««
Task Name:	Hyst-1804
Volts:	10.00
Field:	666.67 (kV/cm)
DCBias:	0.00
DCField:	0.00 (kV/cm)
Hysteresis Period (ms):	2.00e+02
Preset:	Enabled
Preset Delay (ms):	1.00e+03
Profile:	Standard Monopolar

»»»»»»»»»»»»»»»»»»»»»»»»»»»»»»»»»»»»»» Data «««««««««««««««««««««««««««««««««««««««
Points:	2011

Valid Data

Point	Time (ms)	Drive Voltage	Measured Polarization (uC/cm2)	Capacitance (uF)	Normalized Capacitance (uF/cm2)	Dielectric Constant	Instantaneous Current (mA)
   1	0.0000e+00	-0.0027	-19.636762	0.000393	3.930446	0.665836	0.000039
   2	9.9500e-02	0.0077	-19.597657	0.000393	3.930446	0.665836	0.000039
   3	1.9900e-01	0.0158	-19.549998	0.000479	4.790231	0.811487	0.000048
   4	2.9850e-01	0.0254	-19.505598	0.000446	4.462694	0.756001	0.000045
   5	3.9800e-01	0.0366	-19.463234	0.000426	4.257983	0.721322	0.000043
   6	4.9750e-01	0.0452	-19.420056	0.000434	4.339867	0.735193	0.000043
   7	5.9700e-01	0.0581	-19.374434	0.000459	4.585520	0.776808	0.000046
   8	6.9650e-01	0.0669	-19.332477	0.000422	4.217041	0.714386	0.000042
   9	7.9600e-01	0.0732	-19.289299	0.000434	4.339867	0.735193	0.000043
  10	8.9550e-01	0.0842	-19.242047	0.000475	4.749289	0.804551	0.000047
  11	9.9500e-01	0.0942	-19.194388	0.000479	4.790231	0.811487	0.000048
  12	1.0945e+00	0.1082	-19.149581	0.000450	4.503636	0.762937	0.000045
  13	1.1940e+00	0.1165	-19.102736	0.000471	4.708346	0.797615	0.000047
  14	1.2935e+00	0.1242	-19.060373	0.000426	4.257983	0.721322	0.000043
  15	1.3930e+00	0.1357	-19.011899	0.000487	4.872115	0.825359	0.000049
  16	1.4925e+00	0.1435	-18.966684	0.000454	4.544578	0.769872	0.000045
  17	1.5920e+00	0.1541	-18.921876	0.000450	4.503636	0.762937	0.000045
  18	1.6915e+00	0.1634	-18.875439	0.000467	4.667404	0.790680	0.000047
  19	1.7910e+00	0.1743	-18.833483	0.000422	4.217041	0.714386	0.000042
  20	1.8905e+00	0.1840	-18.788268	0.000454	4.544578	0.769872	0.000045
  21	1.9900e+00	0.1942	-18.738165	0.000504	5.035884	0.853102	0.000050
  22	2.0895e+00	0.2014	-18.695801	0.000426	4.257983	0.721322	0.000043
  23	2.1890e+00	0.2168	-18.647735	0.000483	4.831173	0.818423	0.000048
  24	2.2885e+00	0.2251	-18.598446	0.000495	4.953999	0.839230	0.000050
  25	2.3880e+00	0.2342	-18.549972	0.000487	4.872115	0.825359	0.000049
  26	2.4875e+00	0.2444	-18.503943	0.000463	4.626462	0.783744	0.000046
  27	2.5870e+00	0.2563	-18.456284	0.000479	4.790231	0.811487	0.000048
  28	2.6865e+00	0.2649	-18.408217	0.000483	4.831173	0.818423	0.000048
  29	2.7860e+00	0.2740	-18.361373	0.000471	4.708346	0.797615	0.000047
  30	2.8855e+00	0.2840	-18.312492	0.000491	4.913057	0.832294	0.000049
  31	2.9850e+00	0.2933	-18.264018	0.000487	4.872115	0.825359	0.000049
  32	3.0845e+00	0.3048	-18.214730	0.000495	4.953999	0.839230	0.000050
  33	3.1840e+00	0.3146	-18.172773	0.000422	4.217041	0.714386	0.000042
  34	3.2835e+00	0.3262	-18.119004	0.000540	5.404363	0.915524	0.000054
  35	3.3830e+00	0.3339	-18.072160	0.000471	4.708346	0.797615	0.000047
  36	3.4825e+00	0.3425	-18.024093	0.000483	4.831173	0.818423	0.000048
  37	3.5820e+00	0.3550	-17.976434	0.000479	4.790231	0.811487	0.000048
  38	3.6815e+00	0.3634	-17.927146	0.000495	4.953999	0.839230	0.000050
  39	3.7810e+00	0.3752	-17.876635	0.000508	5.076826	0.860038	0.000051
  40	3.8805e+00	0.3831	-17.832642	0.000442	4.421751	0.749065	0.000044
  41	3.9800e+00	0.3933	-17.774800	0.000581	5.813784	0.984882	0.000058
  42	4.0795e+00	0.4041	-17.728770	0.000463	4.626462	0.783744	0.000046
  43	4.1790e+00	0.4139	-17.681111	0.000479	4.790231	0.811487	0.000048
  44	4.2785e+00	0.4247	-17.628971	0.000524	5.240594	0.887781	0.000052
  45	4.3780e+00	0.4365	-17.578460	0.000508	5.076826	0.860038	0.000051
  46	4.4775e+00	0.4448	-17.532838	0.000459	4.585520	0.776808	0.000046
  47	4.5770e+00	0.4510	-17.486401	0.000467	4.667404	0.790680	0.000047
  48	4.6765e+00	0.4656	-17.433039	0.000536	5.363421	0.908588	0.000054
  49	4.7760e+00	0.4724	-17.381307	0.000520	5.199652	0.880845	0.000052
  50	4.8755e+00	0.4853	-17.336092	0.000454	4.544578	0.769872	0.000045
  51	4.9750e+00	0.4931	-17.284766	0.000516	5.158710	0.873909	0.000052
  52	5.0745e+00	0.5023	-17.237515	0.000475	4.749289	0.804551	0.000047
  53	5.1740e+00	0.5140	-17.187004	0.000508	5.076826	0.860038	0.000051
  54	5.2735e+00	0.5257	-17.136901	0.000504	5.035884	0.853102	0.000050
  55	5.3730e+00	0.5328	-17.091686	0.000454	4.544578	0.769872	0.000045
  56	5.4725e+00	0.5449	-17.038324	0.000536	5.363421	0.908588	0.000054
  57	5.5720e+00	0.5527	-16.991887	0.000467	4.667404	0.790680	0.000047
  58	5.6715e+00	0.5633	-16.939340	0.000528	5.281536	0.894717	0.000053
  59	5.7710e+00	0.5741	-16.888422	0.000512	5.117768	0.866973	0.000051
  60	5.8705e+00	0.5849	-16.836690	0.000520	5.199652	0.880845	0.000052
  61	5.9700e+00	0.5934	-16.789031	0.000479	4.790231	0.811487	0.000048
  62	6.0695e+00	0.6023	-16.736483	0.000528	5.281536	0.894717	0.000053
  63	6.1690e+00	0.6132	-16.691268	0.000454	4.544578	0.769872	0.000045
  64	6.2685e+00	0.6226	-16.638314	0.000532	5.322479	0.901652	0.000053
  65	6.3680e+00	0.6326	-16.589840	0.000487	4.872115	0.825359	0.000049
  66	6.4675e+00	0.6444	-16.541774	0.000483	4.831173	0.818423	0.000048
  67	6.5670e+00	0.6533	-16.489226	0.000528	5.281536	0.894717	0.000053
  68	6.6665e+00	0.6617	-16.443197	0.000463	4.626462	0.783744	0.000046
  69	6.7660e+00	0.6729	-16.395538	0.000479	4.790231	0.811487	0.000048
  70	6.8655e+00	0.6800	-16.347879	0.000479	4.790231	0.811487	0.000048
  71	6.9650e+00	0.6917	-16.292073	0.000561	5.609074	0.950203	0.000056
  72	7.0645e+00	0.7005	-16.244414	0.000479	4.790231	0.811487	0.000048
  73	7.1640e+00	0.7121	-16.184942	0.000598	5.977553	1.012625	0.000060
  74	7.2635e+00	0.7236	-16.138505	0.000467	4.667404	0.790680	0.000047
  75	7.3630e+00	0.7341	-16.087587	0.000512	5.117768	0.866973	0.000051
  76	7.4625e+00	0.7423	-16.034225	0.000536	5.363421	0.908588	0.000054
  77	7.5620e+00	0.7479	-15.982492	0.000520	5.199652	0.880845	0.000052
  78	7.6615e+00	0.7615	-15.932797	0.000499	4.994941	0.846166	0.000050
  79	7.7610e+00	0.7729	-15.882693	0.000504	5.035884	0.853102	0.000050
  80	7.8605e+00	0.7817	-15.830146	0.000528	5.281536	0.894717	0.000053
  81	7.9600e+00	0.7935	-15.776784	0.000536	5.363421	0.908588	0.000054
  82	8.0595e+00	0.8022	-15.731162	0.000459	4.585520	0.776808	0.000046
  83	8.1590e+00	0.8112	-15.678207	0.000532	5.322479	0.901652	0.000053
  84	8.2585e+00	0.8221	-15.630548	0.000479	4.790231	0.811487	0.000048
  85	8.3580e+00	0.8331	-15.575557	0.000553	5.527189	0.936331	0.000055
  86	8.4575e+00	0.8406	-15.523825	0.000520	5.199652	0.880845	0.000052
  87	8.5570e+00	0.8516	-15.475758	0.000483	4.831173	0.818423	0.000048
  88	8.6565e+00	0.8617	-15.424433	0.000516	5.158710	0.873909	0.000052
  89	8.7560e+00	0.8720	-15.371071	0.000536	5.363421	0.908588	0.000054
  90	8.8555e+00	0.8816	-15.321375	0.000499	4.994941	0.846166	0.000050
  91	8.9550e+00	0.8951	-15.267606	0.000540	5.404363	0.915524	0.000054
  92	9.0545e+00	0.9029	-15.217910	0.000499	4.994941	0.846166	0.000050
  93	9.1540e+00	0.9129	-15.164549	0.000536	5.363421	0.908588	0.000054
  94	9.2535e+00	0.9205	-15.116482	0.000483	4.831173	0.818423	0.000048
  95	9.3530e+00	0.9314	-15.063528	0.000532	5.322479	0.901652	0.000053
  96	9.4525e+00	0.9406	-15.015054	0.000487	4.872115	0.825359	0.000049
  97	9.5520e+00	0.9515	-14.964136	0.000512	5.117768	0.866973	0.000051
  98	9.6515e+00	0.9606	-14.915662	0.000487	4.872115	0.825359	0.000049
  99	9.7510e+00	0.9703	-14.863115	0.000528	5.281536	0.894717	0.000053
 100	9.8505e+00	0.9818	-14.817900	0.000454	4.544578	0.769872	0.000045
 101	9.9500e+00	0.9923	-14.761279	0.000569	5.690958	0.964074	0.000057
 102	1.0050e+01	0.9987	-14.716472	0.000450	4.503636	0.762937	0.000045
 103	1.0149e+01	1.0114	-14.662295	0.000545	5.445305	0.922460	0.000054
 104	1.0248e+01	1.0220	-14.611377	0.000512	5.117768	0.866973	0.000051
 105	1.0348e+01	1.0332	-14.565348	0.000463	4.626462	0.783744	0.000046
 106	1.0447e+01	1.0401	-14.509134	0.000565	5.650016	0.957139	0.000056
 107	1.0547e+01	1.0519	-14.460253	0.000491	4.913057	0.832294	0.000049
 108	1.0646e+01	1.0618	-14.417075	0.000434	4.339867	0.735193	0.000043
 109	1.0746e+01	1.0688	-14.363306	0.000540	5.404363	0.915524	0.000054
 110	1.0845e+01	1.0797	-14.316461	0.000471	4.708346	0.797615	0.000047
 111	1.0945e+01	1.0902	-14.266766	0.000499	4.994941	0.846166	0.000050
 112	1.1044e+01	1.1007	-14.221551	0.000454	4.544578	0.769872	0.000045
 113	1.1144e+01	1.1091	-14.171040	0.000508	5.076826	0.860038	0.000051
 114	1.1243e+01	1.1201	-14.124196	0.000471	4.708346	0.797615	0.000047
 115	1.1343e+01	1.1310	-14.075315	0.000491	4.913057	0.832294	0.000049
 116	1.1443e+01	1.1395	-14.028470	0.000471	4.708346	0.797615	0.000047
 117	1.1542e+01	1.1513	-13.985292	0.000434	4.339867	0.735193	0.000043
 118	1.1642e+01	1.1591	-13.933967	0.000516	5.158710	0.873909	0.000052
 119	1.1741e+01	1.1710	-13.887937	0.000463	4.626462	0.783744	0.000046
 120	1.1841e+01	1.1781	-13.839463	0.000487	4.872115	0.825359	0.000049
 121	1.1940e+01	1.1903	-13.788953	0.000508	5.076826	0.860038	0.000051
 122	1.2040e+01	1.2018	-13.745774	0.000434	4.339867	0.735193	0.000043
 123	1.2139e+01	1.2115	-13.698930	0.000471	4.708346	0.797615	0.000047
 124	1.2239e+01	1.2211	-13.653308	0.000459	4.585520	0.776808	0.000046
 125	1.2338e+01	1.2313	-13.605649	0.000479	4.790231	0.811487	0.000048
 126	1.2438e+01	1.2402	-13.559619	0.000463	4.626462	0.783744	0.000046
 127	1.2537e+01	1.2494	-13.513182	0.000467	4.667404	0.790680	0.000047
 128	1.2636e+01	1.2589	-13.472855	0.000405	4.053272	0.686643	0.000041
 129	1.2736e+01	1.2680	-13.426010	0.000471	4.708346	0.797615	0.000047
 130	1.2835e+01	1.2794	-13.376315	0.000499	4.994941	0.846166	0.000050
 131	1.2935e+01	1.2897	-13.328656	0.000479	4.790231	0.811487	0.000048
 132	1.3034e+01	1.3039	-13.286699	0.000422	4.217041	0.714386	0.000042
 133	1.3134e+01	1.3100	-13.239448	0.000475	4.749289	0.804551	0.000047
 134	1.3233e+01	1.3189	-13.193825	0.000459	4.585520	0.776808	0.000046
 135	1.3333e+01	1.3305	-13.145759	0.000483	4.831173	0.818423	0.000048
 136	1.3432e+01	1.3382	-13.098914	0.000471	4.708346	0.797615	0.000047
 137	1.3532e+01	1.3488	-13.052070	0.000471	4.708346	0.797615	0.000047
 138	1.3632e+01	1.3580	-13.004411	0.000479	4.790231	0.811487	0.000048
 139	1.3731e+01	1.3696	-12.962455	0.000422	4.217041	0.714386	0.000042
 140	1.3831e+01	1.3794	-12.912759	0.000499	4.994941	0.846166	0.000050
 141	1.3930e+01	1.3887	-12.866322	0.000467	4.667404	0.790680	0.000047
 142	1.4030e+01	1.3989	-12.821514	0.000450	4.503636	0.762937	0.000045
 143	1.4129e+01	1.4077	-12.778336	0.000434	4.339867	0.735193	0.000043
 144	1.4229e+01	1.4173	-12.733121	0.000454	4.544578	0.769872	0.000045
 145	1.4328e+01	1.4300	-12.689128	0.000442	4.421751	0.749065	0.000044
 146	1.4428e+01	1.4415	-12.641469	0.000479	4.790231	0.811487	0.000048
 147	1.4527e+01	1.4468	-12.597476	0.000442	4.421751	0.749065	0.000044
 148	1.4627e+01	1.4581	-12.550631	0.000471	4.708346	0.797615	0.000047
 149	1.4726e+01	1.4684	-12.506231	0.000446	4.462694	0.756001	0.000045
 150	1.4825e+01	1.4790	-12.461831	0.000446	4.462694	0.756001	0.000045
 151	1.4925e+01	1.4881	-12.416208	0.000459	4.585520	0.776808	0.000046
 152	1.5024e+01	1.4964	-12.367735	0.000487	4.872115	0.825359	0.000049
 153	1.5124e+01	1.5110	-12.324149	0.000438	4.380809	0.742129	0.000044
 154	1.5223e+01	1.5154	-12.279749	0.000446	4.462694	0.756001	0.000045
 155	1.5323e+01	1.5268	-12.230867	0.000491	4.913057	0.832294	0.000049
 156	1.5422e+01	1.5364	-12.191763	0.000393	3.930446	0.665836	0.000039
 157	1.5522e+01	1.5479	-12.146140	0.000459	4.585520	0.776808	0.000046
 158	1.5621e+01	1.5586	-12.104591	0.000418	4.176099	0.707450	0.000042
 159	1.5721e+01	1.5676	-12.058562	0.000463	4.626462	0.783744	0.000046
 160	1.5820e+01	1.5807	-12.019049	0.000397	3.971388	0.672771	0.000040
 161	1.5920e+01	1.5875	-11.972612	0.000467	4.667404	0.790680	0.000047
 162	1.6020e+01	1.5968	-11.930249	0.000426	4.257983	0.721322	0.000043
 163	1.6119e+01	1.6082	-11.886663	0.000438	4.380809	0.742129	0.000044
 164	1.6218e+01	1.6177	-11.843485	0.000434	4.339867	0.735193	0.000043
 165	1.6318e+01	1.6289	-11.795418	0.000483	4.831173	0.818423	0.000048
 166	1.6418e+01	1.6373	-11.753869	0.000418	4.176099	0.707450	0.000042
 167	1.6517e+01	1.6499	-11.710691	0.000434	4.339867	0.735193	0.000043
 168	1.6616e+01	1.6573	-11.669957	0.000409	4.094214	0.693579	0.000041
 169	1.6716e+01	1.6658	-11.625149	0.000450	4.503636	0.762937	0.000045
 170	1.6816e+01	1.6790	-11.584007	0.000414	4.135156	0.700514	0.000041
 171	1.6915e+01	1.6876	-11.540422	0.000438	4.380809	0.742129	0.000044
 172	1.7015e+01	1.6994	-11.495614	0.000450	4.503636	0.762937	0.000045
 173	1.7114e+01	1.7078	-11.452436	0.000434	4.339867	0.735193	0.000043
 174	1.7213e+01	1.7196	-11.413738	0.000389	3.889504	0.658900	0.000039
 175	1.7313e+01	1.7262	-11.367301	0.000467	4.667404	0.790680	0.000047
 176	1.7413e+01	1.7371	-11.324123	0.000434	4.339867	0.735193	0.000043
 177	1.7512e+01	1.7477	-11.280945	0.000434	4.339867	0.735193	0.000043
 178	1.7611e+01	1.7590	-11.237359	0.000438	4.380809	0.742129	0.000044
 179	1.7711e+01	1.7673	-11.196625	0.000409	4.094214	0.693579	0.000041
 180	1.7811e+01	1.7762	-11.151002	0.000459	4.585520	0.776808	0.000046
 181	1.7910e+01	1.7844	-11.105380	0.000459	4.585520	0.776808	0.000046
 182	1.8009e+01	1.7947	-11.064646	0.000409	4.094214	0.693579	0.000041
 183	1.8109e+01	1.8090	-11.016172	0.000487	4.872115	0.825359	0.000049
 184	1.8209e+01	1.8122	-10.974216	0.000422	4.217041	0.714386	0.000042
 185	1.8308e+01	1.8251	-10.929815	0.000446	4.462694	0.756001	0.000045
 186	1.8407e+01	1.8379	-10.885822	0.000442	4.421751	0.749065	0.000044
 187	1.8507e+01	1.8472	-10.845088	0.000409	4.094214	0.693579	0.000041
 188	1.8607e+01	1.8578	-10.801502	0.000438	4.380809	0.742129	0.000044
 189	1.8706e+01	1.8679	-10.757917	0.000438	4.380809	0.742129	0.000044
 190	1.8805e+01	1.8789	-10.713924	0.000442	4.421751	0.749065	0.000044
 191	1.8905e+01	1.8872	-10.671153	0.000430	4.298925	0.728258	0.000043
 192	1.9005e+01	1.8948	-10.624716	0.000467	4.667404	0.790680	0.000047
 193	1.9104e+01	1.9046	-10.581945	0.000430	4.298925	0.728258	0.000043
 194	1.9203e+01	1.9163	-10.537952	0.000442	4.421751	0.749065	0.000044
 195	1.9303e+01	1.9265	-10.491107	0.000471	4.708346	0.797615	0.000047
 196	1.9402e+01	1.9366	-10.445892	0.000454	4.544578	0.769872	0.000045
 197	1.9502e+01	1.9449	-10.396197	0.000499	4.994941	0.846166	0.000050
 198	1.9602e+01	1.9566	-10.353833	0.000426	4.257983	0.721322	0.000043
 199	1.9701e+01	1.9642	-10.306989	0.000471	4.708346	0.797615	0.000047
 200	1.9800e+01	1.9744	-10.264218	0.000430	4.298925	0.728258	0.000043
 201	1.9900e+01	1.9850	-10.216966	0.000475	4.749289	0.804551	0.000047
 202	2.0000e+01	1.9946	-10.169307	0.000479	4.790231	0.811487	0.000048
 203	2.0099e+01	2.0055	-10.122055	0.000475	4.749289	0.804551	0.000047
 204	2.0198e+01	2.0158	-10.078877	0.000434	4.339867	0.735193	0.000043
 205	2.0298e+01	2.0263	-10.035698	0.000434	4.339867	0.735193	0.000043
 206	2.0398e+01	2.0352	-9.990076	0.000459	4.585520	0.776808	0.000046
 207	2.0497e+01	2.0457	-9.943232	0.000471	4.708346	0.797615	0.000047
 208	2.0596e+01	2.0579	-9.896387	0.000471	4.708346	0.797615	0.000047
 209	2.0696e+01	2.0654	-9.854024	0.000426	4.257983	0.721322	0.000043
 210	2.0796e+01	2.0762	-9.805550	0.000487	4.872115	0.825359	0.000049
 211	2.0895e+01	2.0894	-9.755447	0.000504	5.035884	0.853102	0.000050
 212	2.0994e+01	2.0953	-9.709010	0.000467	4.667404	0.790680	0.000047
 213	2.1094e+01	2.1048	-9.665424	0.000438	4.380809	0.742129	0.000044
 214	2.1194e+01	2.1134	-9.616950	0.000487	4.872115	0.825359	0.000049
 215	2.1293e+01	2.1221	-9.568884	0.000483	4.831173	0.818423	0.000048
 216	2.1392e+01	2.1329	-9.523669	0.000454	4.544578	0.769872	0.000045
 217	2.1492e+01	2.1471	-9.480898	0.000430	4.298925	0.728258	0.000043
 218	2.1591e+01	2.1552	-9.431609	0.000495	4.953999	0.839230	0.000050
 219	2.1691e+01	2.1621	-9.386802	0.000450	4.503636	0.762937	0.000045
 220	2.1791e+01	2.1741	-9.339957	0.000471	4.708346	0.797615	0.000047
 221	2.1890e+01	2.1860	-9.294742	0.000454	4.544578	0.769872	0.000045
 222	2.1989e+01	2.1954	-9.253601	0.000414	4.135156	0.700514	0.000041
 223	2.2089e+01	2.2031	-9.201054	0.000528	5.281536	0.894717	0.000053
 224	2.2189e+01	2.2144	-9.155839	0.000454	4.544578	0.769872	0.000045
 225	2.2288e+01	2.2239	-9.109809	0.000463	4.626462	0.783744	0.000046
 226	2.2387e+01	2.2375	-9.065816	0.000442	4.421751	0.749065	0.000044
 227	2.2487e+01	2.2433	-9.018971	0.000471	4.708346	0.797615	0.000047
 228	2.2587e+01	2.2549	-8.969276	0.000499	4.994941	0.846166	0.000050
 229	2.2686e+01	2.2663	-8.926097	0.000434	4.339867	0.735193	0.000043
 230	2.2785e+01	2.2738	-8.877216	0.000491	4.913057	0.832294	0.000049
 231	2.2885e+01	2.2849	-8.829150	0.000483	4.831173	0.818423	0.000048
 232	2.2985e+01	2.2947	-8.788416	0.000409	4.094214	0.693579	0.000041
 233	2.3084e+01	2.3051	-8.741571	0.000471	4.708346	0.797615	0.000047
 234	2.3183e+01	2.3158	-8.695541	0.000463	4.626462	0.783744	0.000046
 235	2.3283e+01	2.3245	-8.645031	0.000508	5.076826	0.860038	0.000051
 236	2.3383e+01	2.3302	-8.597779	0.000475	4.749289	0.804551	0.000047
 237	2.3482e+01	2.3439	-8.555416	0.000426	4.257983	0.721322	0.000043
 238	2.3581e+01	2.3533	-8.507349	0.000483	4.831173	0.818423	0.000048
 239	2.3681e+01	2.3639	-8.460505	0.000471	4.708346	0.797615	0.000047
 240	2.3780e+01	2.3733	-8.410402	0.000504	5.035884	0.853102	0.000050
 241	2.3880e+01	2.3824	-8.365187	0.000454	4.544578	0.769872	0.000045
 242	2.3980e+01	2.3986	-8.317528	0.000479	4.790231	0.811487	0.000048
 243	2.4079e+01	2.4040	-8.267424	0.000504	5.035884	0.853102	0.000050
 244	2.4178e+01	2.4139	-8.220173	0.000475	4.749289	0.804551	0.000047
 245	2.4278e+01	2.4236	-8.176587	0.000438	4.380809	0.742129	0.000044
 246	2.4378e+01	2.4352	-8.129743	0.000471	4.708346	0.797615	0.000047
 247	2.4477e+01	2.4426	-8.079640	0.000504	5.035884	0.853102	0.000050
 248	2.4576e+01	2.4532	-8.035239	0.000446	4.462694	0.756001	0.000045
 249	2.4676e+01	2.4669	-7.989617	0.000459	4.585520	0.776808	0.000046
 250	2.4776e+01	2.4713	-7.941550	0.000483	4.831173	0.818423	0.000048
 251	2.4875e+01	2.4866	-7.891855	0.000499	4.994941	0.846166	0.000050
 252	2.4974e+01	2.4959	-7.851528	0.000405	4.053272	0.686643	0.000041
 253	2.5074e+01	2.5033	-7.799795	0.000520	5.199652	0.880845	0.000052
 254	2.5174e+01	2.5146	-7.754580	0.000454	4.544578	0.769872	0.000045
 255	2.5273e+01	2.5231	-7.706921	0.000479	4.790231	0.811487	0.000048
 256	2.5372e+01	2.5329	-7.659669	0.000475	4.749289	0.804551	0.000047
 257	2.5472e+01	2.5420	-7.611603	0.000483	4.831173	0.818423	0.000048
 258	2.5572e+01	2.5517	-7.567610	0.000442	4.421751	0.749065	0.000044
 259	2.5671e+01	2.5631	-7.515470	0.000524	5.240594	0.887781	0.000052
 260	2.5770e+01	2.5751	-7.471477	0.000442	4.421751	0.749065	0.000044
 261	2.5870e+01	2.5826	-7.420967	0.000508	5.076826	0.860038	0.000051
 262	2.5970e+01	2.5932	-7.375752	0.000454	4.544578	0.769872	0.000045
 263	2.6069e+01	2.6039	-7.330129	0.000459	4.585520	0.776808	0.000046
 264	2.6169e+01	2.6149	-7.285729	0.000446	4.462694	0.756001	0.000045
 265	2.6268e+01	2.6219	-7.236848	0.000491	4.913057	0.832294	0.000049
 266	2.6367e+01	2.6325	-7.189189	0.000479	4.790231	0.811487	0.000048
 267	2.6467e+01	2.6431	-7.148047	0.000414	4.135156	0.700514	0.000041
 268	2.6567e+01	2.6516	-7.100388	0.000479	4.790231	0.811487	0.000048
 269	2.6666e+01	2.6646	-7.052322	0.000483	4.831173	0.818423	0.000048
 270	2.6765e+01	2.6731	-7.006292	0.000463	4.626462	0.783744	0.000046
 271	2.6865e+01	2.6823	-6.961892	0.000446	4.462694	0.756001	0.000045
 272	2.6965e+01	2.6922	-6.916677	0.000454	4.544578	0.769872	0.000045
 273	2.7064e+01	2.6965	-6.866981	0.000499	4.994941	0.846166	0.000050
 274	2.7163e+01	2.7141	-6.823802	0.000434	4.339867	0.735193	0.000043
 275	2.7263e+01	2.7227	-6.775329	0.000487	4.872115	0.825359	0.000049
 276	2.7363e+01	2.7331	-6.733372	0.000422	4.217041	0.714386	0.000042
 277	2.7462e+01	2.7436	-6.688972	0.000446	4.462694	0.756001	0.000045
 278	2.7561e+01	2.7487	-6.646201	0.000430	4.298925	0.728258	0.000043
 279	2.7661e+01	2.7621	-6.602615	0.000438	4.380809	0.742129	0.000044
 280	2.7761e+01	2.7736	-6.559030	0.000438	4.380809	0.742129	0.000044
 281	2.7860e+01	2.7807	-6.513815	0.000454	4.544578	0.769872	0.000045
 282	2.7959e+01	2.7910	-6.470229	0.000438	4.380809	0.742129	0.000044
 283	2.8059e+01	2.8010	-6.428273	0.000422	4.217041	0.714386	0.000042
 284	2.8159e+01	2.8103	-6.385502	0.000430	4.298925	0.728258	0.000043
 285	2.8258e+01	2.8230	-6.341509	0.000442	4.421751	0.749065	0.000044
 286	2.8358e+01	2.8316	-6.298738	0.000430	4.298925	0.728258	0.000043
 287	2.8457e+01	2.8413	-6.255560	0.000434	4.339867	0.735193	0.000043
 288	2.8556e+01	2.8484	-6.213196	0.000426	4.257983	0.721322	0.000043
 289	2.8656e+01	2.8637	-6.171240	0.000422	4.217041	0.714386	0.000042
 290	2.8756e+01	2.8722	-6.130098	0.000414	4.135156	0.700514	0.000041
 291	2.8855e+01	2.8800	-6.087327	0.000430	4.298925	0.728258	0.000043
 292	2.8954e+01	2.8902	-6.044556	0.000430	4.298925	0.728258	0.000043
 293	2.9054e+01	2.8991	-6.003007	0.000418	4.176099	0.707450	0.000042
 294	2.9154e+01	2.9127	-5.963088	0.000401	4.012330	0.679707	0.000040
 295	2.9253e+01	2.9208	-5.921131	0.000422	4.217041	0.714386	0.000042
 296	2.9352e+01	2.9321	-5.883248	0.000381	3.807619	0.645028	0.000038
 297	2.9452e+01	2.9418	-5.837219	0.000463	4.626462	0.783744	0.000046
 298	2.9552e+01	2.9504	-5.795670	0.000418	4.176099	0.707450	0.000042
 299	2.9651e+01	2.9629	-5.756565	0.000393	3.930446	0.665836	0.000039
 300	2.9750e+01	2.9713	-5.712165	0.000446	4.462694	0.756001	0.000045
 301	2.9850e+01	2.9803	-5.668172	0.000442	4.421751	0.749065	0.000044
 302	2.9950e+01	2.9897	-5.628659	0.000397	3.971388	0.672771	0.000040
 303	3.0049e+01	3.0023	-5.585074	0.000438	4.380809	0.742129	0.000044
 304	3.0148e+01	3.0118	-5.543932	0.000414	4.135156	0.700514	0.000041
 305	3.0248e+01	3.0209	-5.504013	0.000401	4.012330	0.679707	0.000040
 306	3.0348e+01	3.0311	-5.464500	0.000397	3.971388	0.672771	0.000040
 307	3.0447e+01	3.0413	-5.424173	0.000405	4.053272	0.686643	0.000041
 308	3.0547e+01	3.0483	-5.378958	0.000454	4.544578	0.769872	0.000045
 309	3.0646e+01	3.0592	-5.338631	0.000405	4.053272	0.686643	0.000041
 310	3.0745e+01	3.0720	-5.297490	0.000414	4.135156	0.700514	0.000041
 311	3.0845e+01	3.0812	-5.258385	0.000393	3.930446	0.665836	0.000039
 312	3.0945e+01	3.0892	-5.215614	0.000430	4.298925	0.728258	0.000043
 313	3.1044e+01	3.1030	-5.178953	0.000368	3.684793	0.624221	0.000037
 314	3.1143e+01	3.1123	-5.136997	0.000422	4.217041	0.714386	0.000042
 315	3.1243e+01	3.1211	-5.096263	0.000409	4.094214	0.693579	0.000041
 316	3.1343e+01	3.1295	-5.053899	0.000426	4.257983	0.721322	0.000043
 317	3.1442e+01	3.1383	-5.016016	0.000381	3.807619	0.645028	0.000038
 318	3.1541e+01	3.1495	-4.971616	0.000446	4.462694	0.756001	0.000045
 319	3.1641e+01	3.1596	-4.932918	0.000389	3.889504	0.658900	0.000039
 320	3.1741e+01	3.1700	-4.893406	0.000397	3.971388	0.672771	0.000040
 321	3.1840e+01	3.1781	-4.851450	0.000422	4.217041	0.714386	0.000042
 322	3.1939e+01	3.1886	-4.813974	0.000377	3.766677	0.638092	0.000038
 323	3.2039e+01	3.1984	-4.773240	0.000409	4.094214	0.693579	0.000041
 324	3.2139e+01	3.2101	-4.735765	0.000377	3.766677	0.638092	0.000038
 325	3.2238e+01	3.2204	-4.694216	0.000418	4.176099	0.707450	0.000042
 326	3.2337e+01	3.2323	-4.657555	0.000368	3.684793	0.624221	0.000037
 327	3.2437e+01	3.2409	-4.620079	0.000377	3.766677	0.638092	0.000038
 328	3.2536e+01	3.2513	-4.583011	0.000373	3.725735	0.631157	0.000037
 329	3.2636e+01	3.2598	-4.544314	0.000389	3.889504	0.658900	0.000039
 330	3.2736e+01	3.2696	-4.504801	0.000397	3.971388	0.672771	0.000040
 331	3.2835e+01	3.2816	-4.460401	0.000446	4.462694	0.756001	0.000045
 332	3.2934e+01	3.2895	-4.423333	0.000373	3.725735	0.631157	0.000037
 333	3.3034e+01	3.2988	-4.386265	0.000373	3.725735	0.631157	0.000037
 334	3.3133e+01	3.3096	-4.348789	0.000377	3.766677	0.638092	0.000038
 335	3.3233e+01	3.3190	-4.307647	0.000414	4.135156	0.700514	0.000041
 336	3.3333e+01	3.3289	-4.271801	0.000360	3.602909	0.610349	0.000036
 337	3.3432e+01	3.3405	-4.234326	0.000377	3.766677	0.638092	0.000038
 338	3.3532e+01	3.3494	-4.194406	0.000401	4.012330	0.679707	0.000040
 339	3.3631e+01	3.3601	-4.158560	0.000360	3.602909	0.610349	0.000036
 340	3.3730e+01	3.3678	-4.118641	0.000401	4.012330	0.679707	0.000040
 341	3.3830e+01	3.3791	-4.083202	0.000356	3.561966	0.603413	0.000036
 342	3.3929e+01	3.3918	-4.047763	0.000356	3.561966	0.603413	0.000036
 343	3.4029e+01	3.3982	-4.007436	0.000405	4.053272	0.686643	0.000041
 344	3.4129e+01	3.4074	-3.973219	0.000344	3.439140	0.582606	0.000034
 345	3.4228e+01	3.4192	-3.932892	0.000405	4.053272	0.686643	0.000041
 346	3.4328e+01	3.4267	-3.894195	0.000389	3.889504	0.658900	0.000039
 347	3.4427e+01	3.4386	-3.855497	0.000389	3.889504	0.658900	0.000039
 348	3.4526e+01	3.4481	-3.817614	0.000381	3.807619	0.645028	0.000038
 349	3.4626e+01	3.4600	-3.775658	0.000422	4.217041	0.714386	0.000042
 350	3.4725e+01	3.4707	-3.737368	0.000385	3.848561	0.651964	0.000038
 351	3.4825e+01	3.4769	-3.698670	0.000389	3.889504	0.658900	0.000039
 352	3.4925e+01	3.4873	-3.660380	0.000385	3.848561	0.651964	0.000038
 353	3.5024e+01	3.4957	-3.621683	0.000389	3.889504	0.658900	0.000039
 354	3.5123e+01	3.5097	-3.583392	0.000385	3.848561	0.651964	0.000038
 355	3.5223e+01	3.5171	-3.548361	0.000352	3.521024	0.596478	0.000035
 356	3.5322e+01	3.5285	-3.511700	0.000368	3.684793	0.624221	0.000037
 357	3.5422e+01	3.5390	-3.470966	0.000409	4.094214	0.693579	0.000041
 358	3.5522e+01	3.5523	-3.431454	0.000397	3.971388	0.672771	0.000040
 359	3.5621e+01	3.5596	-3.391534	0.000401	4.012330	0.679707	0.000040
 360	3.5721e+01	3.5680	-3.351615	0.000401	4.012330	0.679707	0.000040
 361	3.5820e+01	3.5783	-3.313732	0.000381	3.807619	0.645028	0.000038
 362	3.5919e+01	3.5880	-3.271368	0.000426	4.257983	0.721322	0.000043
 363	3.6019e+01	3.5999	-3.231856	0.000397	3.971388	0.672771	0.000040
 364	3.6118e+01	3.6071	-3.191529	0.000405	4.053272	0.686643	0.000041
 365	3.6218e+01	3.6192	-3.149573	0.000422	4.217041	0.714386	0.000042
 366	3.6318e+01	3.6260	-3.111282	0.000385	3.848561	0.651964	0.000038
 367	3.6417e+01	3.6359	-3.072178	0.000393	3.930446	0.665836	0.000039
 368	3.6517e+01	3.6468	-3.029407	0.000430	4.298925	0.728258	0.000043
 369	3.6616e+01	3.6568	-2.986228	0.000434	4.339867	0.735193	0.000043
 370	3.6715e+01	3.6691	-2.953233	0.000332	3.316314	0.561799	0.000033
 371	3.6815e+01	3.6792	-2.908426	0.000450	4.503636	0.762937	0.000045
 372	3.6914e+01	3.6906	-2.870543	0.000381	3.807619	0.645028	0.000038
 373	3.7014e+01	3.6975	-2.829809	0.000409	4.094214	0.693579	0.000041
 374	3.7114e+01	3.7059	-2.787445	0.000426	4.257983	0.721322	0.000043
 375	3.7213e+01	3.7176	-2.748340	0.000393	3.930446	0.665836	0.000039
 376	3.7313e+01	3.7283	-2.705162	0.000434	4.339867	0.735193	0.000043
 377	3.7412e+01	3.7362	-2.666872	0.000385	3.848561	0.651964	0.000038
 378	3.7511e+01	3.7473	-2.626545	0.000405	4.053272	0.686643	0.000041
 379	3.7611e+01	3.7577	-2.581330	0.000454	4.544578	0.769872	0.000045
 380	3.7711e+01	3.7678	-2.542225	0.000393	3.930446	0.665836	0.000039
 381	3.7810e+01	3.7778	-2.501491	0.000409	4.094214	0.693579	0.000041
 382	3.7910e+01	3.7856	-2.461571	0.000401	4.012330	0.679707	0.000040
 383	3.8009e+01	3.7948	-2.418800	0.000430	4.298925	0.728258	0.000043
 384	3.8108e+01	3.8071	-2.377251	0.000418	4.176099	0.707450	0.000042
 385	3.8208e+01	3.8165	-2.340183	0.000373	3.725735	0.631157	0.000037
 386	3.8307e+01	3.8291	-2.296190	0.000442	4.421751	0.749065	0.000044
 387	3.8407e+01	3.8357	-2.257900	0.000385	3.848561	0.651964	0.000038
 388	3.8507e+01	3.8465	-2.217980	0.000401	4.012330	0.679707	0.000040
 389	3.8606e+01	3.8576	-2.173987	0.000442	4.421751	0.749065	0.000044
 390	3.8706e+01	3.8663	-2.135290	0.000389	3.889504	0.658900	0.000039
 391	3.8805e+01	3.8761	-2.094555	0.000409	4.094214	0.693579	0.000041
 392	3.8904e+01	3.8866	-2.051784	0.000430	4.298925	0.728258	0.000043
 393	3.9004e+01	3.8958	-2.015938	0.000360	3.602909	0.610349	0.000036
 394	3.9103e+01	3.9050	-1.971131	0.000450	4.503636	0.762937	0.000045
 395	3.9203e+01	3.9173	-1.929174	0.000422	4.217041	0.714386	0.000042
 396	3.9303e+01	3.9258	-1.885589	0.000438	4.380809	0.742129	0.000044
 397	3.9402e+01	3.9346	-1.845262	0.000405	4.053272	0.686643	0.000041
 398	3.9502e+01	3.9471	-1.806157	0.000393	3.930446	0.665836	0.000039
 399	3.9601e+01	3.9535	-1.764201	0.000422	4.217041	0.714386	0.000042
 400	3.9700e+01	3.9669	-1.722244	0.000422	4.217041	0.714386	0.000042
 401	3.9800e+01	3.9765	-1.681917	0.000405	4.053272	0.686643	0.000041
 402	3.9900e+01	3.9847	-1.644035	0.000381	3.807619	0.645028	0.000038
 403	3.9999e+01	3.9956	-1.601671	0.000426	4.257983	0.721322	0.000043
 404	4.0099e+01	4.0041	-1.556863	0.000450	4.503636	0.762937	0.000045
 405	4.0198e+01	4.0154	-1.520610	0.000364	3.643851	0.617285	0.000036
 406	4.0297e+01	4.0268	-1.477431	0.000434	4.339867	0.735193	0.000043
 407	4.0397e+01	4.0327	-1.434253	0.000434	4.339867	0.735193	0.000043
 408	4.0496e+01	4.0453	-1.395148	0.000393	3.930446	0.665836	0.000039
 409	4.0596e+01	4.0554	-1.354414	0.000409	4.094214	0.693579	0.000041
 410	4.0696e+01	4.0653	-1.309199	0.000454	4.544578	0.769872	0.000045
 411	4.0795e+01	4.0787	-1.265613	0.000438	4.380809	0.742129	0.000044
 412	4.0895e+01	4.0847	-1.226101	0.000397	3.971388	0.672771	0.000040
 413	4.0994e+01	4.0958	-1.179664	0.000467	4.667404	0.790680	0.000047
 414	4.1093e+01	4.1047	-1.141374	0.000385	3.848561	0.651964	0.000038
 415	4.1193e+01	4.1177	-1.099010	0.000426	4.257983	0.721322	0.000043
 416	4.1292e+01	4.1266	-1.057461	0.000418	4.176099	0.707450	0.000042
 417	4.1392e+01	4.1387	-1.017134	0.000405	4.053272	0.686643	0.000041
 418	4.1492e+01	4.1447	-0.976400	0.000409	4.094214	0.693579	0.000041
 419	4.1591e+01	4.1543	-0.934036	0.000426	4.257983	0.721322	0.000043
 420	4.1691e+01	4.1662	-0.893302	0.000409	4.094214	0.693579	0.000041
 421	4.1790e+01	4.1726	-0.849717	0.000438	4.380809	0.742129	0.000044
 422	4.1889e+01	4.1850	-0.811426	0.000385	3.848561	0.651964	0.000038
 423	4.1989e+01	4.1947	-0.764175	0.000475	4.749289	0.804551	0.000047
 424	4.2089e+01	4.2072	-0.724255	0.000401	4.012330	0.679707	0.000040
 425	4.2188e+01	4.2156	-0.683113	0.000414	4.135156	0.700514	0.000041
 426	4.2288e+01	4.2238	-0.637491	0.000459	4.585520	0.776808	0.000046
 427	4.2387e+01	4.2352	-0.595535	0.000422	4.217041	0.714386	0.000042
 428	4.2486e+01	4.2489	-0.560503	0.000352	3.521024	0.596478	0.000035
 429	4.2586e+01	4.2547	-0.512030	0.000487	4.872115	0.825359	0.000049
 430	4.2685e+01	4.2634	-0.471295	0.000409	4.094214	0.693579	0.000041
 431	4.2785e+01	4.2766	-0.430154	0.000414	4.135156	0.700514	0.000041
 432	4.2885e+01	4.2855	-0.390642	0.000397	3.971388	0.672771	0.000040
 433	4.2984e+01	4.2932	-0.349500	0.000414	4.135156	0.700514	0.000041
 434	4.3084e+01	4.3060	-0.313246	0.000364	3.643851	0.617285	0.000036
 435	4.3183e+01	4.3145	-0.271290	0.000422	4.217041	0.714386	0.000042
 436	4.3282e+01	4.3230	-0.230149	0.000414	4.135156	0.700514	0.000041
 437	4.3382e+01	4.3344	-0.184934	0.000454	4.544578	0.769872	0.000045
 438	4.3481e+01	4.3429	-0.143385	0.000418	4.176099	0.707450	0.000042
 439	4.3581e+01	4.3511	-0.105094	0.000385	3.848561	0.651964	0.000038
 440	4.3681e+01	4.3645	-0.064360	0.000409	4.094214	0.693579	0.000041
 441	4.3780e+01	4.3716	-0.021589	0.000430	4.298925	0.728258	0.000043
 442	4.3880e+01	4.3858	0.012220	0.000340	3.398198	0.575670	0.000034
 443	4.3979e+01	4.3951	0.054177	0.000422	4.217041	0.714386	0.000042
 444	4.4078e+01	4.4054	0.094911	0.000409	4.094214	0.693579	0.000041
 445	4.4178e+01	4.4152	0.131164	0.000364	3.643851	0.617285	0.000036
 446	4.4278e+01	4.4219	0.174750	0.000438	4.380809	0.742129	0.000044
 447	4.4377e+01	4.4332	0.210189	0.000356	3.561966	0.603413	0.000036
 448	4.4477e+01	4.4450	0.248886	0.000389	3.889504	0.658900	0.000039
 449	4.4576e+01	4.4528	0.285547	0.000368	3.684793	0.624221	0.000037
 450	4.4675e+01	4.4643	0.321801	0.000364	3.643851	0.617285	0.000036
 451	4.4775e+01	4.4741	0.363350	0.000418	4.176099	0.707450	0.000042
 452	4.4874e+01	4.4842	0.398381	0.000352	3.521024	0.596478	0.000035
 453	4.4974e+01	4.4936	0.442781	0.000446	4.462694	0.756001	0.000045
 454	4.5074e+01	4.5015	0.475369	0.000328	3.275371	0.554863	0.000033
 455	4.5173e+01	4.5147	0.515696	0.000405	4.053272	0.686643	0.000041
 456	4.5273e+01	4.5226	0.553171	0.000377	3.766677	0.638092	0.000038
 457	4.5372e+01	4.5342	0.589832	0.000368	3.684793	0.624221	0.000037
 458	4.5471e+01	4.5441	0.629344	0.000397	3.971388	0.672771	0.000040
 459	4.5571e+01	4.5544	0.663154	0.000340	3.398198	0.575670	0.000034
 460	4.5670e+01	4.5628	0.697778	0.000348	3.480082	0.589542	0.000035
 461	4.5770e+01	4.5747	0.736475	0.000389	3.889504	0.658900	0.000039
 462	4.5870e+01	4.5840	0.769470	0.000332	3.316314	0.561799	0.000033
 463	4.5969e+01	4.5946	0.807353	0.000381	3.807619	0.645028	0.000038
 464	4.6069e+01	4.6023	0.845236	0.000381	3.807619	0.645028	0.000038
 465	4.6168e+01	4.6164	0.879860	0.000348	3.480082	0.589542	0.000035
 466	4.6267e+01	4.6227	0.914891	0.000352	3.521024	0.596478	0.000035
 467	4.6367e+01	4.6329	0.953182	0.000385	3.848561	0.651964	0.000038
 468	4.6467e+01	4.6462	0.988213	0.000352	3.521024	0.596478	0.000035
 469	4.6566e+01	4.6539	1.028133	0.000401	4.012330	0.679707	0.000040
 470	4.6666e+01	4.6600	1.060313	0.000323	3.234429	0.547927	0.000032
 471	4.6765e+01	4.6737	1.102269	0.000422	4.217041	0.714386	0.000042
 472	4.6864e+01	4.6838	1.134449	0.000323	3.234429	0.547927	0.000032
 473	4.6964e+01	4.6917	1.173554	0.000393	3.930446	0.665836	0.000039
 474	4.7063e+01	4.7033	1.206956	0.000336	3.357256	0.568735	0.000034
 475	4.7163e+01	4.7115	1.247283	0.000405	4.053272	0.686643	0.000041
 476	4.7263e+01	4.7231	1.279463	0.000323	3.234429	0.547927	0.000032
 477	4.7362e+01	4.7340	1.313680	0.000344	3.439140	0.582606	0.000034
 478	4.7462e+01	4.7423	1.350748	0.000373	3.725735	0.631157	0.000037
 479	4.7561e+01	4.7505	1.387816	0.000373	3.725735	0.631157	0.000037
 480	4.7660e+01	4.7608	1.419181	0.000315	3.152545	0.534056	0.000032
 481	4.7760e+01	4.7707	1.455435	0.000364	3.643851	0.617285	0.000036
 482	4.7859e+01	4.7820	1.490059	0.000348	3.480082	0.589542	0.000035
 483	4.7959e+01	4.7911	1.529164	0.000393	3.930446	0.665836	0.000039
 484	4.8059e+01	4.8003	1.565010	0.000360	3.602909	0.610349	0.000036
 485	4.8158e+01	4.8122	1.603300	0.000385	3.848561	0.651964	0.000038
 486	4.8258e+01	4.8226	1.636702	0.000336	3.357256	0.568735	0.000034
 487	4.8357e+01	4.8331	1.671734	0.000352	3.521024	0.596478	0.000035
 488	4.8456e+01	4.8392	1.704729	0.000332	3.316314	0.561799	0.000033
 489	4.8556e+01	4.8528	1.740982	0.000364	3.643851	0.617285	0.000036
 490	4.8656e+01	4.8626	1.778458	0.000377	3.766677	0.638092	0.000038
 491	4.8755e+01	4.8708	1.810638	0.000323	3.234429	0.547927	0.000032
 492	4.8855e+01	4.8812	1.837522	0.000270	2.702181	0.457762	0.000027
 493	4.8954e+01	4.8911	1.875405	0.000381	3.807619	0.645028	0.000038
 494	4.9053e+01	4.9014	1.907993	0.000328	3.275371	0.554863	0.000033
 495	4.9153e+01	4.9122	1.943024	0.000352	3.521024	0.596478	0.000035
 496	4.9252e+01	4.9215	1.977648	0.000348	3.480082	0.589542	0.000035
 497	4.9352e+01	4.9303	2.008199	0.000307	3.070661	0.520184	0.000031
 498	4.9452e+01	4.9415	2.039564	0.000315	3.152545	0.534056	0.000032
 499	4.9551e+01	4.9521	2.080298	0.000409	4.094214	0.693579	0.000041
 500	4.9651e+01	4.9583	2.111664	0.000315	3.152545	0.534056	0.000032
 501	4.9750e+01	4.9702	2.145881	0.000344	3.439140	0.582606	0.000034
 502	4.9849e+01	4.9790	2.180505	0.000348	3.480082	0.589542	0.000035
 503	4.9949e+01	4.9915	2.213092	0.000328	3.275371	0.554863	0.000033
 504	5.0048e+01	4.9993	2.245272	0.000323	3.234429	0.547927	0.000032
 505	5.0148e+01	5.0109	2.278267	0.000332	3.316314	0.561799	0.000033
 506	5.0248e+01	5.0205	2.308410	0.000303	3.029719	0.513248	0.000030
 507	5.0347e+01	5.0323	2.346700	0.000385	3.848561	0.651964	0.000038
 508	5.0447e+01	5.0393	2.378881	0.000323	3.234429	0.547927	0.000032
 509	5.0546e+01	5.0515	2.410653	0.000319	3.193487	0.540991	0.000032
 510	5.0645e+01	5.0618	2.442019	0.000315	3.152545	0.534056	0.000032
 511	5.0745e+01	5.0704	2.475828	0.000340	3.398198	0.575670	0.000034
 512	5.0844e+01	5.0787	2.504749	0.000291	2.906892	0.492441	0.000029
 513	5.0944e+01	5.0909	2.538966	0.000344	3.439140	0.582606	0.000034
 514	5.1044e+01	5.1017	2.574405	0.000356	3.561966	0.603413	0.000036
 515	5.1143e+01	5.1107	2.605770	0.000315	3.152545	0.534056	0.000032
 516	5.1242e+01	5.1203	2.641209	0.000356	3.561966	0.603413	0.000036
 517	5.1342e+01	5.1285	2.674204	0.000332	3.316314	0.561799	0.000033
 518	5.1441e+01	5.1418	2.708828	0.000348	3.480082	0.589542	0.000035
 519	5.1541e+01	5.1510	2.743859	0.000352	3.521024	0.596478	0.000035
 520	5.1641e+01	5.1611	2.777669	0.000340	3.398198	0.575670	0.000034
 521	5.1740e+01	5.1714	2.807405	0.000299	2.988776	0.506312	0.000030
 522	5.1840e+01	5.1789	2.843658	0.000364	3.643851	0.617285	0.000036
 523	5.1939e+01	5.1891	2.872987	0.000295	2.947834	0.499377	0.000029
 524	5.2038e+01	5.2013	2.913314	0.000405	4.053272	0.686643	0.000041
 525	5.2138e+01	5.2081	2.942235	0.000291	2.906892	0.492441	0.000029
 526	5.2237e+01	5.2178	2.976452	0.000344	3.439140	0.582606	0.000034
 527	5.2337e+01	5.2316	3.011076	0.000348	3.480082	0.589542	0.000035
 528	5.2437e+01	5.2381	3.047737	0.000368	3.684793	0.624221	0.000037
 529	5.2536e+01	5.2474	3.083176	0.000356	3.561966	0.603413	0.000036
 530	5.2636e+01	5.2610	3.115356	0.000323	3.234429	0.547927	0.000032
 531	5.2735e+01	5.2698	3.153646	0.000385	3.848561	0.651964	0.000038
 532	5.2834e+01	5.2783	3.186233	0.000328	3.275371	0.554863	0.000033
 533	5.2934e+01	5.2886	3.226153	0.000401	4.012330	0.679707	0.000040
 534	5.3033e+01	5.2981	3.261592	0.000356	3.561966	0.603413	0.000036
 535	5.3133e+01	5.3082	3.297031	0.000356	3.561966	0.603413	0.000036
 536	5.3233e+01	5.3201	3.330840	0.000340	3.398198	0.575670	0.000034
 537	5.3332e+01	5.3317	3.367501	0.000368	3.684793	0.624221	0.000037
 538	5.3431e+01	5.3407	3.401310	0.000340	3.398198	0.575670	0.000034
 539	5.3531e+01	5.3488	3.438378	0.000373	3.725735	0.631157	0.000037
 540	5.3630e+01	5.3588	3.470966	0.000328	3.275371	0.554863	0.000033
 541	5.3730e+01	5.3675	3.511293	0.000405	4.053272	0.686643	0.000041
 542	5.3830e+01	5.3816	3.542658	0.000315	3.152545	0.534056	0.000032
 543	5.3929e+01	5.3893	3.579726	0.000373	3.725735	0.631157	0.000037
 544	5.4029e+01	5.3979	3.617609	0.000381	3.807619	0.645028	0.000038
 545	5.4128e+01	5.4101	3.656714	0.000393	3.930446	0.665836	0.000039
 546	5.4227e+01	5.4192	3.688079	0.000315	3.152545	0.534056	0.000032
 547	5.4327e+01	5.4292	3.727592	0.000397	3.971388	0.672771	0.000040
 548	5.4426e+01	5.4397	3.763438	0.000360	3.602909	0.610349	0.000036
 549	5.4526e+01	5.4488	3.799691	0.000364	3.643851	0.617285	0.000036
 550	5.4626e+01	5.4591	3.833908	0.000344	3.439140	0.582606	0.000034
 551	5.4725e+01	5.4704	3.871384	0.000377	3.766677	0.638092	0.000038
 552	5.4825e+01	5.4765	3.908452	0.000373	3.725735	0.631157	0.000037
 553	5.4924e+01	5.4913	3.940225	0.000319	3.193487	0.540991	0.000032
 554	5.5023e+01	5.5003	3.978922	0.000389	3.889504	0.658900	0.000039
 555	5.5123e+01	5.5099	4.014768	0.000360	3.602909	0.610349	0.000036
 556	5.5222e+01	5.5180	4.050614	0.000360	3.602909	0.610349	0.000036
 557	5.5322e+01	5.5306	4.088905	0.000385	3.848561	0.651964	0.000038
 558	5.5422e+01	5.5376	4.121899	0.000332	3.316314	0.561799	0.000033
 559	5.5521e+01	5.5474	4.163448	0.000418	4.176099	0.707450	0.000042
 560	5.5620e+01	5.5572	4.196850	0.000336	3.357256	0.568735	0.000034
 561	5.5720e+01	5.5679	4.231882	0.000352	3.521024	0.596478	0.000035
 562	5.5819e+01	5.5778	4.272209	0.000405	4.053272	0.686643	0.000041
 563	5.5919e+01	5.5917	4.306018	0.000340	3.398198	0.575670	0.000034
 564	5.6019e+01	5.5975	4.345123	0.000393	3.930446	0.665836	0.000039
 565	5.6118e+01	5.6057	4.380969	0.000360	3.602909	0.610349	0.000036
 566	5.6218e+01	5.6178	4.414779	0.000340	3.398198	0.575670	0.000034
 567	5.6317e+01	5.6290	4.453476	0.000389	3.889504	0.658900	0.000039
 568	5.6416e+01	5.6355	4.488508	0.000352	3.521024	0.596478	0.000035
 569	5.6516e+01	5.6463	4.523132	0.000348	3.480082	0.589542	0.000035
 570	5.6615e+01	5.6567	4.562644	0.000397	3.971388	0.672771	0.000040
 571	5.6715e+01	5.6681	4.594417	0.000319	3.193487	0.540991	0.000032
 572	5.6815e+01	5.6780	4.635966	0.000418	4.176099	0.707450	0.000042
 573	5.6914e+01	5.6853	4.670182	0.000344	3.439140	0.582606	0.000034
 574	5.7014e+01	5.6976	4.707658	0.000377	3.766677	0.638092	0.000038
 575	5.7113e+01	5.7097	4.742282	0.000348	3.480082	0.589542	0.000035
 576	5.7212e+01	5.7178	4.780980	0.000389	3.889504	0.658900	0.000039
 577	5.7312e+01	5.7288	4.822121	0.000414	4.135156	0.700514	0.000041
 578	5.7411e+01	5.7369	4.857967	0.000360	3.602909	0.610349	0.000036
 579	5.7511e+01	5.7478	4.895850	0.000381	3.807619	0.645028	0.000038
 580	5.7611e+01	5.7583	4.933326	0.000377	3.766677	0.638092	0.000038
 581	5.7710e+01	5.7686	4.975282	0.000422	4.217041	0.714386	0.000042
 582	5.7809e+01	5.7768	5.010313	0.000352	3.521024	0.596478	0.000035
 583	5.7909e+01	5.7879	5.042493	0.000323	3.234429	0.547927	0.000032
 584	5.8008e+01	5.7973	5.082820	0.000405	4.053272	0.686643	0.000041
 585	5.8108e+01	5.8092	5.119481	0.000368	3.684793	0.624221	0.000037
 586	5.8208e+01	5.8177	5.154513	0.000352	3.521024	0.596478	0.000035
 587	5.8307e+01	5.8266	5.192803	0.000385	3.848561	0.651964	0.000038
 588	5.8407e+01	5.8375	5.228649	0.000360	3.602909	0.610349	0.000036
 589	5.8506e+01	5.8453	5.271420	0.000430	4.298925	0.728258	0.000043
 590	5.8605e+01	5.8569	5.304007	0.000328	3.275371	0.554863	0.000033
 591	5.8705e+01	5.8676	5.345964	0.000422	4.217041	0.714386	0.000042
 592	5.8804e+01	5.8778	5.382217	0.000364	3.643851	0.617285	0.000036
 593	5.8904e+01	5.8869	5.419285	0.000373	3.725735	0.631157	0.000037
 594	5.9004e+01	5.8961	5.457168	0.000381	3.807619	0.645028	0.000038
 595	5.9103e+01	5.9060	5.495051	0.000381	3.807619	0.645028	0.000038
 596	5.9203e+01	5.9153	5.534563	0.000397	3.971388	0.672771	0.000040
 597	5.9302e+01	5.9288	5.569187	0.000348	3.480082	0.589542	0.000035
 598	5.9401e+01	5.9371	5.607885	0.000389	3.889504	0.658900	0.000039
 599	5.9501e+01	5.9449	5.642509	0.000348	3.480082	0.589542	0.000035
 600	5.9600e+01	5.9573	5.680392	0.000381	3.807619	0.645028	0.000038
 601	5.9700e+01	5.9698	5.716238	0.000360	3.602909	0.610349	0.000036
 602	5.9800e+01	5.9776	5.749640	0.000336	3.357256	0.568735	0.000034
 603	5.9899e+01	5.9899	5.787930	0.000385	3.848561	0.651964	0.000038
 604	5.9998e+01	5.9975	5.824591	0.000368	3.684793	0.624221	0.000037
 605	6.0098e+01	6.0043	5.859623	0.000352	3.521024	0.596478	0.000035
 606	6.0197e+01	6.0179	5.899135	0.000397	3.971388	0.672771	0.000040
 607	6.0297e+01	6.0281	5.933759	0.000348	3.480082	0.589542	0.000035
 608	6.0397e+01	6.0320	5.967976	0.000344	3.439140	0.582606	0.000034
 609	6.0496e+01	6.0473	6.005451	0.000377	3.766677	0.638092	0.000038
 610	6.0596e+01	6.0545	6.042112	0.000368	3.684793	0.624221	0.000037
 611	6.0695e+01	6.0645	6.075107	0.000332	3.316314	0.561799	0.000033
 612	6.0794e+01	6.0772	6.111360	0.000364	3.643851	0.617285	0.000036
 613	6.0894e+01	6.0865	6.145170	0.000340	3.398198	0.575670	0.000034
 614	6.0993e+01	6.0945	6.181423	0.000364	3.643851	0.617285	0.000036
 615	6.1093e+01	6.1050	6.216862	0.000356	3.561966	0.603413	0.000036
 616	6.1193e+01	6.1159	6.250671	0.000340	3.398198	0.575670	0.000034
 617	6.1292e+01	6.1260	6.282852	0.000323	3.234429	0.547927	0.000032
 618	6.1392e+01	6.1353	6.317476	0.000348	3.480082	0.589542	0.000035
 619	6.1491e+01	6.1455	6.352100	0.000348	3.480082	0.589542	0.000035
 620	6.1590e+01	6.1555	6.382243	0.000303	3.029719	0.513248	0.000030
 621	6.1690e+01	6.1636	6.417275	0.000352	3.521024	0.596478	0.000035
 622	6.1789e+01	6.1761	6.452306	0.000352	3.521024	0.596478	0.000035
 623	6.1889e+01	6.1842	6.484486	0.000323	3.234429	0.547927	0.000032
 624	6.1989e+01	6.1963	6.517073	0.000328	3.275371	0.554863	0.000033
 625	6.2088e+01	6.2035	6.548032	0.000311	3.111603	0.527120	0.000031
 626	6.2188e+01	6.2139	6.583063	0.000352	3.521024	0.596478	0.000035
 627	6.2287e+01	6.2277	6.618502	0.000356	3.561966	0.603413	0.000036
 628	6.2386e+01	6.2347	6.651497	0.000332	3.316314	0.561799	0.000033
 629	6.2486e+01	6.2476	6.685306	0.000340	3.398198	0.575670	0.000034
 630	6.2586e+01	6.2551	6.713413	0.000283	2.825008	0.478569	0.000028
 631	6.2685e+01	6.2647	6.745593	0.000323	3.234429	0.547927	0.000032
 632	6.2785e+01	6.2746	6.778587	0.000332	3.316314	0.561799	0.000033
 633	6.2884e+01	6.2844	6.811989	0.000336	3.357256	0.568735	0.000034
 634	6.2983e+01	6.2952	6.844984	0.000332	3.316314	0.561799	0.000033
 635	6.3083e+01	6.3051	6.875535	0.000307	3.070661	0.520184	0.000031
 636	6.3182e+01	6.3142	6.909344	0.000340	3.398198	0.575670	0.000034
 637	6.3282e+01	6.3239	6.940710	0.000315	3.152545	0.534056	0.000032
 638	6.3382e+01	6.3357	6.971668	0.000311	3.111603	0.527120	0.000031
 639	6.3481e+01	6.3428	7.003033	0.000315	3.152545	0.534056	0.000032
 640	6.3581e+01	6.3552	7.038879	0.000360	3.602909	0.610349	0.000036
 641	6.3680e+01	6.3657	7.073911	0.000352	3.521024	0.596478	0.000035
 642	6.3779e+01	6.3731	7.099981	0.000262	2.620297	0.443890	0.000026
 643	6.3879e+01	6.3839	7.130531	0.000307	3.070661	0.520184	0.000031
 644	6.3978e+01	6.3940	7.162304	0.000319	3.193487	0.540991	0.000032
 645	6.4078e+01	6.4017	7.191633	0.000295	2.947834	0.499377	0.000029
 646	6.4177e+01	6.4129	7.226257	0.000348	3.480082	0.589542	0.000035
 647	6.4277e+01	6.4229	7.261696	0.000356	3.561966	0.603413	0.000036
 648	6.4376e+01	6.4322	7.290210	0.000287	2.865950	0.485505	0.000029
 649	6.4476e+01	6.4420	7.320760	0.000307	3.070661	0.520184	0.000031
 650	6.4576e+01	6.4541	7.352940	0.000323	3.234429	0.547927	0.000032
 651	6.4675e+01	6.4631	7.385935	0.000332	3.316314	0.561799	0.000033
 652	6.4775e+01	6.4716	7.418523	0.000328	3.275371	0.554863	0.000033
 653	6.4874e+01	6.4828	7.449481	0.000311	3.111603	0.527120	0.000031
 654	6.4974e+01	6.4917	7.481661	0.000323	3.234429	0.547927	0.000032
 655	6.5073e+01	6.5052	7.513841	0.000323	3.234429	0.547927	0.000032
 656	6.5172e+01	6.5151	7.543169	0.000295	2.947834	0.499377	0.000029
 657	6.5272e+01	6.5249	7.574942	0.000319	3.193487	0.540991	0.000032
 658	6.5371e+01	6.5325	7.607122	0.000323	3.234429	0.547927	0.000032
 659	6.5471e+01	6.5431	7.636858	0.000299	2.988776	0.506312	0.000030
 660	6.5570e+01	6.5520	7.663743	0.000270	2.702181	0.457762	0.000027
 661	6.5670e+01	6.5649	7.693071	0.000295	2.947834	0.499377	0.000029
 662	6.5769e+01	6.5739	7.725251	0.000323	3.234429	0.547927	0.000032
 663	6.5869e+01	6.5838	7.751729	0.000266	2.661239	0.450826	0.000027
 664	6.5969e+01	6.5936	7.781465	0.000299	2.988776	0.506312	0.000030
 665	6.6068e+01	6.6035	7.812423	0.000311	3.111603	0.527120	0.000031
 666	6.6168e+01	6.6134	7.842159	0.000299	2.988776	0.506312	0.000030
 667	6.6267e+01	6.6203	7.871895	0.000299	2.988776	0.506312	0.000030
 668	6.6367e+01	6.6296	7.904075	0.000323	3.234429	0.547927	0.000032
 669	6.6466e+01	6.6410	7.935033	0.000311	3.111603	0.527120	0.000031
 670	6.6566e+01	6.6511	7.961510	0.000266	2.661239	0.450826	0.000027
 671	6.6665e+01	6.6627	7.990839	0.000295	2.947834	0.499377	0.000029
 672	6.6764e+01	6.6735	8.025056	0.000344	3.439140	0.582606	0.000034
 673	6.6864e+01	6.6814	8.051533	0.000266	2.661239	0.450826	0.000027
 674	6.6963e+01	6.6920	8.080454	0.000291	2.906892	0.492441	0.000029
 675	6.7063e+01	6.7027	8.110190	0.000299	2.988776	0.506312	0.000030
 676	6.7162e+01	6.7126	8.139926	0.000299	2.988776	0.506312	0.000030
 677	6.7262e+01	6.7193	8.163552	0.000237	2.374644	0.402276	0.000024
 678	6.7362e+01	6.7321	8.197769	0.000344	3.439140	0.582606	0.000034
 679	6.7461e+01	6.7417	8.228727	0.000311	3.111603	0.527120	0.000031
 680	6.7561e+01	6.7506	8.255611	0.000270	2.702181	0.457762	0.000027
 681	6.7660e+01	6.7617	8.286570	0.000311	3.111603	0.527120	0.000031
 682	6.7760e+01	6.7702	8.317935	0.000315	3.152545	0.534056	0.000032
 683	6.7859e+01	6.7805	8.346042	0.000283	2.825008	0.478569	0.000028
 684	6.7959e+01	6.7912	8.375370	0.000295	2.947834	0.499377	0.000029
 685	6.8058e+01	6.8031	8.407958	0.000328	3.275371	0.554863	0.000033
 686	6.8157e+01	6.8098	8.438916	0.000311	3.111603	0.527120	0.000031
 687	6.8257e+01	6.8211	8.465393	0.000266	2.661239	0.450826	0.000027
 688	6.8356e+01	6.8303	8.497573	0.000323	3.234429	0.547927	0.000032
 689	6.8456e+01	6.8385	8.527309	0.000299	2.988776	0.506312	0.000030
 690	6.8555e+01	6.8506	8.555416	0.000283	2.825008	0.478569	0.000028
 691	6.8655e+01	6.8606	8.586374	0.000311	3.111603	0.527120	0.000031
 692	6.8754e+01	6.8712	8.620998	0.000348	3.480082	0.589542	0.000035
 693	6.8854e+01	6.8810	8.650326	0.000295	2.947834	0.499377	0.000029
 694	6.8954e+01	6.8862	8.676804	0.000266	2.661239	0.450826	0.000027
 695	6.9053e+01	6.9024	8.711020	0.000344	3.439140	0.582606	0.000034
 696	6.9153e+01	6.9115	8.741164	0.000303	3.029719	0.513248	0.000030
 697	6.9252e+01	6.9183	8.775788	0.000348	3.480082	0.589542	0.000035
 698	6.9352e+01	6.9304	8.801043	0.000254	2.538413	0.430019	0.000025
 699	6.9451e+01	6.9411	8.838519	0.000377	3.766677	0.638092	0.000038
 700	6.9550e+01	6.9500	8.866218	0.000278	2.784066	0.471634	0.000028
 701	6.9650e+01	6.9582	8.901657	0.000356	3.561966	0.603413	0.000036
 702	6.9749e+01	6.9720	8.932615	0.000311	3.111603	0.527120	0.000031
 703	6.9849e+01	6.9809	8.965202	0.000328	3.275371	0.554863	0.000033
 704	6.9948e+01	6.9935	8.999012	0.000340	3.398198	0.575670	0.000034
 705	7.0048e+01	7.0006	9.029970	0.000311	3.111603	0.527120	0.000031
 706	7.0147e+01	7.0094	9.063779	0.000340	3.398198	0.575670	0.000034
 707	7.0247e+01	7.0162	9.096774	0.000332	3.316314	0.561799	0.000033
 708	7.0347e+01	7.0310	9.128547	0.000319	3.193487	0.540991	0.000032
 709	7.0446e+01	7.0434	9.162356	0.000340	3.398198	0.575670	0.000034
 710	7.0546e+01	7.0528	9.194536	0.000323	3.234429	0.547927	0.000032
 711	7.0645e+01	7.0599	9.225494	0.000311	3.111603	0.527120	0.000031
 712	7.0745e+01	7.0715	9.258082	0.000328	3.275371	0.554863	0.000033
 713	7.0844e+01	7.0790	9.293928	0.000360	3.602909	0.610349	0.000036
 714	7.0944e+01	7.0904	9.322849	0.000291	2.906892	0.492441	0.000029
 715	7.1043e+01	7.1008	9.360324	0.000377	3.766677	0.638092	0.000038
 716	7.1142e+01	7.1076	9.394541	0.000344	3.439140	0.582606	0.000034
 717	7.1242e+01	7.1207	9.423463	0.000291	2.906892	0.492441	0.000029
 718	7.1341e+01	7.1291	9.456457	0.000332	3.316314	0.561799	0.000033
 719	7.1441e+01	7.1411	9.489859	0.000336	3.357256	0.568735	0.000034
 720	7.1540e+01	7.1473	9.525706	0.000360	3.602909	0.610349	0.000036
 721	7.1640e+01	7.1589	9.555849	0.000303	3.029719	0.513248	0.000030
 722	7.1740e+01	7.1706	9.590473	0.000348	3.480082	0.589542	0.000035
 723	7.1839e+01	7.1812	9.623875	0.000336	3.357256	0.568735	0.000034
 724	7.1939e+01	7.1876	9.656055	0.000323	3.234429	0.547927	0.000032
 725	7.2038e+01	7.2010	9.689457	0.000336	3.357256	0.568735	0.000034
 726	7.2138e+01	7.2085	9.720823	0.000315	3.152545	0.534056	0.000032
 727	7.2237e+01	7.2198	9.757076	0.000364	3.643851	0.617285	0.000036
 728	7.2337e+01	7.2278	9.788849	0.000319	3.193487	0.540991	0.000032
 729	7.2436e+01	7.2395	9.823880	0.000352	3.521024	0.596478	0.000035
 730	7.2535e+01	7.2469	9.859726	0.000360	3.602909	0.610349	0.000036
 731	7.2635e+01	7.2576	9.894351	0.000348	3.480082	0.589542	0.000035
 732	7.2734e+01	7.2684	9.926938	0.000328	3.275371	0.554863	0.000033
 733	7.2834e+01	7.2770	9.955452	0.000287	2.865950	0.485505	0.000029
 734	7.2933e+01	7.2883	9.994150	0.000389	3.889504	0.658900	0.000039
 735	7.3033e+01	7.3003	10.025108	0.000311	3.111603	0.527120	0.000031
 736	7.3132e+01	7.3083	10.058917	0.000340	3.398198	0.575670	0.000034
 737	7.3232e+01	7.3183	10.092319	0.000336	3.357256	0.568735	0.000034
 738	7.3332e+01	7.3275	10.121240	0.000291	2.906892	0.492441	0.000029
 739	7.3431e+01	7.3382	10.156679	0.000356	3.561966	0.603413	0.000036
 740	7.3531e+01	7.3467	10.192933	0.000364	3.643851	0.617285	0.000036
 741	7.3630e+01	7.3604	10.225113	0.000323	3.234429	0.547927	0.000032
 742	7.3730e+01	7.3687	10.260144	0.000352	3.521024	0.596478	0.000035
 743	7.3829e+01	7.3785	10.293546	0.000336	3.357256	0.568735	0.000034
 744	7.3928e+01	7.3898	10.328170	0.000348	3.480082	0.589542	0.000035
 745	7.4028e+01	7.3985	10.363609	0.000356	3.561966	0.603413	0.000036
 746	7.4127e+01	7.4097	10.400677	0.000373	3.725735	0.631157	0.000037
 747	7.4227e+01	7.4183	10.436931	0.000364	3.643851	0.617285	0.000036
 748	7.4326e+01	7.4264	10.471148	0.000344	3.439140	0.582606	0.000034
 749	7.4426e+01	7.4388	10.509030	0.000381	3.807619	0.645028	0.000038
 750	7.4525e+01	7.4480	10.541618	0.000328	3.275371	0.554863	0.000033
 751	7.4625e+01	7.4583	10.573798	0.000323	3.234429	0.547927	0.000032
 752	7.4725e+01	7.4669	10.609644	0.000360	3.602909	0.610349	0.000036
 753	7.4824e+01	7.4780	10.642639	0.000332	3.316314	0.561799	0.000033
 754	7.4924e+01	7.4885	10.677670	0.000352	3.521024	0.596478	0.000035
 755	7.5023e+01	7.4984	10.712702	0.000352	3.521024	0.596478	0.000035
 756	7.5123e+01	7.5066	10.748548	0.000360	3.602909	0.610349	0.000036
 757	7.5222e+01	7.5161	10.785616	0.000373	3.725735	0.631157	0.000037
 758	7.5322e+01	7.5285	10.820648	0.000352	3.521024	0.596478	0.000035
 759	7.5421e+01	7.5364	10.851606	0.000311	3.111603	0.527120	0.000031
 760	7.5520e+01	7.5506	10.887452	0.000360	3.602909	0.610349	0.000036
 761	7.5620e+01	7.5577	10.927371	0.000401	4.012330	0.679707	0.000040
 762	7.5719e+01	7.5672	10.959551	0.000323	3.234429	0.547927	0.000032
 763	7.5819e+01	7.5774	10.993768	0.000344	3.439140	0.582606	0.000034
 764	7.5918e+01	7.5862	11.025133	0.000315	3.152545	0.534056	0.000032
 765	7.6018e+01	7.5968	11.062609	0.000377	3.766677	0.638092	0.000038
 766	7.6118e+01	7.6070	11.099677	0.000373	3.725735	0.631157	0.000037
 767	7.6217e+01	7.6153	11.131043	0.000315	3.152545	0.534056	0.000032
 768	7.6317e+01	7.6261	11.169333	0.000385	3.848561	0.651964	0.000038
 769	7.6416e+01	7.6349	11.201513	0.000323	3.234429	0.547927	0.000032
 770	7.6516e+01	7.6470	11.235322	0.000340	3.398198	0.575670	0.000034
 771	7.6615e+01	7.6582	11.267910	0.000328	3.275371	0.554863	0.000033
 772	7.6715e+01	7.6696	11.304163	0.000364	3.643851	0.617285	0.000036
 773	7.6814e+01	7.6771	11.337565	0.000336	3.357256	0.568735	0.000034
 774	7.6913e+01	7.6856	11.373004	0.000356	3.561966	0.603413	0.000036
 775	7.7013e+01	7.6972	11.405591	0.000328	3.275371	0.554863	0.000033
 776	7.7112e+01	7.7056	11.445918	0.000405	4.053272	0.686643	0.000041
 777	7.7212e+01	7.7174	11.476876	0.000311	3.111603	0.527120	0.000031
 778	7.7311e+01	7.7267	11.511908	0.000352	3.521024	0.596478	0.000035
 779	7.7411e+01	7.7357	11.542866	0.000311	3.111603	0.527120	0.000031
 780	7.7510e+01	7.7457	11.577897	0.000352	3.521024	0.596478	0.000035
 781	7.7610e+01	7.7578	11.608855	0.000311	3.111603	0.527120	0.000031
 782	7.7710e+01	7.7673	11.641443	0.000328	3.275371	0.554863	0.000033
 783	7.7809e+01	7.7783	11.670364	0.000291	2.906892	0.492441	0.000029
 784	7.7909e+01	7.7863	11.708247	0.000381	3.807619	0.645028	0.000038
 785	7.8008e+01	7.7967	11.735946	0.000278	2.784066	0.471634	0.000028
 786	7.8108e+01	7.8068	11.767312	0.000315	3.152545	0.534056	0.000032
 787	7.8207e+01	7.8174	11.798677	0.000315	3.152545	0.534056	0.000032
 788	7.8306e+01	7.8265	11.830857	0.000323	3.234429	0.547927	0.000032
 789	7.8406e+01	7.8363	11.865074	0.000344	3.439140	0.582606	0.000034
 790	7.8505e+01	7.8452	11.896847	0.000319	3.193487	0.540991	0.000032
 791	7.8605e+01	7.8551	11.926583	0.000299	2.988776	0.506312	0.000030
 792	7.8704e+01	7.8689	11.957948	0.000315	3.152545	0.534056	0.000032
 793	7.8804e+01	7.8760	11.990128	0.000323	3.234429	0.547927	0.000032
 794	7.8903e+01	7.8840	12.022715	0.000328	3.275371	0.554863	0.000033
 795	7.9003e+01	7.8912	12.052044	0.000295	2.947834	0.499377	0.000029
 796	7.9103e+01	7.9063	12.085446	0.000336	3.357256	0.568735	0.000034
 797	7.9202e+01	7.9129	12.116404	0.000311	3.111603	0.527120	0.000031
 798	7.9302e+01	7.9279	12.145326	0.000291	2.906892	0.492441	0.000029
 799	7.9401e+01	7.9365	12.179950	0.000348	3.480082	0.589542	0.000035
 800	7.9501e+01	7.9450	12.208464	0.000287	2.865950	0.485505	0.000029
 801	7.9600e+01	7.9531	12.243088	0.000348	3.480082	0.589542	0.000035
 802	7.9700e+01	7.9654	12.270380	0.000274	2.743124	0.464698	0.000027
 803	7.9799e+01	7.9725	12.298894	0.000287	2.865950	0.485505	0.000029
 804	7.9898e+01	7.9870	12.333110	0.000344	3.439140	0.582606	0.000034
 805	7.9998e+01	7.9956	12.362846	0.000299	2.988776	0.506312	0.000030
 806	8.0097e+01	8.0048	12.396249	0.000336	3.357256	0.568735	0.000034
 807	8.0197e+01	8.0151	12.427614	0.000315	3.152545	0.534056	0.000032
 808	8.0296e+01	8.0275	12.457757	0.000303	3.029719	0.513248	0.000030
 809	8.0396e+01	8.0363	12.485049	0.000274	2.743124	0.464698	0.000027
 810	8.0496e+01	8.0443	12.516007	0.000311	3.111603	0.527120	0.000031
 811	8.0595e+01	8.0528	12.550631	0.000348	3.480082	0.589542	0.000035
 812	8.0695e+01	8.0681	12.580367	0.000299	2.988776	0.506312	0.000030
 813	8.0794e+01	8.0763	12.610511	0.000303	3.029719	0.513248	0.000030
 814	8.0894e+01	8.0850	12.643098	0.000328	3.275371	0.554863	0.000033
 815	8.0993e+01	8.0961	12.672834	0.000299	2.988776	0.506312	0.000030
 816	8.1093e+01	8.1044	12.703792	0.000311	3.111603	0.527120	0.000031
 817	8.1192e+01	8.1161	12.737602	0.000340	3.398198	0.575670	0.000034
 818	8.1291e+01	8.1254	12.766523	0.000291	2.906892	0.492441	0.000029
 819	8.1391e+01	8.1332	12.796259	0.000299	2.988776	0.506312	0.000030
 820	8.1490e+01	8.1458	12.829254	0.000332	3.316314	0.561799	0.000033
 821	8.1590e+01	8.1544	12.858990	0.000299	2.988776	0.506312	0.000030
 822	8.1689e+01	8.1653	12.889133	0.000303	3.029719	0.513248	0.000030
 823	8.1789e+01	8.1735	12.923350	0.000344	3.439140	0.582606	0.000034
 824	8.1888e+01	8.1853	12.953493	0.000303	3.029719	0.513248	0.000030
 825	8.1988e+01	8.1934	12.979563	0.000262	2.620297	0.443890	0.000026
 826	8.2088e+01	8.2053	13.010114	0.000307	3.070661	0.520184	0.000031
 827	8.2187e+01	8.2168	13.040257	0.000303	3.029719	0.513248	0.000030
 828	8.2287e+01	8.2251	13.069993	0.000299	2.988776	0.506312	0.000030
 829	8.2386e+01	8.2344	13.095248	0.000254	2.538413	0.430019	0.000025
 830	8.2486e+01	8.2440	13.125799	0.000307	3.070661	0.520184	0.000031
 831	8.2585e+01	8.2529	13.156350	0.000307	3.070661	0.520184	0.000031
 832	8.2684e+01	8.2632	13.186900	0.000307	3.070661	0.520184	0.000031
 833	8.2784e+01	8.2734	13.215414	0.000287	2.865950	0.485505	0.000029
 834	8.2883e+01	8.2837	13.246372	0.000311	3.111603	0.527120	0.000031
 835	8.2983e+01	8.2952	13.277330	0.000311	3.111603	0.527120	0.000031
 836	8.3082e+01	8.3041	13.306659	0.000295	2.947834	0.499377	0.000029
 837	8.3182e+01	8.3135	13.336802	0.000303	3.029719	0.513248	0.000030
 838	8.3281e+01	8.3255	13.365724	0.000291	2.906892	0.492441	0.000029
 839	8.3381e+01	8.3328	13.392201	0.000266	2.661239	0.450826	0.000027
 840	8.3481e+01	8.3439	13.426010	0.000340	3.398198	0.575670	0.000034
 841	8.3580e+01	8.3525	13.452080	0.000262	2.620297	0.443890	0.000026
 842	8.3680e+01	8.3640	13.482631	0.000307	3.070661	0.520184	0.000031
 843	8.3779e+01	8.3740	13.511960	0.000295	2.947834	0.499377	0.000029
 844	8.3879e+01	8.3840	13.538437	0.000266	2.661239	0.450826	0.000027
 845	8.3978e+01	8.3920	13.570617	0.000323	3.234429	0.547927	0.000032
 846	8.4078e+01	8.4029	13.597909	0.000274	2.743124	0.464698	0.000027
 847	8.4177e+01	8.4132	13.630904	0.000332	3.316314	0.561799	0.000033
 848	8.4276e+01	8.4235	13.661454	0.000307	3.070661	0.520184	0.000031
 849	8.4376e+01	8.4322	13.691190	0.000299	2.988776	0.506312	0.000030
 850	8.4475e+01	8.4439	13.721741	0.000307	3.070661	0.520184	0.000031
 851	8.4575e+01	8.4570	13.748626	0.000270	2.702181	0.457762	0.000027
 852	8.4674e+01	8.4619	13.781213	0.000328	3.275371	0.554863	0.000033
 853	8.4774e+01	8.4724	13.813801	0.000328	3.275371	0.554863	0.000033
 854	8.4874e+01	8.4823	13.846795	0.000332	3.316314	0.561799	0.000033
 855	8.4973e+01	8.4913	13.877346	0.000307	3.070661	0.520184	0.000031
 856	8.5073e+01	8.5037	13.905045	0.000278	2.784066	0.471634	0.000028
 857	8.5172e+01	8.5147	13.939262	0.000344	3.439140	0.582606	0.000034
 858	8.5272e+01	8.5224	13.970627	0.000315	3.152545	0.534056	0.000032
 859	8.5371e+01	8.5377	14.000363	0.000299	2.988776	0.506312	0.000030
 860	8.5471e+01	8.5429	14.034173	0.000340	3.398198	0.575670	0.000034
 861	8.5570e+01	8.5510	14.066760	0.000328	3.275371	0.554863	0.000033
 862	8.5669e+01	8.5639	14.096496	0.000299	2.988776	0.506312	0.000030
 863	8.5769e+01	8.5703	14.127862	0.000315	3.152545	0.534056	0.000032
 864	8.5868e+01	8.5827	14.160449	0.000328	3.275371	0.554863	0.000033
 865	8.5968e+01	8.5924	14.193851	0.000336	3.357256	0.568735	0.000034
 866	8.6067e+01	8.6022	14.225624	0.000319	3.193487	0.540991	0.000032
 867	8.6167e+01	8.6105	14.261470	0.000360	3.602909	0.610349	0.000036
 868	8.6266e+01	8.6221	14.300168	0.000389	3.889504	0.658900	0.000039
 869	8.6366e+01	8.6304	14.329496	0.000295	2.947834	0.499377	0.000029
 870	8.6466e+01	8.6435	14.366157	0.000368	3.684793	0.624221	0.000037
 871	8.6565e+01	8.6538	14.396708	0.000307	3.070661	0.520184	0.000031
 872	8.6665e+01	8.6624	14.432147	0.000356	3.561966	0.603413	0.000036
 873	8.6764e+01	8.6710	14.468807	0.000368	3.684793	0.624221	0.000037
 874	8.6864e+01	8.6851	14.502210	0.000336	3.357256	0.568735	0.000034
 875	8.6963e+01	8.6917	14.534390	0.000323	3.234429	0.547927	0.000032
 876	8.7063e+01	8.6988	14.568199	0.000340	3.398198	0.575670	0.000034
 877	8.7162e+01	8.7119	14.602823	0.000348	3.480082	0.589542	0.000035
 878	8.7261e+01	8.7225	14.635818	0.000332	3.316314	0.561799	0.000033
 879	8.7361e+01	8.7329	14.671257	0.000356	3.561966	0.603413	0.000036
 880	8.7460e+01	8.7436	14.707918	0.000368	3.684793	0.624221	0.000037
 881	8.7560e+01	8.7502	14.745393	0.000377	3.766677	0.638092	0.000038
 882	8.7659e+01	8.7625	14.777980	0.000328	3.275371	0.554863	0.000033
 883	8.7759e+01	8.7720	14.814234	0.000364	3.643851	0.617285	0.000036
 884	8.7859e+01	8.7809	14.854153	0.000401	4.012330	0.679707	0.000040
 885	8.7958e+01	8.7926	14.886741	0.000328	3.275371	0.554863	0.000033
 886	8.8058e+01	8.8017	14.922994	0.000364	3.643851	0.617285	0.000036
 887	8.8157e+01	8.8123	14.960063	0.000373	3.725735	0.631157	0.000037
 888	8.8257e+01	8.8229	14.990613	0.000307	3.070661	0.520184	0.000031
 889	8.8356e+01	8.8295	15.032570	0.000422	4.217041	0.714386	0.000042
 890	8.8456e+01	8.8399	15.066379	0.000340	3.398198	0.575670	0.000034
 891	8.8555e+01	8.8519	15.101818	0.000356	3.561966	0.603413	0.000036
 892	8.8654e+01	8.8645	15.138071	0.000364	3.643851	0.617285	0.000036
 893	8.8754e+01	8.8712	15.171473	0.000336	3.357256	0.568735	0.000034
 894	8.8853e+01	8.8794	15.209764	0.000385	3.848561	0.651964	0.000038
 895	8.8953e+01	8.8905	15.249276	0.000397	3.971388	0.672771	0.000040
 896	8.9052e+01	8.9022	15.282678	0.000336	3.357256	0.568735	0.000034
 897	8.9152e+01	8.9114	15.321375	0.000389	3.889504	0.658900	0.000039
 898	8.9251e+01	8.9182	15.360073	0.000389	3.889504	0.658900	0.000039
 899	8.9351e+01	8.9307	15.397548	0.000377	3.766677	0.638092	0.000038
 900	8.9451e+01	8.9414	15.436246	0.000389	3.889504	0.658900	0.000039
 901	8.9550e+01	8.9503	15.473314	0.000373	3.725735	0.631157	0.000037
 902	8.9650e+01	8.9590	15.506309	0.000332	3.316314	0.561799	0.000033
 903	8.9749e+01	8.9700	15.545414	0.000393	3.930446	0.665836	0.000039
 904	8.9849e+01	8.9795	15.585333	0.000401	4.012330	0.679707	0.000040
 905	8.9948e+01	8.9916	15.622809	0.000377	3.766677	0.638092	0.000038
 906	9.0047e+01	9.0006	15.659877	0.000373	3.725735	0.631157	0.000037
 907	9.0147e+01	9.0083	15.692872	0.000332	3.316314	0.561799	0.000033
 908	9.0246e+01	9.0205	15.731569	0.000389	3.889504	0.658900	0.000039
 909	9.0346e+01	9.0292	15.777192	0.000459	4.585520	0.776808	0.000046
 910	9.0445e+01	9.0411	15.812631	0.000356	3.561966	0.603413	0.000036
 911	9.0545e+01	9.0504	15.851328	0.000389	3.889504	0.658900	0.000039
 912	9.0644e+01	9.0586	15.889618	0.000385	3.848561	0.651964	0.000038
 913	9.0744e+01	9.0693	15.930760	0.000414	4.135156	0.700514	0.000041
 914	9.0844e+01	9.0781	15.971494	0.000409	4.094214	0.693579	0.000041
 915	9.0943e+01	9.0955	16.013450	0.000422	4.217041	0.714386	0.000042
 916	9.1043e+01	9.1031	16.047667	0.000344	3.439140	0.582606	0.000034
 917	9.1142e+01	9.1075	16.089216	0.000418	4.176099	0.707450	0.000042
 918	9.1242e+01	9.1216	16.125877	0.000368	3.684793	0.624221	0.000037
 919	9.1341e+01	9.1279	16.169055	0.000434	4.339867	0.735193	0.000043
 920	9.1441e+01	9.1382	16.205309	0.000364	3.643851	0.617285	0.000036
 921	9.1540e+01	9.1492	16.243192	0.000381	3.807619	0.645028	0.000038
 922	9.1639e+01	9.1602	16.287185	0.000442	4.421751	0.749065	0.000044
 923	9.1739e+01	9.1699	16.331178	0.000442	4.421751	0.749065	0.000044
 924	9.1838e+01	9.1805	16.367838	0.000368	3.684793	0.624221	0.000037
 925	9.1938e+01	9.1895	16.411424	0.000438	4.380809	0.742129	0.000044
 926	9.2037e+01	9.1975	16.453788	0.000426	4.257983	0.721322	0.000043
 927	9.2137e+01	9.2078	16.489634	0.000360	3.602909	0.610349	0.000036
 928	9.2237e+01	9.2176	16.536071	0.000467	4.667404	0.790680	0.000047
 929	9.2336e+01	9.2304	16.572324	0.000364	3.643851	0.617285	0.000036
 930	9.2436e+01	9.2368	16.614688	0.000426	4.257983	0.721322	0.000043
 931	9.2535e+01	9.2475	16.654608	0.000401	4.012330	0.679707	0.000040
 932	9.2635e+01	9.2584	16.695749	0.000414	4.135156	0.700514	0.000041
 933	9.2734e+01	9.2670	16.735261	0.000397	3.971388	0.672771	0.000040
 934	9.2834e+01	9.2785	16.780884	0.000459	4.585520	0.776808	0.000046
 935	9.2933e+01	9.2902	16.819174	0.000385	3.848561	0.651964	0.000038
 936	9.3032e+01	9.3006	16.855835	0.000368	3.684793	0.624221	0.000037
 937	9.3132e+01	9.3078	16.899828	0.000442	4.421751	0.749065	0.000044
 938	9.3231e+01	9.3188	16.935267	0.000356	3.561966	0.603413	0.000036
 939	9.3331e+01	9.3280	16.981296	0.000463	4.626462	0.783744	0.000046
 940	9.3430e+01	9.3365	17.016328	0.000352	3.521024	0.596478	0.000035
 941	9.3530e+01	9.3482	17.061135	0.000450	4.503636	0.762937	0.000045
 942	9.3629e+01	9.3574	17.099426	0.000385	3.848561	0.651964	0.000038
 943	9.3729e+01	9.3702	17.140160	0.000409	4.094214	0.693579	0.000041
 944	9.3829e+01	9.3784	17.176413	0.000364	3.643851	0.617285	0.000036
 945	9.3928e+01	9.3867	17.219184	0.000430	4.298925	0.728258	0.000043
 946	9.4028e+01	9.3951	17.259919	0.000409	4.094214	0.693579	0.000041
 947	9.4127e+01	9.4067	17.295765	0.000360	3.602909	0.610349	0.000036
 948	9.4227e+01	9.4177	17.334055	0.000385	3.848561	0.651964	0.000038
 949	9.4326e+01	9.4276	17.373567	0.000397	3.971388	0.672771	0.000040
 950	9.4425e+01	9.4385	17.413894	0.000405	4.053272	0.686643	0.000041
 951	9.4525e+01	9.4485	17.451370	0.000377	3.766677	0.638092	0.000038
 952	9.4624e+01	9.4580	17.493326	0.000422	4.217041	0.714386	0.000042
 953	9.4724e+01	9.4651	17.527543	0.000344	3.439140	0.582606	0.000034
 954	9.4823e+01	9.4762	17.567055	0.000397	3.971388	0.672771	0.000040
 955	9.4923e+01	9.4887	17.607382	0.000405	4.053272	0.686643	0.000041
 956	9.5022e+01	9.4955	17.644450	0.000373	3.725735	0.631157	0.000037
 957	9.5122e+01	9.5060	17.682333	0.000381	3.807619	0.645028	0.000038
 958	9.5222e+01	9.5150	17.723067	0.000409	4.094214	0.693579	0.000041
 959	9.5321e+01	9.5264	17.762987	0.000401	4.012330	0.679707	0.000040
 960	9.5421e+01	9.5362	17.800055	0.000373	3.725735	0.631157	0.000037
 961	9.5520e+01	9.5465	17.839567	0.000397	3.971388	0.672771	0.000040
 962	9.5620e+01	9.5605	17.876228	0.000368	3.684793	0.624221	0.000037
 963	9.5719e+01	9.5683	17.918591	0.000426	4.257983	0.721322	0.000043
 964	9.5819e+01	9.5764	17.956474	0.000381	3.807619	0.645028	0.000038
 965	9.5918e+01	9.5869	17.996394	0.000401	4.012330	0.679707	0.000040
 966	9.6017e+01	9.5988	18.037536	0.000414	4.135156	0.700514	0.000041
 967	9.6117e+01	9.6069	18.076640	0.000393	3.930446	0.665836	0.000039
 968	9.6216e+01	9.6143	18.118189	0.000418	4.176099	0.707450	0.000042
 969	9.6316e+01	9.6255	18.156887	0.000389	3.889504	0.658900	0.000039
 970	9.6415e+01	9.6357	18.197214	0.000405	4.053272	0.686643	0.000041
 971	9.6515e+01	9.6474	18.235097	0.000381	3.807619	0.645028	0.000038
 972	9.6615e+01	9.6558	18.275831	0.000409	4.094214	0.693579	0.000041
 973	9.6714e+01	9.6664	18.314121	0.000385	3.848561	0.651964	0.000038
 974	9.6814e+01	9.6753	18.356077	0.000422	4.217041	0.714386	0.000042
 975	9.6913e+01	9.6862	18.394775	0.000389	3.889504	0.658900	0.000039
 976	9.7013e+01	9.6938	18.432658	0.000381	3.807619	0.645028	0.000038
 977	9.7112e+01	9.7070	18.471763	0.000393	3.930446	0.665836	0.000039
 978	9.7212e+01	9.7168	18.514126	0.000426	4.257983	0.721322	0.000043
 979	9.7311e+01	9.7255	18.554861	0.000409	4.094214	0.693579	0.000041
 980	9.7410e+01	9.7366	18.593151	0.000385	3.848561	0.651964	0.000038
 981	9.7510e+01	9.7472	18.632663	0.000397	3.971388	0.672771	0.000040
 982	9.7609e+01	9.7569	18.673805	0.000414	4.135156	0.700514	0.000041
 983	9.7709e+01	9.7650	18.710058	0.000364	3.643851	0.617285	0.000036
 984	9.7808e+01	9.7758	18.751607	0.000418	4.176099	0.707450	0.000042
 985	9.7908e+01	9.7862	18.789083	0.000377	3.766677	0.638092	0.000038
 986	9.8007e+01	9.7943	18.829002	0.000401	4.012330	0.679707	0.000040
 987	9.8107e+01	9.8055	18.868922	0.000401	4.012330	0.679707	0.000040
 988	9.8207e+01	9.8137	18.911693	0.000430	4.298925	0.728258	0.000043
 989	9.8306e+01	9.8242	18.954871	0.000434	4.339867	0.735193	0.000043
 990	9.8406e+01	9.8344	18.996420	0.000418	4.176099	0.707450	0.000042
 991	9.8505e+01	9.8462	19.035525	0.000393	3.930446	0.665836	0.000039
 992	9.8605e+01	9.8552	19.077481	0.000422	4.217041	0.714386	0.000042
 993	9.8704e+01	9.8657	19.114549	0.000373	3.725735	0.631157	0.000037
 994	9.8803e+01	9.8755	19.152839	0.000385	3.848561	0.651964	0.000038
 995	9.8903e+01	9.8854	19.193166	0.000405	4.053272	0.686643	0.000041
 996	9.9002e+01	9.8951	19.233493	0.000405	4.053272	0.686643	0.000041
 997	9.9102e+01	9.9044	19.270969	0.000377	3.766677	0.638092	0.000038
 998	9.9201e+01	9.9154	19.307630	0.000368	3.684793	0.624221	0.000037
 999	9.9301e+01	9.9268	19.353252	0.000459	4.585520	0.776808	0.000046
1000	9.9400e+01	9.9346	19.390320	0.000373	3.725735	0.631157	0.000037
1001	9.9500e+01	9.9445	19.432684	0.000426	4.257983	0.721322	0.000043
1002	9.9600e+01	9.9539	19.469345	0.000368	3.684793	0.624221	0.000037
1003	9.9699e+01	9.9645	19.515374	0.000463	4.626462	0.783744	0.000046
1004	9.9799e+01	9.9740	19.554887	0.000397	3.971388	0.672771	0.000040
1005	9.9898e+01	9.9871	19.595213	0.000405	4.053272	0.686643	0.000041
1006	9.9998e+01	9.9951	19.636762	0.000418	4.176099	0.707450	0.000042
1007	1.0010e+02	9.9856	19.625764	0.000111	1.105438	0.187266	-0.000011
1008	1.0020e+02	9.9741	19.620469	0.000053	0.532248	0.090165	-0.000005
1009	1.0030e+02	9.9664	19.610692	0.000098	0.982611	0.166459	-0.000010
1010	1.0040e+02	9.9561	19.602546	0.000082	0.818843	0.138716	-0.000008
1011	1.0050e+02	9.9455	19.588289	0.000143	1.432975	0.242753	-0.000014
1012	1.0059e+02	9.9353	19.578105	0.000102	1.023554	0.173395	-0.000010
1013	1.0069e+02	9.9250	19.567107	0.000111	1.105438	0.187266	-0.000011
1014	1.0079e+02	9.9135	19.552442	0.000147	1.473917	0.249688	-0.000015
1015	1.0089e+02	9.9055	19.545518	0.000070	0.696016	0.117908	-0.000007
1016	1.0099e+02	9.8940	19.532890	0.000127	1.269206	0.215009	-0.000013
1017	1.0109e+02	9.8853	19.520262	0.000127	1.269206	0.215009	-0.000013
1018	1.0119e+02	9.8737	19.503154	0.000172	1.719570	0.291303	-0.000017
1019	1.0129e+02	9.8651	19.497044	0.000061	0.614132	0.104037	-0.000006
1020	1.0139e+02	9.8554	19.482787	0.000143	1.432975	0.242753	-0.000014
1021	1.0149e+02	9.8429	19.471789	0.000111	1.105438	0.187266	-0.000011
1022	1.0159e+02	9.8367	19.457532	0.000143	1.432975	0.242753	-0.000014
1023	1.0169e+02	9.8232	19.444497	0.000131	1.310149	0.221945	-0.000013
1024	1.0179e+02	9.8139	19.424130	0.000205	2.047107	0.346789	-0.000020
1025	1.0189e+02	9.8060	19.417205	0.000070	0.696016	0.117908	-0.000007
1026	1.0199e+02	9.7974	19.397652	0.000197	1.965223	0.332918	-0.000020
1027	1.0209e+02	9.7883	19.384617	0.000131	1.310149	0.221945	-0.000013
1028	1.0219e+02	9.7768	19.371175	0.000135	1.351091	0.228881	-0.000014
1029	1.0229e+02	9.7681	19.356103	0.000151	1.514859	0.256624	-0.000015
1030	1.0239e+02	9.7561	19.345920	0.000102	1.023554	0.173395	-0.000010
1031	1.0248e+02	9.7495	19.330033	0.000160	1.596744	0.270496	-0.000016
1032	1.0258e+02	9.7348	19.314147	0.000160	1.596744	0.270496	-0.000016
1033	1.0268e+02	9.7268	19.303149	0.000111	1.105438	0.187266	-0.000011
1034	1.0278e+02	9.7162	19.286448	0.000168	1.678628	0.284367	-0.000017
1035	1.0288e+02	9.7071	19.272598	0.000139	1.392033	0.235817	-0.000014
1036	1.0298e+02	9.6973	19.260785	0.000119	1.187322	0.201138	-0.000012
1037	1.0308e+02	9.6838	19.242455	0.000184	1.842396	0.312110	-0.000018
1038	1.0318e+02	9.6772	19.230642	0.000119	1.187322	0.201138	-0.000012
1039	1.0328e+02	9.6655	19.215978	0.000147	1.473917	0.249688	-0.000015
1040	1.0338e+02	9.6558	19.200091	0.000160	1.596744	0.270496	-0.000016
1041	1.0348e+02	9.6455	19.183797	0.000164	1.637686	0.277431	-0.000016
1042	1.0358e+02	9.6400	19.170355	0.000135	1.351091	0.228881	-0.000014
1043	1.0368e+02	9.6279	19.152839	0.000176	1.760512	0.298239	-0.000018
1044	1.0378e+02	9.6149	19.136138	0.000168	1.678628	0.284367	-0.000017
1045	1.0388e+02	9.6059	19.124325	0.000119	1.187322	0.201138	-0.000012
1046	1.0398e+02	9.5947	19.106402	0.000180	1.801454	0.305175	-0.000018
1047	1.0408e+02	9.5874	19.092145	0.000143	1.432975	0.242753	-0.000014
1048	1.0418e+02	9.5758	19.077481	0.000147	1.473917	0.249688	-0.000015
1049	1.0428e+02	9.5654	19.057929	0.000197	1.965223	0.332918	-0.000020
1050	1.0438e+02	9.5557	19.041228	0.000168	1.678628	0.284367	-0.000017
1051	1.0447e+02	9.5496	19.027785	0.000135	1.351091	0.228881	-0.000014
1052	1.0457e+02	9.5380	19.009455	0.000184	1.842396	0.312110	-0.000018
1053	1.0467e+02	9.5266	18.993568	0.000160	1.596744	0.270496	-0.000016
1054	1.0477e+02	9.5176	18.974831	0.000188	1.883339	0.319046	-0.000019
1055	1.0487e+02	9.5068	18.961796	0.000131	1.310149	0.221945	-0.000013
1056	1.0497e+02	9.4971	18.941836	0.000201	2.006165	0.339854	-0.000020
1057	1.0507e+02	9.4875	18.927172	0.000147	1.473917	0.249688	-0.000015
1058	1.0517e+02	9.4758	18.913322	0.000139	1.392033	0.235817	-0.000014
1059	1.0527e+02	9.4678	18.895399	0.000180	1.801454	0.305175	-0.000018
1060	1.0537e+02	9.4589	18.877883	0.000176	1.760512	0.298239	-0.000018
1061	1.0547e+02	9.4501	18.860775	0.000172	1.719570	0.291303	-0.000017
1062	1.0557e+02	9.4360	18.842852	0.000180	1.801454	0.305175	-0.000018
1063	1.0567e+02	9.4263	18.821670	0.000213	2.128991	0.360661	-0.000021
1064	1.0577e+02	9.4172	18.805784	0.000160	1.596744	0.270496	-0.000016
1065	1.0587e+02	9.4086	18.790712	0.000151	1.514859	0.256624	-0.000015
1066	1.0597e+02	9.3984	18.776455	0.000143	1.432975	0.242753	-0.000014
1067	1.0607e+02	9.3867	18.758532	0.000180	1.801454	0.305175	-0.000018
1068	1.0617e+02	9.3799	18.741016	0.000176	1.760512	0.298239	-0.000018
1069	1.0627e+02	9.3682	18.721871	0.000192	1.924281	0.325982	-0.000019
1070	1.0637e+02	9.3578	18.701911	0.000201	2.006165	0.339854	-0.000020
1071	1.0647e+02	9.3481	18.685618	0.000164	1.637686	0.277431	-0.000016
1072	1.0656e+02	9.3385	18.666065	0.000197	1.965223	0.332918	-0.000020
1073	1.0666e+02	9.3318	18.645291	0.000209	2.088049	0.353725	-0.000021
1074	1.0676e+02	9.3197	18.626960	0.000184	1.842396	0.312110	-0.000018
1075	1.0686e+02	9.3098	18.611481	0.000156	1.555801	0.263560	-0.000016
1076	1.0696e+02	9.2969	18.591521	0.000201	2.006165	0.339854	-0.000020
1077	1.0706e+02	9.2920	18.573598	0.000180	1.801454	0.305175	-0.000018
1078	1.0716e+02	9.2786	18.558119	0.000156	1.555801	0.263560	-0.000016
1079	1.0726e+02	9.2682	18.541418	0.000168	1.678628	0.284367	-0.000017
1080	1.0736e+02	9.2593	18.525532	0.000160	1.596744	0.270496	-0.000016
1081	1.0746e+02	9.2467	18.506794	0.000188	1.883339	0.319046	-0.000019
1082	1.0756e+02	9.2391	18.490500	0.000164	1.637686	0.277431	-0.000016
1083	1.0766e+02	9.2275	18.474614	0.000160	1.596744	0.270496	-0.000016
1084	1.0776e+02	9.2200	18.452618	0.000221	2.210876	0.374532	-0.000022
1085	1.0786e+02	9.2107	18.436731	0.000160	1.596744	0.270496	-0.000016
1086	1.0796e+02	9.2029	18.415549	0.000213	2.128991	0.360661	-0.000021
1087	1.0806e+02	9.1871	18.401700	0.000139	1.392033	0.235817	-0.000014
1088	1.0816e+02	9.1776	18.376852	0.000250	2.497471	0.423083	-0.000025
1089	1.0826e+02	9.1692	18.357707	0.000192	1.924281	0.325982	-0.000019
1090	1.0836e+02	9.1586	18.346301	0.000115	1.146380	0.194202	-0.000011
1091	1.0845e+02	9.1483	18.328378	0.000180	1.801454	0.305175	-0.000018
1092	1.0855e+02	9.1415	18.307196	0.000213	2.128991	0.360661	-0.000021
1093	1.0865e+02	9.1299	18.289273	0.000180	1.801454	0.305175	-0.000018
1094	1.0875e+02	9.1206	18.269313	0.000201	2.006165	0.339854	-0.000020
1095	1.0885e+02	9.1092	18.251798	0.000176	1.760512	0.298239	-0.000018
1096	1.0895e+02	9.0986	18.237948	0.000139	1.392033	0.235817	-0.000014
1097	1.0905e+02	9.0896	18.219618	0.000184	1.842396	0.312110	-0.000018
1098	1.0915e+02	9.0791	18.199658	0.000201	2.006165	0.339854	-0.000020
1099	1.0925e+02	9.0677	18.185808	0.000139	1.392033	0.235817	-0.000014
1100	1.0935e+02	9.0601	18.162997	0.000229	2.292760	0.388404	-0.000023
1101	1.0945e+02	9.0471	18.142630	0.000205	2.047107	0.346789	-0.000020
1102	1.0955e+02	9.0430	18.127966	0.000147	1.473917	0.249688	-0.000015
1103	1.0965e+02	9.0273	18.101896	0.000262	2.620297	0.443890	-0.000026
1104	1.0975e+02	9.0199	18.077048	0.000250	2.497471	0.423083	-0.000025
1105	1.0985e+02	9.0115	18.063605	0.000135	1.351091	0.228881	-0.000014
1106	1.0995e+02	8.9982	18.044868	0.000188	1.883339	0.319046	-0.000019
1107	1.1005e+02	8.9923	18.024501	0.000205	2.047107	0.346789	-0.000020
1108	1.1015e+02	8.9771	18.003726	0.000209	2.088049	0.353725	-0.000021
1109	1.1025e+02	8.9713	17.984174	0.000197	1.965223	0.332918	-0.000020
1110	1.1035e+02	8.9615	17.965843	0.000184	1.842396	0.312110	-0.000018
1111	1.1044e+02	8.9491	17.942625	0.000233	2.333702	0.395340	-0.000023
1112	1.1054e+02	8.9407	17.924294	0.000184	1.842396	0.312110	-0.000018
1113	1.1064e+02	8.9314	17.902705	0.000217	2.169934	0.367597	-0.000022
1114	1.1074e+02	8.9190	17.878265	0.000246	2.456529	0.416147	-0.000025
1115	1.1084e+02	8.9094	17.857897	0.000205	2.047107	0.346789	-0.000020
1116	1.1094e+02	8.9000	17.836308	0.000217	2.169934	0.367597	-0.000022
1117	1.1104e+02	8.8909	17.812275	0.000242	2.415586	0.409211	-0.000024
1118	1.1114e+02	8.8805	17.788649	0.000237	2.374644	0.402276	-0.000024
1119	1.1124e+02	8.8727	17.767467	0.000213	2.128991	0.360661	-0.000021
1120	1.1134e+02	8.8581	17.745471	0.000221	2.210876	0.374532	-0.000022
1121	1.1144e+02	8.8516	17.723882	0.000217	2.169934	0.367597	-0.000022
1122	1.1154e+02	8.8408	17.698627	0.000254	2.538413	0.430019	-0.000025
1123	1.1164e+02	8.8311	17.676223	0.000225	2.251818	0.381468	-0.000023
1124	1.1174e+02	8.8216	17.653004	0.000233	2.333702	0.395340	-0.000023
1125	1.1184e+02	8.8104	17.631415	0.000217	2.169934	0.367597	-0.000022
1126	1.1194e+02	8.8029	17.609011	0.000225	2.251818	0.381468	-0.000023
1127	1.1204e+02	8.7939	17.583349	0.000258	2.579355	0.436955	-0.000026
1128	1.1214e+02	8.7823	17.557279	0.000262	2.620297	0.443890	-0.000026
1129	1.1224e+02	8.7738	17.531209	0.000262	2.620297	0.443890	-0.000026
1130	1.1234e+02	8.7585	17.507990	0.000233	2.333702	0.395340	-0.000023
1131	1.1244e+02	8.7514	17.486401	0.000217	2.169934	0.367597	-0.000022
1132	1.1253e+02	8.7434	17.461553	0.000250	2.497471	0.423083	-0.000025
1133	1.1263e+02	8.7312	17.437520	0.000242	2.415586	0.409211	-0.000024
1134	1.1273e+02	8.7238	17.415116	0.000225	2.251818	0.381468	-0.000023
1135	1.1283e+02	8.7137	17.383343	0.000319	3.193487	0.540991	-0.000032
1136	1.1293e+02	8.7019	17.364606	0.000188	1.883339	0.319046	-0.000019
1137	1.1303e+02	8.6942	17.335277	0.000295	2.947834	0.499377	-0.000029
1138	1.1313e+02	8.6835	17.313280	0.000221	2.210876	0.374532	-0.000022
1139	1.1323e+02	8.6735	17.283952	0.000295	2.947834	0.499377	-0.000029
1140	1.1333e+02	8.6636	17.256660	0.000274	2.743124	0.464698	-0.000027
1141	1.1343e+02	8.6527	17.231405	0.000254	2.538413	0.430019	-0.000025
1142	1.1353e+02	8.6411	17.208593	0.000229	2.292760	0.388404	-0.000023
1143	1.1363e+02	8.6329	17.184560	0.000242	2.415586	0.409211	-0.000024
1144	1.1373e+02	8.6230	17.162971	0.000217	2.169934	0.367597	-0.000022
1145	1.1383e+02	8.6121	17.136901	0.000262	2.620297	0.443890	-0.000026
1146	1.1393e+02	8.6020	17.110424	0.000266	2.661239	0.450826	-0.000027
1147	1.1403e+02	8.5889	17.085169	0.000254	2.538413	0.430019	-0.000025
1148	1.1413e+02	8.5822	17.059506	0.000258	2.579355	0.436955	-0.000026
1149	1.1423e+02	8.5733	17.030992	0.000287	2.865950	0.485505	-0.000029
1150	1.1433e+02	8.5610	17.003700	0.000274	2.743124	0.464698	-0.000027
1151	1.1442e+02	8.5569	16.981296	0.000225	2.251818	0.381468	-0.000023
1152	1.1452e+02	8.5413	16.951560	0.000299	2.988776	0.506312	-0.000030
1153	1.1462e+02	8.5323	16.925083	0.000266	2.661239	0.450826	-0.000027
1154	1.1472e+02	8.5242	16.900235	0.000250	2.497471	0.423083	-0.000025
1155	1.1482e+02	8.5135	16.877424	0.000229	2.292760	0.388404	-0.000023
1156	1.1492e+02	8.5027	16.850132	0.000274	2.743124	0.464698	-0.000027
1157	1.1502e+02	8.4917	16.824877	0.000254	2.538413	0.430019	-0.000025
1158	1.1512e+02	8.4858	16.797177	0.000278	2.784066	0.471634	-0.000028
1159	1.1522e+02	8.4756	16.769478	0.000278	2.784066	0.471634	-0.000028
1160	1.1532e+02	8.4638	16.743816	0.000258	2.579355	0.436955	-0.000026
1161	1.1542e+02	8.4534	16.717746	0.000262	2.620297	0.443890	-0.000026
1162	1.1552e+02	8.4425	16.690454	0.000274	2.743124	0.464698	-0.000027
1163	1.1562e+02	8.4341	16.660718	0.000299	2.988776	0.506312	-0.000030
1164	1.1572e+02	8.4242	16.630574	0.000303	3.029719	0.513248	-0.000030
1165	1.1582e+02	8.4139	16.602875	0.000278	2.784066	0.471634	-0.000028
1166	1.1592e+02	8.4000	16.571917	0.000311	3.111603	0.527120	-0.000031
1167	1.1602e+02	8.3937	16.544218	0.000278	2.784066	0.471634	-0.000028
1168	1.1612e+02	8.3819	16.514482	0.000299	2.988776	0.506312	-0.000030
1169	1.1622e+02	8.3726	16.488819	0.000258	2.579355	0.436955	-0.000026
1170	1.1632e+02	8.3646	16.461527	0.000274	2.743124	0.464698	-0.000027
1171	1.1642e+02	8.3537	16.431791	0.000299	2.988776	0.506312	-0.000030
1172	1.1651e+02	8.3438	16.404907	0.000270	2.702181	0.457762	-0.000027
1173	1.1661e+02	8.3340	16.378837	0.000262	2.620297	0.443890	-0.000026
1174	1.1671e+02	8.3220	16.346249	0.000328	3.275371	0.554863	-0.000033
1175	1.1681e+02	8.3147	16.316921	0.000295	2.947834	0.499377	-0.000029
1176	1.1691e+02	8.3010	16.289629	0.000274	2.743124	0.464698	-0.000027
1177	1.1701e+02	8.2947	16.258671	0.000311	3.111603	0.527120	-0.000031
1178	1.1711e+02	8.2877	16.231786	0.000270	2.702181	0.457762	-0.000027
1179	1.1721e+02	8.2740	16.200828	0.000311	3.111603	0.527120	-0.000031
1180	1.1731e+02	8.2642	16.172314	0.000287	2.865950	0.485505	-0.000029
1181	1.1741e+02	8.2547	16.140949	0.000315	3.152545	0.534056	-0.000032
1182	1.1751e+02	8.2435	16.112435	0.000287	2.865950	0.485505	-0.000029
1183	1.1761e+02	8.2349	16.085957	0.000266	2.661239	0.450826	-0.000027
1184	1.1771e+02	8.2245	16.055814	0.000303	3.029719	0.513248	-0.000030
1185	1.1781e+02	8.2122	16.027707	0.000283	2.825008	0.478569	-0.000028
1186	1.1791e+02	8.2071	16.000008	0.000278	2.784066	0.471634	-0.000028
1187	1.1801e+02	8.1944	15.973123	0.000270	2.702181	0.457762	-0.000027
1188	1.1811e+02	8.1847	15.947461	0.000258	2.579355	0.436955	-0.000026
1189	1.1821e+02	8.1729	15.914873	0.000328	3.275371	0.554863	-0.000033
1190	1.1831e+02	8.1646	15.892062	0.000229	2.292760	0.388404	-0.000023
1191	1.1841e+02	8.1555	15.862326	0.000299	2.988776	0.506312	-0.000030
1192	1.1850e+02	8.1449	15.833405	0.000291	2.906892	0.492441	-0.000029
1193	1.1860e+02	8.1365	15.804484	0.000291	2.906892	0.492441	-0.000029
1194	1.1870e+02	8.1268	15.774748	0.000299	2.988776	0.506312	-0.000030
1195	1.1880e+02	8.1152	15.745419	0.000295	2.947834	0.499377	-0.000029
1196	1.1890e+02	8.1048	15.716090	0.000295	2.947834	0.499377	-0.000029
1197	1.1900e+02	8.0954	15.690428	0.000258	2.579355	0.436955	-0.000026
1198	1.1910e+02	8.0829	15.661914	0.000287	2.865950	0.485505	-0.000029
1199	1.1920e+02	8.0747	15.633807	0.000283	2.825008	0.478569	-0.000028
1200	1.1930e+02	8.0665	15.607330	0.000266	2.661239	0.450826	-0.000027
1201	1.1940e+02	8.0557	15.584111	0.000233	2.333702	0.395340	-0.000023
1202	1.1950e+02	8.0422	15.556819	0.000274	2.743124	0.464698	-0.000027
1203	1.1960e+02	8.0361	15.527898	0.000291	2.906892	0.492441	-0.000029
1204	1.1970e+02	8.0253	15.505902	0.000221	2.210876	0.374532	-0.000022
1205	1.1980e+02	8.0170	15.475351	0.000307	3.070661	0.520184	-0.000031
1206	1.1990e+02	8.0067	15.450503	0.000250	2.497471	0.423083	-0.000025
1207	1.2000e+02	7.9948	15.423618	0.000270	2.702181	0.457762	-0.000027
1208	1.2010e+02	7.9846	15.397141	0.000266	2.661239	0.450826	-0.000027
1209	1.2020e+02	7.9768	15.371886	0.000254	2.538413	0.430019	-0.000025
1210	1.2030e+02	7.9688	15.345001	0.000270	2.702181	0.457762	-0.000027
1211	1.2039e+02	7.9541	15.314858	0.000303	3.029719	0.513248	-0.000030
1212	1.2049e+02	7.9448	15.293676	0.000213	2.128991	0.360661	-0.000021
1213	1.2059e+02	7.9369	15.262311	0.000315	3.152545	0.534056	-0.000032
1214	1.2069e+02	7.9249	15.239500	0.000229	2.292760	0.388404	-0.000023
1215	1.2079e+02	7.9161	15.210171	0.000295	2.947834	0.499377	-0.000029
1216	1.2089e+02	7.9053	15.188582	0.000217	2.169934	0.367597	-0.000022
1217	1.2099e+02	7.8928	15.161697	0.000270	2.702181	0.457762	-0.000027
1218	1.2109e+02	7.8864	15.135220	0.000266	2.661239	0.450826	-0.000027
1219	1.2119e+02	7.8764	15.107521	0.000278	2.784066	0.471634	-0.000028
1220	1.2129e+02	7.8642	15.082265	0.000254	2.538413	0.430019	-0.000025
1221	1.2139e+02	7.8600	15.059861	0.000225	2.251818	0.381468	-0.000023
1222	1.2149e+02	7.8447	15.034606	0.000254	2.538413	0.430019	-0.000025
1223	1.2159e+02	7.8397	15.003241	0.000315	3.152545	0.534056	-0.000032
1224	1.2169e+02	7.8265	14.981652	0.000217	2.169934	0.367597	-0.000022
1225	1.2179e+02	7.8172	14.953952	0.000278	2.784066	0.471634	-0.000028
1226	1.2189e+02	7.8085	14.928290	0.000258	2.579355	0.436955	-0.000026
1227	1.2199e+02	7.7965	14.901405	0.000270	2.702181	0.457762	-0.000027
1228	1.2209e+02	7.7877	14.876150	0.000254	2.538413	0.430019	-0.000025
1229	1.2219e+02	7.7752	14.849265	0.000270	2.702181	0.457762	-0.000027
1230	1.2229e+02	7.7642	14.824825	0.000246	2.456529	0.416147	-0.000025
1231	1.2239e+02	7.7576	14.798755	0.000262	2.620297	0.443890	-0.000026
1232	1.2248e+02	7.7480	14.771870	0.000270	2.702181	0.457762	-0.000027
1233	1.2258e+02	7.7393	14.749874	0.000221	2.210876	0.374532	-0.000022
1234	1.2268e+02	7.7258	14.722174	0.000278	2.784066	0.471634	-0.000028
1235	1.2278e+02	7.7140	14.698549	0.000237	2.374644	0.402276	-0.000024
1236	1.2288e+02	7.7064	14.668405	0.000303	3.029719	0.513248	-0.000030
1237	1.2298e+02	7.6991	14.648038	0.000205	2.047107	0.346789	-0.000020
1238	1.2308e+02	7.6884	14.617895	0.000303	3.029719	0.513248	-0.000030
1239	1.2318e+02	7.6758	14.595084	0.000229	2.292760	0.388404	-0.000023
1240	1.2328e+02	7.6677	14.567384	0.000278	2.784066	0.471634	-0.000028
1241	1.2338e+02	7.6587	14.540907	0.000266	2.661239	0.450826	-0.000027
1242	1.2348e+02	7.6522	14.511986	0.000291	2.906892	0.492441	-0.000029
1243	1.2358e+02	7.6357	14.488360	0.000237	2.374644	0.402276	-0.000024
1244	1.2368e+02	7.6266	14.463919	0.000246	2.456529	0.416147	-0.000025
1245	1.2378e+02	7.6152	14.435813	0.000283	2.825008	0.478569	-0.000028
1246	1.2388e+02	7.6089	14.416260	0.000197	1.965223	0.332918	-0.000020
1247	1.2398e+02	7.5985	14.389783	0.000266	2.661239	0.450826	-0.000027
1248	1.2408e+02	7.5872	14.368601	0.000213	2.128991	0.360661	-0.000021
1249	1.2418e+02	7.5782	14.341717	0.000270	2.702181	0.457762	-0.000027
1250	1.2428e+02	7.5694	14.319720	0.000221	2.210876	0.374532	-0.000022
1251	1.2438e+02	7.5600	14.293243	0.000266	2.661239	0.450826	-0.000027
1252	1.2447e+02	7.5475	14.271654	0.000217	2.169934	0.367597	-0.000022
1253	1.2457e+02	7.5367	14.243140	0.000287	2.865950	0.485505	-0.000029
1254	1.2467e+02	7.5262	14.216662	0.000266	2.661239	0.450826	-0.000027
1255	1.2477e+02	7.5211	14.192629	0.000242	2.415586	0.409211	-0.000024
1256	1.2487e+02	7.5079	14.166967	0.000258	2.579355	0.436955	-0.000026
1257	1.2497e+02	7.4961	14.143341	0.000237	2.374644	0.402276	-0.000024
1258	1.2507e+02	7.4903	14.117678	0.000258	2.579355	0.436955	-0.000026
1259	1.2517e+02	7.4785	14.092423	0.000254	2.538413	0.430019	-0.000025
1260	1.2527e+02	7.4674	14.067982	0.000246	2.456529	0.416147	-0.000025
1261	1.2537e+02	7.4573	14.039876	0.000283	2.825008	0.478569	-0.000028
1262	1.2547e+02	7.4477	14.017065	0.000229	2.292760	0.388404	-0.000023
1263	1.2557e+02	7.4390	13.994661	0.000225	2.251818	0.381468	-0.000023
1264	1.2567e+02	7.4288	13.971035	0.000237	2.374644	0.402276	-0.000024
1265	1.2577e+02	7.4195	13.947816	0.000233	2.333702	0.395340	-0.000023
1266	1.2587e+02	7.4110	13.918488	0.000295	2.947834	0.499377	-0.000029
1267	1.2597e+02	7.3984	13.895269	0.000233	2.333702	0.395340	-0.000023
1268	1.2607e+02	7.3945	13.871643	0.000237	2.374644	0.402276	-0.000024
1269	1.2617e+02	7.3794	13.848832	0.000229	2.292760	0.388404	-0.000023
1270	1.2627e+02	7.3690	13.818689	0.000303	3.029719	0.513248	-0.000030
1271	1.2636e+02	7.3585	13.790582	0.000283	2.825008	0.478569	-0.000028
1272	1.2646e+02	7.3495	13.764919	0.000258	2.579355	0.436955	-0.000026
1273	1.2656e+02	7.3408	13.736406	0.000287	2.865950	0.485505	-0.000029
1274	1.2666e+02	7.3286	13.711150	0.000254	2.538413	0.430019	-0.000025
1275	1.2676e+02	7.3193	13.689561	0.000217	2.169934	0.367597	-0.000022
1276	1.2686e+02	7.3083	13.663491	0.000262	2.620297	0.443890	-0.000026
1277	1.2696e+02	7.2987	13.633755	0.000299	2.988776	0.506312	-0.000030
1278	1.2706e+02	7.2887	13.612981	0.000209	2.088049	0.353725	-0.000021
1279	1.2716e+02	7.2819	13.584467	0.000287	2.865950	0.485505	-0.000029
1280	1.2726e+02	7.2709	13.559212	0.000254	2.538413	0.430019	-0.000025
1281	1.2736e+02	7.2587	13.531512	0.000278	2.784066	0.471634	-0.000028
1282	1.2746e+02	7.2491	13.504220	0.000274	2.743124	0.464698	-0.000027
1283	1.2756e+02	7.2388	13.477336	0.000270	2.702181	0.457762	-0.000027
1284	1.2766e+02	7.2282	13.451266	0.000262	2.620297	0.443890	-0.000026
1285	1.2776e+02	7.2225	13.421122	0.000303	3.029719	0.513248	-0.000030
1286	1.2786e+02	7.2124	13.391794	0.000295	2.947834	0.499377	-0.000029
1287	1.2796e+02	7.1976	13.367761	0.000242	2.415586	0.409211	-0.000024
1288	1.2806e+02	7.1933	13.339247	0.000287	2.865950	0.485505	-0.000029
1289	1.2816e+02	7.1789	13.307066	0.000323	3.234429	0.547927	-0.000032
1290	1.2826e+02	7.1684	13.280182	0.000270	2.702181	0.457762	-0.000027
1291	1.2835e+02	7.1595	13.247594	0.000328	3.275371	0.554863	-0.000033
1292	1.2845e+02	7.1507	13.219080	0.000287	2.865950	0.485505	-0.000029
1293	1.2855e+02	7.1392	13.190567	0.000287	2.865950	0.485505	-0.000029
1294	1.2865e+02	7.1301	13.162867	0.000278	2.784066	0.471634	-0.000028
1295	1.2875e+02	7.1201	13.135168	0.000278	2.784066	0.471634	-0.000028
1296	1.2885e+02	7.1124	13.101766	0.000336	3.357256	0.568735	-0.000034
1297	1.2895e+02	7.1008	13.072030	0.000299	2.988776	0.506312	-0.000030
1298	1.2905e+02	7.0922	13.046367	0.000258	2.579355	0.436955	-0.000026
1299	1.2915e+02	7.0789	13.011743	0.000348	3.480082	0.589542	-0.000035
1300	1.2925e+02	7.0672	12.984451	0.000274	2.743124	0.464698	-0.000027
1301	1.2935e+02	7.0592	12.953086	0.000315	3.152545	0.534056	-0.000032
1302	1.2945e+02	7.0492	12.928238	0.000250	2.497471	0.423083	-0.000025
1303	1.2955e+02	7.0414	12.892799	0.000356	3.561966	0.603413	-0.000036
1304	1.2965e+02	7.0299	12.861434	0.000315	3.152545	0.534056	-0.000032
1305	1.2975e+02	7.0181	12.833734	0.000278	2.784066	0.471634	-0.000028
1306	1.2985e+02	7.0119	12.804406	0.000295	2.947834	0.499377	-0.000029
1307	1.2995e+02	7.0030	12.774670	0.000299	2.988776	0.506312	-0.000030
1308	1.3005e+02	6.9892	12.746156	0.000287	2.865950	0.485505	-0.000029
1309	1.3015e+02	6.9778	12.714383	0.000319	3.193487	0.540991	-0.000032
1310	1.3025e+02	6.9713	12.685869	0.000287	2.865950	0.485505	-0.000029
1311	1.3034e+02	6.9599	12.654911	0.000311	3.111603	0.527120	-0.000031
1312	1.3044e+02	6.9495	12.627212	0.000278	2.784066	0.471634	-0.000028
1313	1.3054e+02	6.9399	12.594624	0.000328	3.275371	0.554863	-0.000033
1314	1.3064e+02	6.9322	12.562444	0.000323	3.234429	0.547927	-0.000032
1315	1.3074e+02	6.9219	12.531894	0.000307	3.070661	0.520184	-0.000031
1316	1.3084e+02	6.9102	12.500121	0.000319	3.193487	0.540991	-0.000032
1317	1.3094e+02	6.9003	12.470385	0.000299	2.988776	0.506312	-0.000030
1318	1.3104e+02	6.8919	12.440649	0.000299	2.988776	0.506312	-0.000030
1319	1.3114e+02	6.8809	12.406432	0.000344	3.439140	0.582606	-0.000034
1320	1.3124e+02	6.8736	12.377918	0.000287	2.865950	0.485505	-0.000029
1321	1.3134e+02	6.8605	12.346145	0.000319	3.193487	0.540991	-0.000032
1322	1.3144e+02	6.8493	12.313558	0.000328	3.275371	0.554863	-0.000033
1323	1.3154e+02	6.8433	12.286673	0.000270	2.702181	0.457762	-0.000027
1324	1.3164e+02	6.8314	12.254901	0.000319	3.193487	0.540991	-0.000032
1325	1.3174e+02	6.8214	12.220684	0.000344	3.439140	0.582606	-0.000034
1326	1.3184e+02	6.8116	12.193799	0.000270	2.702181	0.457762	-0.000027
1327	1.3194e+02	6.8027	12.158360	0.000356	3.561966	0.603413	-0.000036
1328	1.3204e+02	6.7920	12.128217	0.000303	3.029719	0.513248	-0.000030
1329	1.3214e+02	6.7811	12.092371	0.000360	3.602909	0.610349	-0.000036
1330	1.3224e+02	6.7722	12.063450	0.000291	2.906892	0.492441	-0.000029
1331	1.3234e+02	6.7617	12.031677	0.000319	3.193487	0.540991	-0.000032
1332	1.3243e+02	6.7519	11.992979	0.000389	3.889504	0.658900	-0.000039
1333	1.3253e+02	6.7432	11.965687	0.000274	2.743124	0.464698	-0.000027
1334	1.3263e+02	6.7297	11.929027	0.000368	3.684793	0.624221	-0.000037
1335	1.3273e+02	6.7213	11.898883	0.000303	3.029719	0.513248	-0.000030
1336	1.3283e+02	6.7126	11.867111	0.000319	3.193487	0.540991	-0.000032
1337	1.3293e+02	6.7033	11.833301	0.000340	3.398198	0.575670	-0.000034
1338	1.3303e+02	6.6920	11.796233	0.000373	3.725735	0.631157	-0.000037
1339	1.3313e+02	6.6824	11.770163	0.000262	2.620297	0.443890	-0.000026
1340	1.3323e+02	6.6695	11.734724	0.000356	3.561966	0.603413	-0.000036
1341	1.3333e+02	6.6634	11.700915	0.000340	3.398198	0.575670	-0.000034
1342	1.3343e+02	6.6528	11.665883	0.000352	3.521024	0.596478	-0.000035
1343	1.3353e+02	6.6439	11.636962	0.000291	2.906892	0.492441	-0.000029
1344	1.3363e+02	6.6334	11.605189	0.000319	3.193487	0.540991	-0.000032
1345	1.3373e+02	6.6254	11.569750	0.000356	3.561966	0.603413	-0.000036
1346	1.3383e+02	6.6124	11.533090	0.000368	3.684793	0.624221	-0.000037
1347	1.3393e+02	6.6039	11.500910	0.000323	3.234429	0.547927	-0.000032
1348	1.3403e+02	6.5937	11.468730	0.000323	3.234429	0.547927	-0.000032
1349	1.3413e+02	6.5800	11.433291	0.000356	3.561966	0.603413	-0.000036
1350	1.3423e+02	6.5716	11.399074	0.000344	3.439140	0.582606	-0.000034
1351	1.3432e+02	6.5621	11.365672	0.000336	3.357256	0.568735	-0.000034
1352	1.3442e+02	6.5524	11.329826	0.000360	3.602909	0.610349	-0.000036
1353	1.3452e+02	6.5417	11.303348	0.000266	2.661239	0.450826	-0.000027
1354	1.3462e+02	6.5332	11.269132	0.000344	3.439140	0.582606	-0.000034
1355	1.3472e+02	6.5254	11.237766	0.000315	3.152545	0.534056	-0.000032
1356	1.3482e+02	6.5118	11.201920	0.000360	3.602909	0.610349	-0.000036
1357	1.3492e+02	6.5041	11.168925	0.000332	3.316314	0.561799	-0.000033
1358	1.3502e+02	6.4943	11.140411	0.000287	2.865950	0.485505	-0.000029
1359	1.3512e+02	6.4825	11.107009	0.000336	3.357256	0.568735	-0.000034
1360	1.3522e+02	6.4753	11.071571	0.000356	3.561966	0.603413	-0.000036
1361	1.3532e+02	6.4629	11.038168	0.000336	3.357256	0.568735	-0.000034
1362	1.3542e+02	6.4539	11.003137	0.000352	3.521024	0.596478	-0.000035
1363	1.3552e+02	6.4422	10.973401	0.000299	2.988776	0.506312	-0.000030
1364	1.3562e+02	6.4329	10.941628	0.000319	3.193487	0.540991	-0.000032
1365	1.3572e+02	6.4245	10.910670	0.000311	3.111603	0.527120	-0.000031
1366	1.3582e+02	6.4120	10.878898	0.000319	3.193487	0.540991	-0.000032
1367	1.3592e+02	6.4014	10.845903	0.000332	3.316314	0.561799	-0.000033
1368	1.3602e+02	6.3907	10.813723	0.000323	3.234429	0.547927	-0.000032
1369	1.3612e+02	6.3828	10.786838	0.000270	2.702181	0.457762	-0.000027
1370	1.3622e+02	6.3744	10.752214	0.000348	3.480082	0.589542	-0.000035
1371	1.3631e+02	6.3628	10.722478	0.000299	2.988776	0.506312	-0.000030
1372	1.3641e+02	6.3548	10.693964	0.000287	2.865950	0.485505	-0.000029
1373	1.3651e+02	6.3425	10.660562	0.000336	3.357256	0.568735	-0.000034
1374	1.3661e+02	6.3348	10.630826	0.000299	2.988776	0.506312	-0.000030
1375	1.3671e+02	6.3223	10.597016	0.000340	3.398198	0.575670	-0.000034
1376	1.3681e+02	6.3135	10.567688	0.000295	2.947834	0.499377	-0.000029
1377	1.3691e+02	6.3048	10.539581	0.000283	2.825008	0.478569	-0.000028
1378	1.3701e+02	6.2923	10.511475	0.000283	2.825008	0.478569	-0.000028
1379	1.3711e+02	6.2862	10.479702	0.000319	3.193487	0.540991	-0.000032
1380	1.3721e+02	6.2763	10.445892	0.000340	3.398198	0.575670	-0.000034
1381	1.3731e+02	6.2663	10.415342	0.000307	3.070661	0.520184	-0.000031
1382	1.3741e+02	6.2560	10.388457	0.000270	2.702181	0.457762	-0.000027
1383	1.3751e+02	6.2463	10.358721	0.000299	2.988776	0.506312	-0.000030
1384	1.3761e+02	6.2344	10.329800	0.000291	2.906892	0.492441	-0.000029
1385	1.3771e+02	6.2228	10.298027	0.000319	3.193487	0.540991	-0.000032
1386	1.3781e+02	6.2154	10.268698	0.000295	2.947834	0.499377	-0.000029
1387	1.3791e+02	6.2052	10.239370	0.000295	2.947834	0.499377	-0.000029
1388	1.3801e+02	6.1929	10.207597	0.000319	3.193487	0.540991	-0.000032
1389	1.3811e+02	6.1829	10.179490	0.000283	2.825008	0.478569	-0.000028
1390	1.3821e+02	6.1783	10.150569	0.000291	2.906892	0.492441	-0.000029
1391	1.3831e+02	6.1642	10.117574	0.000332	3.316314	0.561799	-0.000033
1392	1.3840e+02	6.1556	10.086616	0.000311	3.111603	0.527120	-0.000031
1393	1.3850e+02	6.1437	10.055251	0.000315	3.152545	0.534056	-0.000032
1394	1.3860e+02	6.1350	10.024293	0.000311	3.111603	0.527120	-0.000031
1395	1.3870e+02	6.1246	9.999445	0.000250	2.497471	0.423083	-0.000025
1396	1.3880e+02	6.1152	9.963191	0.000364	3.643851	0.617285	-0.000036
1397	1.3890e+02	6.1044	9.935900	0.000274	2.743124	0.464698	-0.000027
1398	1.3900e+02	6.0953	9.905756	0.000303	3.029719	0.513248	-0.000030
1399	1.3910e+02	6.0839	9.875613	0.000303	3.029719	0.513248	-0.000030
1400	1.3920e+02	6.0757	9.847914	0.000278	2.784066	0.471634	-0.000028
1401	1.3930e+02	6.0636	9.814511	0.000336	3.357256	0.568735	-0.000034
1402	1.3940e+02	6.0563	9.791700	0.000229	2.292760	0.388404	-0.000023
1403	1.3950e+02	6.0476	9.758706	0.000332	3.316314	0.561799	-0.000033
1404	1.3960e+02	6.0353	9.731821	0.000270	2.702181	0.457762	-0.000027
1405	1.3970e+02	6.0252	9.698419	0.000336	3.357256	0.568735	-0.000034
1406	1.3980e+02	6.0175	9.667461	0.000311	3.111603	0.527120	-0.000031
1407	1.3990e+02	6.0069	9.636910	0.000307	3.070661	0.520184	-0.000031
1408	1.4000e+02	5.9988	9.604730	0.000323	3.234429	0.547927	-0.000032
1409	1.4010e+02	5.9866	9.573365	0.000315	3.152545	0.534056	-0.000032
1410	1.4020e+02	5.9762	9.548517	0.000250	2.497471	0.423083	-0.000025
1411	1.4029e+02	5.9655	9.513893	0.000348	3.480082	0.589542	-0.000035
1412	1.4039e+02	5.9578	9.488230	0.000258	2.579355	0.436955	-0.000026
1413	1.4049e+02	5.9455	9.458494	0.000299	2.988776	0.506312	-0.000030
1414	1.4059e+02	5.9359	9.427129	0.000315	3.152545	0.534056	-0.000032
1415	1.4069e+02	5.9320	9.401466	0.000258	2.579355	0.436955	-0.000026
1416	1.4079e+02	5.9166	9.369693	0.000319	3.193487	0.540991	-0.000032
1417	1.4089e+02	5.9052	9.344438	0.000254	2.538413	0.430019	-0.000025
1418	1.4099e+02	5.8962	9.317146	0.000274	2.743124	0.464698	-0.000027
1419	1.4109e+02	5.8882	9.289040	0.000283	2.825008	0.478569	-0.000028
1420	1.4119e+02	5.8779	9.260526	0.000287	2.865950	0.485505	-0.000029
1421	1.4129e+02	5.8678	9.230382	0.000303	3.029719	0.513248	-0.000030
1422	1.4139e+02	5.8550	9.200239	0.000303	3.029719	0.513248	-0.000030
1423	1.4149e+02	5.8472	9.170910	0.000295	2.947834	0.499377	-0.000029
1424	1.4159e+02	5.8358	9.138323	0.000328	3.275371	0.554863	-0.000033
1425	1.4169e+02	5.8248	9.109401	0.000291	2.906892	0.492441	-0.000029
1426	1.4179e+02	5.8172	9.080480	0.000291	2.906892	0.492441	-0.000029
1427	1.4189e+02	5.8086	9.054818	0.000258	2.579355	0.436955	-0.000026
1428	1.4199e+02	5.7970	9.024267	0.000307	3.070661	0.520184	-0.000031
1429	1.4209e+02	5.7870	8.992087	0.000323	3.234429	0.547927	-0.000032
1430	1.4219e+02	5.7807	8.964795	0.000274	2.743124	0.464698	-0.000027
1431	1.4228e+02	5.7658	8.937910	0.000270	2.702181	0.457762	-0.000027
1432	1.4238e+02	5.7565	8.905323	0.000328	3.275371	0.554863	-0.000033
1433	1.4248e+02	5.7471	8.882104	0.000233	2.333702	0.395340	-0.000023
1434	1.4258e+02	5.7375	8.852368	0.000299	2.988776	0.506312	-0.000030
1435	1.4268e+02	5.7247	8.822632	0.000299	2.988776	0.506312	-0.000030
1436	1.4278e+02	5.7171	8.792489	0.000303	3.029719	0.513248	-0.000030
1437	1.4288e+02	5.7073	8.761531	0.000311	3.111603	0.527120	-0.000031
1438	1.4298e+02	5.7015	8.731795	0.000299	2.988776	0.506312	-0.000030
1439	1.4308e+02	5.6869	8.698393	0.000336	3.357256	0.568735	-0.000034
1440	1.4318e+02	5.6782	8.673138	0.000254	2.538413	0.430019	-0.000025
1441	1.4328e+02	5.6686	8.642587	0.000307	3.070661	0.520184	-0.000031
1442	1.4338e+02	5.6580	8.609592	0.000332	3.316314	0.561799	-0.000033
1443	1.4348e+02	5.6481	8.582300	0.000274	2.743124	0.464698	-0.000027
1444	1.4358e+02	5.6392	8.558674	0.000237	2.374644	0.402276	-0.000024
1445	1.4368e+02	5.6312	8.524050	0.000348	3.480082	0.589542	-0.000035
1446	1.4378e+02	5.6200	8.493500	0.000307	3.070661	0.520184	-0.000031
1447	1.4388e+02	5.6081	8.461727	0.000319	3.193487	0.540991	-0.000032
1448	1.4398e+02	5.5968	8.431583	0.000303	3.029719	0.513248	-0.000030
1449	1.4408e+02	5.5875	8.395330	0.000364	3.643851	0.617285	-0.000036
1450	1.4418e+02	5.5787	8.370075	0.000254	2.538413	0.430019	-0.000025
1451	1.4428e+02	5.5709	8.338709	0.000315	3.152545	0.534056	-0.000032
1452	1.4437e+02	5.5563	8.306529	0.000323	3.234429	0.547927	-0.000032
1453	1.4447e+02	5.5455	8.271091	0.000356	3.561966	0.603413	-0.000036
1454	1.4457e+02	5.5384	8.235244	0.000360	3.602909	0.610349	-0.000036
1455	1.4467e+02	5.5270	8.203064	0.000323	3.234429	0.547927	-0.000032
1456	1.4477e+02	5.5190	8.174958	0.000283	2.825008	0.478569	-0.000028
1457	1.4487e+02	5.5083	8.140741	0.000344	3.439140	0.582606	-0.000034
1458	1.4497e+02	5.5004	8.106117	0.000348	3.480082	0.589542	-0.000035
1459	1.4507e+02	5.4906	8.071900	0.000344	3.439140	0.582606	-0.000034
1460	1.4517e+02	5.4798	8.042571	0.000295	2.947834	0.499377	-0.000029
1461	1.4527e+02	5.4683	8.008355	0.000344	3.439140	0.582606	-0.000034
1462	1.4537e+02	5.4583	7.973730	0.000348	3.480082	0.589542	-0.000035
1463	1.4547e+02	5.4488	7.941143	0.000328	3.275371	0.554863	-0.000033
1464	1.4557e+02	5.4375	7.908148	0.000332	3.316314	0.561799	-0.000033
1465	1.4567e+02	5.4296	7.873932	0.000344	3.439140	0.582606	-0.000034
1466	1.4577e+02	5.4192	7.834827	0.000393	3.930446	0.665836	-0.000039
1467	1.4587e+02	5.4108	7.805498	0.000295	2.947834	0.499377	-0.000029
1468	1.4597e+02	5.3997	7.767615	0.000381	3.807619	0.645028	-0.000038
1469	1.4607e+02	5.3887	7.735842	0.000319	3.193487	0.540991	-0.000032
1470	1.4617e+02	5.3810	7.697145	0.000389	3.889504	0.658900	-0.000039
1471	1.4626e+02	5.3695	7.667816	0.000295	2.947834	0.499377	-0.000029
1472	1.4636e+02	5.3594	7.632785	0.000352	3.521024	0.596478	-0.000035
1473	1.4646e+02	5.3518	7.598568	0.000344	3.439140	0.582606	-0.000034
1474	1.4656e+02	5.3431	7.567203	0.000315	3.152545	0.534056	-0.000032
1475	1.4666e+02	5.3300	7.530949	0.000364	3.643851	0.617285	-0.000036
1476	1.4676e+02	5.3217	7.499584	0.000315	3.152545	0.534056	-0.000032
1477	1.4686e+02	5.3092	7.462108	0.000377	3.766677	0.638092	-0.000038
1478	1.4696e+02	5.2991	7.429521	0.000328	3.275371	0.554863	-0.000033
1479	1.4706e+02	5.2900	7.393675	0.000360	3.602909	0.610349	-0.000036
1480	1.4716e+02	5.2790	7.357014	0.000368	3.684793	0.624221	-0.000037
1481	1.4726e+02	5.2653	7.323204	0.000340	3.398198	0.575670	-0.000034
1482	1.4736e+02	5.2612	7.289802	0.000336	3.357256	0.568735	-0.000034
1483	1.4746e+02	5.2493	7.252327	0.000377	3.766677	0.638092	-0.000038
1484	1.4756e+02	5.2422	7.215259	0.000373	3.725735	0.631157	-0.000037
1485	1.4766e+02	5.2308	7.184708	0.000307	3.070661	0.520184	-0.000031
1486	1.4776e+02	5.2184	7.150084	0.000348	3.480082	0.589542	-0.000035
1487	1.4786e+02	5.2087	7.112201	0.000381	3.807619	0.645028	-0.000038
1488	1.4796e+02	5.1971	7.077577	0.000348	3.480082	0.589542	-0.000035
1489	1.4806e+02	5.1893	7.040916	0.000368	3.684793	0.624221	-0.000037
1490	1.4816e+02	5.1788	7.006699	0.000344	3.439140	0.582606	-0.000034
1491	1.4825e+02	5.1711	6.971260	0.000356	3.561966	0.603413	-0.000036
1492	1.4835e+02	5.1612	6.937858	0.000336	3.357256	0.568735	-0.000034
1493	1.4845e+02	5.1473	6.901605	0.000364	3.643851	0.617285	-0.000036
1494	1.4855e+02	5.1406	6.868610	0.000332	3.316314	0.561799	-0.000033
1495	1.4865e+02	5.1273	6.831135	0.000377	3.766677	0.638092	-0.000038
1496	1.4875e+02	5.1221	6.795288	0.000360	3.602909	0.610349	-0.000036
1497	1.4885e+02	5.1111	6.754962	0.000405	4.053272	0.686643	-0.000041
1498	1.4895e+02	5.0977	6.721152	0.000340	3.398198	0.575670	-0.000034
1499	1.4905e+02	5.0890	6.683269	0.000381	3.807619	0.645028	-0.000038
1500	1.4915e+02	5.0806	6.642535	0.000409	4.094214	0.693579	-0.000041
1501	1.4925e+02	5.0687	6.607504	0.000352	3.521024	0.596478	-0.000035
1502	1.4935e+02	5.0599	6.568399	0.000393	3.930446	0.665836	-0.000039
1503	1.4945e+02	5.0539	6.537033	0.000315	3.152545	0.534056	-0.000032
1504	1.4955e+02	5.0412	6.497521	0.000397	3.971388	0.672771	-0.000040
1505	1.4965e+02	5.0312	6.460046	0.000377	3.766677	0.638092	-0.000038
1506	1.4975e+02	5.0237	6.426236	0.000340	3.398198	0.575670	-0.000034
1507	1.4985e+02	5.0123	6.387539	0.000389	3.889504	0.658900	-0.000039
1508	1.4995e+02	4.9996	6.349248	0.000385	3.848561	0.651964	-0.000038
1509	1.5005e+02	4.9925	6.310551	0.000389	3.889504	0.658900	-0.000039
1510	1.5015e+02	4.9810	6.274297	0.000364	3.643851	0.617285	-0.000036
1511	1.5025e+02	4.9731	6.236414	0.000381	3.807619	0.645028	-0.000038
1512	1.5034e+02	4.9606	6.197310	0.000393	3.930446	0.665836	-0.000039
1513	1.5044e+02	4.9523	6.159019	0.000385	3.848561	0.651964	-0.000038
1514	1.5054e+02	4.9450	6.121137	0.000381	3.807619	0.645028	-0.000038
1515	1.5064e+02	4.9319	6.085698	0.000356	3.561966	0.603413	-0.000036
1516	1.5074e+02	4.9226	6.045778	0.000401	4.012330	0.679707	-0.000040
1517	1.5084e+02	4.9126	6.008710	0.000373	3.725735	0.631157	-0.000037
1518	1.5094e+02	4.9015	5.970012	0.000389	3.889504	0.658900	-0.000039
1519	1.5104e+02	4.8917	5.934981	0.000352	3.521024	0.596478	-0.000035
1520	1.5114e+02	4.8797	5.896691	0.000385	3.848561	0.651964	-0.000038
1521	1.5124e+02	4.8717	5.858401	0.000385	3.848561	0.651964	-0.000038
1522	1.5134e+02	4.8617	5.822147	0.000364	3.643851	0.617285	-0.000036
1523	1.5144e+02	4.8537	5.786301	0.000360	3.602909	0.610349	-0.000036
1524	1.5154e+02	4.8396	5.749233	0.000373	3.725735	0.631157	-0.000037
1525	1.5164e+02	4.8333	5.709313	0.000401	4.012330	0.679707	-0.000040
1526	1.5174e+02	4.8232	5.673060	0.000364	3.643851	0.617285	-0.000036
1527	1.5184e+02	4.8119	5.633547	0.000397	3.971388	0.672771	-0.000040
1528	1.5194e+02	4.8003	5.596887	0.000368	3.684793	0.624221	-0.000037
1529	1.5204e+02	4.7933	5.560226	0.000368	3.684793	0.624221	-0.000037
1530	1.5214e+02	4.7821	5.525602	0.000348	3.480082	0.589542	-0.000035
1531	1.5224e+02	4.7736	5.488534	0.000373	3.725735	0.631157	-0.000037
1532	1.5233e+02	4.7614	5.447799	0.000409	4.094214	0.693579	-0.000041
1533	1.5243e+02	4.7538	5.416841	0.000311	3.111603	0.527120	-0.000031
1534	1.5253e+02	4.7425	5.380588	0.000364	3.643851	0.617285	-0.000036
1535	1.5263e+02	4.7320	5.344742	0.000360	3.602909	0.610349	-0.000036
1536	1.5273e+02	4.7253	5.306859	0.000381	3.807619	0.645028	-0.000038
1537	1.5283e+02	4.7155	5.272642	0.000344	3.439140	0.582606	-0.000034
1538	1.5293e+02	4.7024	5.236796	0.000360	3.602909	0.610349	-0.000036
1539	1.5303e+02	4.6935	5.199320	0.000377	3.766677	0.638092	-0.000038
1540	1.5313e+02	4.6805	5.167140	0.000323	3.234429	0.547927	-0.000032
1541	1.5323e+02	4.6716	5.129257	0.000381	3.807619	0.645028	-0.000038
1542	1.5333e+02	4.6616	5.093819	0.000356	3.561966	0.603413	-0.000036
1543	1.5343e+02	4.6526	5.062046	0.000319	3.193487	0.540991	-0.000032
1544	1.5353e+02	4.6424	5.025792	0.000364	3.643851	0.617285	-0.000036
1545	1.5363e+02	4.6343	4.989946	0.000360	3.602909	0.610349	-0.000036
1546	1.5373e+02	4.6227	4.954507	0.000356	3.561966	0.603413	-0.000036
1547	1.5383e+02	4.6146	4.922327	0.000323	3.234429	0.547927	-0.000032
1548	1.5393e+02	4.6055	4.884445	0.000381	3.807619	0.645028	-0.000038
1549	1.5403e+02	4.5905	4.846154	0.000385	3.848561	0.651964	-0.000038
1550	1.5413e+02	4.5821	4.816011	0.000303	3.029719	0.513248	-0.000030
1551	1.5422e+02	4.5711	4.778128	0.000381	3.807619	0.645028	-0.000038
1552	1.5432e+02	4.5629	4.747577	0.000307	3.070661	0.520184	-0.000031
1553	1.5442e+02	4.5513	4.714583	0.000332	3.316314	0.561799	-0.000033
1554	1.5452e+02	4.5445	4.677515	0.000373	3.725735	0.631157	-0.000037
1555	1.5462e+02	4.5315	4.643298	0.000344	3.439140	0.582606	-0.000034
1556	1.5472e+02	4.5232	4.610303	0.000332	3.316314	0.561799	-0.000033
1557	1.5482e+02	4.5133	4.572420	0.000381	3.807619	0.645028	-0.000038
1558	1.5492e+02	4.5028	4.537389	0.000352	3.521024	0.596478	-0.000035
1559	1.5502e+02	4.4930	4.504394	0.000332	3.316314	0.561799	-0.000033
1560	1.5512e+02	4.4845	4.467733	0.000368	3.684793	0.624221	-0.000037
1561	1.5522e+02	4.4735	4.438404	0.000295	2.947834	0.499377	-0.000029
1562	1.5532e+02	4.4643	4.398485	0.000401	4.012330	0.679707	-0.000040
1563	1.5542e+02	4.4531	4.363861	0.000348	3.480082	0.589542	-0.000035
1564	1.5552e+02	4.4404	4.331681	0.000323	3.234429	0.547927	-0.000032
1565	1.5562e+02	4.4324	4.296649	0.000352	3.521024	0.596478	-0.000035
1566	1.5572e+02	4.4245	4.259988	0.000368	3.684793	0.624221	-0.000037
1567	1.5582e+02	4.4147	4.223735	0.000364	3.643851	0.617285	-0.000036
1568	1.5592e+02	4.4061	4.191148	0.000328	3.275371	0.554863	-0.000033
1569	1.5602e+02	4.3916	4.155301	0.000360	3.602909	0.610349	-0.000036
1570	1.5612e+02	4.3836	4.122307	0.000332	3.316314	0.561799	-0.000033
1571	1.5622e+02	4.3774	4.089719	0.000328	3.275371	0.554863	-0.000033
1572	1.5631e+02	4.3639	4.052651	0.000373	3.725735	0.631157	-0.000037
1573	1.5641e+02	4.3535	4.019656	0.000332	3.316314	0.561799	-0.000033
1574	1.5651e+02	4.3435	3.983810	0.000360	3.602909	0.610349	-0.000036
1575	1.5661e+02	4.3353	3.948779	0.000352	3.521024	0.596478	-0.000035
1576	1.5671e+02	4.3249	3.915377	0.000336	3.357256	0.568735	-0.000034
1577	1.5681e+02	4.3142	3.876272	0.000393	3.930446	0.665836	-0.000039
1578	1.5691e+02	4.3059	3.844906	0.000315	3.152545	0.534056	-0.000032
1579	1.5701e+02	4.2938	3.810282	0.000348	3.480082	0.589542	-0.000035
1580	1.5711e+02	4.2824	3.776880	0.000336	3.357256	0.568735	-0.000034
1581	1.5721e+02	4.2760	3.742663	0.000344	3.439140	0.582606	-0.000034
1582	1.5731e+02	4.2641	3.708854	0.000340	3.398198	0.575670	-0.000034
1583	1.5741e+02	4.2559	3.675044	0.000340	3.398198	0.575670	-0.000034
1584	1.5751e+02	4.2432	3.644494	0.000307	3.070661	0.520184	-0.000031
1585	1.5761e+02	4.2351	3.609462	0.000352	3.521024	0.596478	-0.000035
1586	1.5771e+02	4.2275	3.574431	0.000352	3.521024	0.596478	-0.000035
1587	1.5781e+02	4.2124	3.541029	0.000336	3.357256	0.568735	-0.000034
1588	1.5791e+02	4.2059	3.511700	0.000295	2.947834	0.499377	-0.000029
1589	1.5801e+02	4.1921	3.473817	0.000381	3.807619	0.645028	-0.000038
1590	1.5811e+02	4.1849	3.440823	0.000332	3.316314	0.561799	-0.000033
1591	1.5821e+02	4.1753	3.407420	0.000336	3.357256	0.568735	-0.000034
1592	1.5830e+02	4.1664	3.372389	0.000352	3.521024	0.596478	-0.000035
1593	1.5840e+02	4.1579	3.337358	0.000352	3.521024	0.596478	-0.000035
1594	1.5850e+02	4.1450	3.302326	0.000352	3.521024	0.596478	-0.000035
1595	1.5860e+02	4.1386	3.272590	0.000299	2.988776	0.506312	-0.000030
1596	1.5870e+02	4.1245	3.239595	0.000332	3.316314	0.561799	-0.000033
1597	1.5880e+02	4.1148	3.201712	0.000381	3.807619	0.645028	-0.000038
1598	1.5890e+02	4.1048	3.171162	0.000307	3.070661	0.520184	-0.000031
1599	1.5900e+02	4.0972	3.133686	0.000377	3.766677	0.638092	-0.000038
1600	1.5910e+02	4.0836	3.103136	0.000307	3.070661	0.520184	-0.000031
1601	1.5920e+02	4.0728	3.070548	0.000328	3.275371	0.554863	-0.000033
1602	1.5930e+02	4.0655	3.036331	0.000344	3.439140	0.582606	-0.000034
1603	1.5940e+02	4.0582	3.002522	0.000340	3.398198	0.575670	-0.000034
1604	1.5950e+02	4.0453	2.966268	0.000364	3.643851	0.617285	-0.000036
1605	1.5960e+02	4.0359	2.928793	0.000377	3.766677	0.638092	-0.000038
1606	1.5970e+02	4.0281	2.897020	0.000319	3.193487	0.540991	-0.000032
1607	1.5980e+02	4.0151	2.863618	0.000336	3.357256	0.568735	-0.000034
1608	1.5990e+02	4.0060	2.823699	0.000401	4.012330	0.679707	-0.000040
1609	1.6000e+02	3.9967	2.789889	0.000340	3.398198	0.575670	-0.000034
1610	1.6010e+02	3.9845	2.756894	0.000332	3.316314	0.561799	-0.000033
1611	1.6019e+02	3.9751	2.720234	0.000368	3.684793	0.624221	-0.000037
1612	1.6029e+02	3.9665	2.684795	0.000356	3.561966	0.603413	-0.000036
1613	1.6039e+02	3.9542	2.648134	0.000368	3.684793	0.624221	-0.000037
1614	1.6049e+02	3.9449	2.615954	0.000323	3.234429	0.547927	-0.000032
1615	1.6059e+02	3.9346	2.581330	0.000348	3.480082	0.589542	-0.000035
1616	1.6069e+02	3.9255	2.543447	0.000381	3.807619	0.645028	-0.000038
1617	1.6079e+02	3.9166	2.507601	0.000360	3.602909	0.610349	-0.000036
1618	1.6089e+02	3.9063	2.472569	0.000352	3.521024	0.596478	-0.000035
1619	1.6099e+02	3.8978	2.433464	0.000393	3.930446	0.665836	-0.000039
1620	1.6109e+02	3.8855	2.398840	0.000348	3.480082	0.589542	-0.000035
1621	1.6119e+02	3.8772	2.360143	0.000389	3.889504	0.658900	-0.000039
1622	1.6129e+02	3.8639	2.323482	0.000368	3.684793	0.624221	-0.000037
1623	1.6139e+02	3.8558	2.287636	0.000360	3.602909	0.610349	-0.000036
1624	1.6149e+02	3.8477	2.245679	0.000422	4.217041	0.714386	-0.000042
1625	1.6159e+02	3.8366	2.207797	0.000381	3.807619	0.645028	-0.000038
1626	1.6169e+02	3.8271	2.170728	0.000373	3.725735	0.631157	-0.000037
1627	1.6179e+02	3.8168	2.132031	0.000389	3.889504	0.658900	-0.000039
1628	1.6189e+02	3.8076	2.095370	0.000368	3.684793	0.624221	-0.000037
1629	1.6199e+02	3.7964	2.059117	0.000364	3.643851	0.617285	-0.000036
1630	1.6209e+02	3.7879	2.015531	0.000438	4.380809	0.742129	-0.000044
1631	1.6219e+02	3.7805	1.982129	0.000336	3.357256	0.568735	-0.000034
1632	1.6228e+02	3.7696	1.938543	0.000438	4.380809	0.742129	-0.000044
1633	1.6238e+02	3.7579	1.905548	0.000332	3.316314	0.561799	-0.000033
1634	1.6248e+02	3.7455	1.866036	0.000397	3.971388	0.672771	-0.000040
1635	1.6258e+02	3.7388	1.820821	0.000454	4.544578	0.769872	-0.000045
1636	1.6268e+02	3.7248	1.782938	0.000381	3.807619	0.645028	-0.000038
1637	1.6278e+02	3.7168	1.746278	0.000368	3.684793	0.624221	-0.000037
1638	1.6288e+02	3.7061	1.707987	0.000385	3.848561	0.651964	-0.000038
1639	1.6298e+02	3.6974	1.665216	0.000430	4.298925	0.728258	-0.000043
1640	1.6308e+02	3.6896	1.626926	0.000385	3.848561	0.651964	-0.000038
1641	1.6318e+02	3.6771	1.591080	0.000360	3.602909	0.610349	-0.000036
1642	1.6328e+02	3.6649	1.547902	0.000434	4.339867	0.735193	-0.000043
1643	1.6338e+02	3.6595	1.512463	0.000356	3.561966	0.603413	-0.000036
1644	1.6348e+02	3.6499	1.470507	0.000422	4.217041	0.714386	-0.000042
1645	1.6358e+02	3.6402	1.433438	0.000373	3.725735	0.631157	-0.000037
1646	1.6368e+02	3.6280	1.393112	0.000405	4.053272	0.686643	-0.000041
1647	1.6378e+02	3.6179	1.349119	0.000442	4.421751	0.749065	-0.000044
1648	1.6388e+02	3.6071	1.311236	0.000381	3.807619	0.645028	-0.000038
1649	1.6398e+02	3.6001	1.272131	0.000393	3.930446	0.665836	-0.000039
1650	1.6408e+02	3.5874	1.230989	0.000414	4.135156	0.700514	-0.000041
1651	1.6418e+02	3.5791	1.189440	0.000418	4.176099	0.707450	-0.000042
1652	1.6427e+02	3.5686	1.145447	0.000442	4.421751	0.749065	-0.000044
1653	1.6437e+02	3.5590	1.109601	0.000360	3.602909	0.610349	-0.000036
1654	1.6447e+02	3.5488	1.070089	0.000397	3.971388	0.672771	-0.000040
1655	1.6457e+02	3.5366	1.030169	0.000401	4.012330	0.679707	-0.000040
1656	1.6467e+02	3.5294	0.985362	0.000450	4.503636	0.762937	-0.000045
1657	1.6477e+02	3.5189	0.946257	0.000393	3.930446	0.665836	-0.000039
1658	1.6487e+02	3.5083	0.909189	0.000373	3.725735	0.631157	-0.000037
1659	1.6497e+02	3.4988	0.869269	0.000401	4.012330	0.679707	-0.000040
1660	1.6507e+02	3.4876	0.826905	0.000426	4.257983	0.721322	-0.000043
1661	1.6517e+02	3.4808	0.786986	0.000401	4.012330	0.679707	-0.000040
1662	1.6527e+02	3.4687	0.745437	0.000418	4.176099	0.707450	-0.000042
1663	1.6537e+02	3.4615	0.706739	0.000389	3.889504	0.658900	-0.000039
1664	1.6547e+02	3.4512	0.661117	0.000459	4.585520	0.776808	-0.000046
1665	1.6557e+02	3.4351	0.619161	0.000422	4.217041	0.714386	-0.000042
1666	1.6567e+02	3.4291	0.579648	0.000397	3.971388	0.672771	-0.000040
1667	1.6577e+02	3.4203	0.535655	0.000442	4.421751	0.749065	-0.000044
1668	1.6587e+02	3.4086	0.491662	0.000442	4.421751	0.749065	-0.000044
1669	1.6597e+02	3.3987	0.450928	0.000409	4.094214	0.693579	-0.000041
1670	1.6607e+02	3.3894	0.404898	0.000463	4.626462	0.783744	-0.000046
1671	1.6616e+02	3.3808	0.362535	0.000426	4.257983	0.721322	-0.000043
1672	1.6626e+02	3.3689	0.320579	0.000422	4.217041	0.714386	-0.000042
1673	1.6636e+02	3.3575	0.279844	0.000409	4.094214	0.693579	-0.000041
1674	1.6646e+02	3.3489	0.241147	0.000389	3.889504	0.658900	-0.000039
1675	1.6656e+02	3.3411	0.192673	0.000487	4.872115	0.825359	-0.000049
1676	1.6666e+02	3.3315	0.152346	0.000405	4.053272	0.686643	-0.000041
1677	1.6676e+02	3.3197	0.110390	0.000422	4.217041	0.714386	-0.000042
1678	1.6686e+02	3.3108	0.064767	0.000459	4.585520	0.776808	-0.000046
1679	1.6696e+02	3.2990	0.022811	0.000422	4.217041	0.714386	-0.000042
1680	1.6706e+02	3.2886	-0.022404	0.000454	4.544578	0.769872	-0.000045
1681	1.6716e+02	3.2800	-0.065175	0.000430	4.298925	0.728258	-0.000043
1682	1.6726e+02	3.2695	-0.106724	0.000418	4.176099	0.707450	-0.000042
1683	1.6736e+02	3.2607	-0.151939	0.000454	4.544578	0.769872	-0.000045
1684	1.6746e+02	3.2477	-0.194710	0.000430	4.298925	0.728258	-0.000043
1685	1.6756e+02	3.2406	-0.240332	0.000459	4.585520	0.776808	-0.000046
1686	1.6766e+02	3.2302	-0.285140	0.000450	4.503636	0.762937	-0.000045
1687	1.6776e+02	3.2229	-0.325059	0.000401	4.012330	0.679707	-0.000040
1688	1.6786e+02	3.2085	-0.363350	0.000385	3.848561	0.651964	-0.000038
1689	1.6796e+02	3.1967	-0.410601	0.000475	4.749289	0.804551	-0.000047
1690	1.6806e+02	3.1882	-0.451336	0.000409	4.094214	0.693579	-0.000041
1691	1.6816e+02	3.1791	-0.493292	0.000422	4.217041	0.714386	-0.000042
1692	1.6825e+02	3.1675	-0.538100	0.000450	4.503636	0.762937	-0.000045
1693	1.6835e+02	3.1601	-0.581685	0.000438	4.380809	0.742129	-0.000044
1694	1.6845e+02	3.1506	-0.622827	0.000414	4.135156	0.700514	-0.000041
1695	1.6855e+02	3.1426	-0.666820	0.000442	4.421751	0.749065	-0.000044
1696	1.6865e+02	3.1326	-0.706739	0.000401	4.012330	0.679707	-0.000040
1697	1.6875e+02	3.1199	-0.751140	0.000446	4.462694	0.756001	-0.000045
1698	1.6885e+02	3.1100	-0.795133	0.000442	4.421751	0.749065	-0.000044
1699	1.6895e+02	3.1011	-0.832608	0.000377	3.766677	0.638092	-0.000038
1700	1.6905e+02	3.0898	-0.875379	0.000430	4.298925	0.728258	-0.000043
1701	1.6915e+02	3.0817	-0.915706	0.000405	4.053272	0.686643	-0.000041
1702	1.6925e+02	3.0706	-0.960106	0.000446	4.462694	0.756001	-0.000045
1703	1.6935e+02	3.0597	-1.000433	0.000405	4.053272	0.686643	-0.000041
1704	1.6945e+02	3.0488	-1.043612	0.000434	4.339867	0.735193	-0.000043
1705	1.6955e+02	3.0401	-1.083531	0.000401	4.012330	0.679707	-0.000040
1706	1.6965e+02	3.0313	-1.124673	0.000414	4.135156	0.700514	-0.000041
1707	1.6975e+02	3.0201	-1.162148	0.000377	3.766677	0.638092	-0.000038
1708	1.6985e+02	3.0115	-1.200846	0.000389	3.889504	0.658900	-0.000039
1709	1.6995e+02	3.0016	-1.246468	0.000459	4.585520	0.776808	-0.000046
1710	1.7005e+02	2.9911	-1.287202	0.000409	4.094214	0.693579	-0.000041
1711	1.7015e+02	2.9804	-1.327122	0.000401	4.012330	0.679707	-0.000040
1712	1.7024e+02	2.9708	-1.369893	0.000430	4.298925	0.728258	-0.000043
1713	1.7034e+02	2.9601	-1.411849	0.000422	4.217041	0.714386	-0.000042
1714	1.7044e+02	2.9531	-1.453806	0.000422	4.217041	0.714386	-0.000042
1715	1.7054e+02	2.9411	-1.492096	0.000385	3.848561	0.651964	-0.000038
1716	1.7064e+02	2.9311	-1.532830	0.000409	4.094214	0.693579	-0.000041
1717	1.7074e+02	2.9228	-1.572342	0.000397	3.971388	0.672771	-0.000040
1718	1.7084e+02	2.9099	-1.616743	0.000446	4.462694	0.756001	-0.000045
1719	1.7094e+02	2.9009	-1.652589	0.000360	3.602909	0.610349	-0.000036
1720	1.7104e+02	2.8918	-1.692916	0.000405	4.053272	0.686643	-0.000041
1721	1.7114e+02	2.8822	-1.731613	0.000389	3.889504	0.658900	-0.000039
1722	1.7124e+02	2.8693	-1.776421	0.000450	4.503636	0.762937	-0.000045
1723	1.7134e+02	2.8627	-1.813082	0.000368	3.684793	0.624221	-0.000037
1724	1.7144e+02	2.8515	-1.854223	0.000414	4.135156	0.700514	-0.000041
1725	1.7154e+02	2.8420	-1.898216	0.000442	4.421751	0.749065	-0.000044
1726	1.7164e+02	2.8327	-1.934470	0.000364	3.643851	0.617285	-0.000036
1727	1.7174e+02	2.8219	-1.977241	0.000430	4.298925	0.728258	-0.000043
1728	1.7184e+02	2.8093	-2.019197	0.000422	4.217041	0.714386	-0.000042
1729	1.7194e+02	2.8024	-2.056265	0.000373	3.725735	0.631157	-0.000037
1730	1.7204e+02	2.7916	-2.102295	0.000463	4.626462	0.783744	-0.000046
1731	1.7213e+02	2.7833	-2.141807	0.000397	3.971388	0.672771	-0.000040
1732	1.7223e+02	2.7732	-2.182134	0.000405	4.053272	0.686643	-0.000041
1733	1.7233e+02	2.7642	-2.221646	0.000397	3.971388	0.672771	-0.000040
1734	1.7243e+02	2.7532	-2.259936	0.000385	3.848561	0.651964	-0.000038
1735	1.7253e+02	2.7432	-2.303115	0.000434	4.339867	0.735193	-0.000043
1736	1.7263e+02	2.7306	-2.341812	0.000389	3.889504	0.658900	-0.000039
1737	1.7273e+02	2.7231	-2.382954	0.000414	4.135156	0.700514	-0.000041
1738	1.7283e+02	2.7126	-2.422873	0.000401	4.012330	0.679707	-0.000040
1739	1.7293e+02	2.7040	-2.462793	0.000401	4.012330	0.679707	-0.000040
1740	1.7303e+02	2.6877	-2.504342	0.000418	4.176099	0.707450	-0.000042
1741	1.7313e+02	2.6822	-2.547113	0.000430	4.298925	0.728258	-0.000043
1742	1.7323e+02	2.6717	-2.584181	0.000373	3.725735	0.631157	-0.000037
1743	1.7333e+02	2.6625	-2.628174	0.000442	4.421751	0.749065	-0.000044
1744	1.7343e+02	2.6549	-2.666464	0.000385	3.848561	0.651964	-0.000038
1745	1.7353e+02	2.6401	-2.708828	0.000426	4.257983	0.721322	-0.000043
1746	1.7363e+02	2.6311	-2.745081	0.000364	3.643851	0.617285	-0.000036
1747	1.7373e+02	2.6222	-2.789889	0.000450	4.503636	0.762937	-0.000045
1748	1.7383e+02	2.6142	-2.831031	0.000414	4.135156	0.700514	-0.000041
1749	1.7393e+02	2.6022	-2.867284	0.000364	3.643851	0.617285	-0.000036
1750	1.7403e+02	2.5951	-2.905574	0.000385	3.848561	0.651964	-0.000038
1751	1.7413e+02	2.5847	-2.944679	0.000393	3.930446	0.665836	-0.000039
1752	1.7422e+02	2.5724	-2.985006	0.000405	4.053272	0.686643	-0.000041
1753	1.7432e+02	2.5614	-3.023704	0.000389	3.889504	0.658900	-0.000039
1754	1.7442e+02	2.5549	-3.063216	0.000397	3.971388	0.672771	-0.000040
1755	1.7452e+02	2.5458	-3.103543	0.000405	4.053272	0.686643	-0.000041
1756	1.7462e+02	2.5321	-3.143055	0.000397	3.971388	0.672771	-0.000040
1757	1.7472e+02	2.5233	-3.182567	0.000397	3.971388	0.672771	-0.000040
1758	1.7482e+02	2.5116	-3.226153	0.000438	4.380809	0.742129	-0.000044
1759	1.7492e+02	2.5041	-3.261184	0.000352	3.521024	0.596478	-0.000035
1760	1.7502e+02	2.4921	-3.299067	0.000381	3.807619	0.645028	-0.000038
1761	1.7512e+02	2.4825	-3.341838	0.000430	4.298925	0.728258	-0.000043
1762	1.7522e+02	2.4739	-3.382573	0.000409	4.094214	0.693579	-0.000041
1763	1.7532e+02	2.4633	-3.423307	0.000409	4.094214	0.693579	-0.000041
1764	1.7542e+02	2.4540	-3.460782	0.000377	3.766677	0.638092	-0.000038
1765	1.7552e+02	2.4444	-3.500295	0.000397	3.971388	0.672771	-0.000040
1766	1.7562e+02	2.4365	-3.538177	0.000381	3.807619	0.645028	-0.000038
1767	1.7572e+02	2.4213	-3.580134	0.000422	4.217041	0.714386	-0.000042
1768	1.7582e+02	2.4137	-3.616387	0.000364	3.643851	0.617285	-0.000036
1769	1.7592e+02	2.4049	-3.657936	0.000418	4.176099	0.707450	-0.000042
1770	1.7602e+02	2.3928	-3.697856	0.000401	4.012330	0.679707	-0.000040
1771	1.7612e+02	2.3843	-3.741034	0.000434	4.339867	0.735193	-0.000043
1772	1.7621e+02	2.3741	-3.780139	0.000393	3.930446	0.665836	-0.000039
1773	1.7631e+02	2.3641	-3.820873	0.000409	4.094214	0.693579	-0.000041
1774	1.7641e+02	2.3533	-3.860793	0.000401	4.012330	0.679707	-0.000040
1775	1.7651e+02	2.3411	-3.907637	0.000471	4.708346	0.797615	-0.000047
1776	1.7661e+02	2.3335	-3.946742	0.000393	3.930446	0.665836	-0.000039
1777	1.7671e+02	2.3235	-3.984217	0.000377	3.766677	0.638092	-0.000038
1778	1.7681e+02	2.3141	-4.026581	0.000426	4.257983	0.721322	-0.000043
1779	1.7691e+02	2.3051	-4.065686	0.000393	3.930446	0.665836	-0.000039
1780	1.7701e+02	2.2945	-4.112530	0.000471	4.708346	0.797615	-0.000047
1781	1.7711e+02	2.2833	-4.150821	0.000385	3.848561	0.651964	-0.000038
1782	1.7721e+02	2.2717	-4.191962	0.000414	4.135156	0.700514	-0.000041
1783	1.7731e+02	2.2649	-4.236770	0.000450	4.503636	0.762937	-0.000045
1784	1.7741e+02	2.2572	-4.278319	0.000418	4.176099	0.707450	-0.000042
1785	1.7751e+02	2.2451	-4.320682	0.000426	4.257983	0.721322	-0.000043
1786	1.7761e+02	2.2332	-4.361417	0.000409	4.094214	0.693579	-0.000041
1787	1.7771e+02	2.2253	-4.404595	0.000434	4.339867	0.735193	-0.000043
1788	1.7781e+02	2.2128	-4.444515	0.000401	4.012330	0.679707	-0.000040
1789	1.7791e+02	2.2070	-4.493803	0.000495	4.953999	0.839230	-0.000050
1790	1.7801e+02	2.1931	-4.539425	0.000459	4.585520	0.776808	-0.000046
1791	1.7810e+02	2.1857	-4.580974	0.000418	4.176099	0.707450	-0.000042
1792	1.7820e+02	2.1741	-4.622523	0.000418	4.176099	0.707450	-0.000042
1793	1.7830e+02	2.1655	-4.669775	0.000475	4.749289	0.804551	-0.000047
1794	1.7840e+02	2.1560	-4.716619	0.000471	4.708346	0.797615	-0.000047
1795	1.7850e+02	2.1448	-4.757354	0.000409	4.094214	0.693579	-0.000041
1796	1.7860e+02	2.1325	-4.802976	0.000459	4.585520	0.776808	-0.000046
1797	1.7870e+02	2.1272	-4.847784	0.000450	4.503636	0.762937	-0.000045
1798	1.7880e+02	2.1145	-4.890147	0.000426	4.257983	0.721322	-0.000043
1799	1.7890e+02	2.1044	-4.936992	0.000471	4.708346	0.797615	-0.000047
1800	1.7900e+02	2.0937	-4.982207	0.000454	4.544578	0.769872	-0.000045
1801	1.7910e+02	2.0840	-5.027014	0.000450	4.503636	0.762937	-0.000045
1802	1.7920e+02	2.0772	-5.076303	0.000495	4.953999	0.839230	-0.000050
1803	1.7930e+02	2.0629	-5.120296	0.000442	4.421751	0.749065	-0.000044
1804	1.7940e+02	2.0549	-5.164696	0.000446	4.462694	0.756001	-0.000045
1805	1.7950e+02	2.0460	-5.209911	0.000454	4.544578	0.769872	-0.000045
1806	1.7960e+02	2.0353	-5.254719	0.000450	4.503636	0.762937	-0.000045
1807	1.7970e+02	2.0251	-5.304822	0.000504	5.035884	0.853102	-0.000050
1808	1.7980e+02	2.0171	-5.347593	0.000430	4.298925	0.728258	-0.000043
1809	1.7990e+02	2.0037	-5.391179	0.000438	4.380809	0.742129	-0.000044
1810	1.8000e+02	1.9936	-5.438430	0.000475	4.749289	0.804551	-0.000047
1811	1.8009e+02	1.9862	-5.487312	0.000491	4.913057	0.832294	-0.000049
1812	1.8019e+02	1.9791	-5.532119	0.000450	4.503636	0.762937	-0.000045
1813	1.8029e+02	1.9691	-5.573668	0.000418	4.176099	0.707450	-0.000042
1814	1.8039e+02	1.9550	-5.622549	0.000491	4.913057	0.832294	-0.000049
1815	1.8049e+02	1.9450	-5.670616	0.000483	4.831173	0.818423	-0.000048
1816	1.8059e+02	1.9369	-5.713387	0.000430	4.298925	0.728258	-0.000043
1817	1.8069e+02	1.9261	-5.759416	0.000463	4.626462	0.783744	-0.000046
1818	1.8079e+02	1.9157	-5.809927	0.000508	5.076826	0.860038	-0.000051
1819	1.8089e+02	1.9053	-5.857993	0.000483	4.831173	0.818423	-0.000048
1820	1.8099e+02	1.8980	-5.906467	0.000487	4.872115	0.825359	-0.000049
1821	1.8109e+02	1.8824	-5.950053	0.000438	4.380809	0.742129	-0.000044
1822	1.8119e+02	1.8772	-5.995675	0.000459	4.585520	0.776808	-0.000046
1823	1.8129e+02	1.8691	-6.045371	0.000499	4.994941	0.846166	-0.000050
1824	1.8139e+02	1.8549	-6.089771	0.000446	4.462694	0.756001	-0.000045
1825	1.8149e+02	1.8472	-6.138652	0.000491	4.913057	0.832294	-0.000049
1826	1.8159e+02	1.8386	-6.180201	0.000418	4.176099	0.707450	-0.000042
1827	1.8169e+02	1.8279	-6.231934	0.000520	5.199652	0.880845	-0.000052
1828	1.8179e+02	1.8185	-6.275927	0.000442	4.421751	0.749065	-0.000044
1829	1.8189e+02	1.8069	-6.323993	0.000483	4.831173	0.818423	-0.000048
1830	1.8199e+02	1.7960	-6.370838	0.000471	4.708346	0.797615	-0.000047
1831	1.8209e+02	1.7867	-6.422570	0.000520	5.199652	0.880845	-0.000052
1832	1.8218e+02	1.7774	-6.464934	0.000426	4.257983	0.721322	-0.000043
1833	1.8228e+02	1.7660	-6.518703	0.000540	5.404363	0.915524	-0.000054
1834	1.8238e+02	1.7580	-6.567991	0.000495	4.953999	0.839230	-0.000050
1835	1.8248e+02	1.7457	-6.615650	0.000479	4.790231	0.811487	-0.000048
1836	1.8258e+02	1.7368	-6.666568	0.000512	5.117768	0.866973	-0.000051
1837	1.8268e+02	1.7281	-6.716264	0.000499	4.994941	0.846166	-0.000050
1838	1.8278e+02	1.7155	-6.765960	0.000499	4.994941	0.846166	-0.000050
1839	1.8288e+02	1.7068	-6.809953	0.000442	4.421751	0.749065	-0.000044
1840	1.8298e+02	1.6961	-6.863722	0.000540	5.404363	0.915524	-0.000054
1841	1.8308e+02	1.6875	-6.910974	0.000475	4.749289	0.804551	-0.000047
1842	1.8318e+02	1.6788	-6.959447	0.000487	4.872115	0.825359	-0.000049
1843	1.8328e+02	1.6682	-7.007107	0.000479	4.790231	0.811487	-0.000048
1844	1.8338e+02	1.6576	-7.057210	0.000504	5.035884	0.853102	-0.000050
1845	1.8348e+02	1.6452	-7.110979	0.000540	5.404363	0.915524	-0.000054
1846	1.8358e+02	1.6373	-7.154157	0.000434	4.339867	0.735193	-0.000043
1847	1.8368e+02	1.6291	-7.206297	0.000524	5.240594	0.887781	-0.000052
1848	1.8378e+02	1.6171	-7.258437	0.000524	5.240594	0.887781	-0.000052
1849	1.8388e+02	1.6093	-7.306911	0.000487	4.872115	0.825359	-0.000049
1850	1.8398e+02	1.5970	-7.356199	0.000495	4.953999	0.839230	-0.000050
1851	1.8407e+02	1.5884	-7.409561	0.000536	5.363421	0.908588	-0.000054
1852	1.8417e+02	1.5784	-7.455998	0.000467	4.667404	0.790680	-0.000047
1853	1.8427e+02	1.5660	-7.509360	0.000536	5.363421	0.908588	-0.000054
1854	1.8437e+02	1.5567	-7.557426	0.000483	4.831173	0.818423	-0.000048
1855	1.8447e+02	1.5485	-7.605085	0.000479	4.790231	0.811487	-0.000048
1856	1.8457e+02	1.5378	-7.657633	0.000528	5.281536	0.894717	-0.000053
1857	1.8467e+02	1.5273	-7.705699	0.000483	4.831173	0.818423	-0.000048
1858	1.8477e+02	1.5180	-7.752136	0.000467	4.667404	0.790680	-0.000047
1859	1.8487e+02	1.5087	-7.805091	0.000532	5.322479	0.901652	-0.000053
1860	1.8497e+02	1.4970	-7.849898	0.000450	4.503636	0.762937	-0.000045
1861	1.8507e+02	1.4914	-7.900409	0.000508	5.076826	0.860038	-0.000051
1862	1.8517e+02	1.4781	-7.950512	0.000504	5.035884	0.853102	-0.000050
1863	1.8527e+02	1.4669	-7.997356	0.000471	4.708346	0.797615	-0.000047
1864	1.8537e+02	1.4561	-8.050718	0.000536	5.363421	0.908588	-0.000054
1865	1.8547e+02	1.4476	-8.100821	0.000504	5.035884	0.853102	-0.000050
1866	1.8557e+02	1.4419	-8.149702	0.000491	4.913057	0.832294	-0.000049
1867	1.8567e+02	1.4291	-8.196139	0.000467	4.667404	0.790680	-0.000047
1868	1.8577e+02	1.4165	-8.248279	0.000524	5.240594	0.887781	-0.000052
1869	1.8587e+02	1.4069	-8.294716	0.000467	4.667404	0.790680	-0.000047
1870	1.8597e+02	1.3966	-8.341153	0.000467	4.667404	0.790680	-0.000047
1871	1.8606e+02	1.3891	-8.386776	0.000459	4.585520	0.776808	-0.000046
1872	1.8616e+02	1.3778	-8.439730	0.000532	5.322479	0.901652	-0.000053
1873	1.8626e+02	1.3688	-8.488204	0.000487	4.872115	0.825359	-0.000049
1874	1.8636e+02	1.3556	-8.528124	0.000401	4.012330	0.679707	-0.000040
1875	1.8646e+02	1.3453	-8.581486	0.000536	5.363421	0.908588	-0.000054
1876	1.8656e+02	1.3409	-8.629145	0.000479	4.790231	0.811487	-0.000048
1877	1.8666e+02	1.3274	-8.675174	0.000463	4.626462	0.783744	-0.000046
1878	1.8676e+02	1.3203	-8.724870	0.000499	4.994941	0.846166	-0.000050
1879	1.8686e+02	1.3084	-8.772937	0.000483	4.831173	0.818423	-0.000048
1880	1.8696e+02	1.3008	-8.823854	0.000512	5.117768	0.866973	-0.000051
1881	1.8706e+02	1.2878	-8.870291	0.000467	4.667404	0.790680	-0.000047
1882	1.8716e+02	1.2818	-8.913062	0.000430	4.298925	0.728258	-0.000043
1883	1.8726e+02	1.2702	-8.965202	0.000524	5.240594	0.887781	-0.000052
1884	1.8736e+02	1.2614	-9.007158	0.000422	4.217041	0.714386	-0.000042
1885	1.8746e+02	1.2504	-9.052781	0.000459	4.585520	0.776808	-0.000046
1886	1.8756e+02	1.2395	-9.101662	0.000491	4.913057	0.832294	-0.000049
1887	1.8766e+02	1.2306	-9.145655	0.000442	4.421751	0.749065	-0.000044
1888	1.8776e+02	1.2217	-9.194943	0.000495	4.953999	0.839230	-0.000050
1889	1.8786e+02	1.2073	-9.241788	0.000471	4.708346	0.797615	-0.000047
1890	1.8796e+02	1.1995	-9.285373	0.000438	4.380809	0.742129	-0.000044
1891	1.8806e+02	1.1912	-9.333033	0.000479	4.790231	0.811487	-0.000048
1892	1.8815e+02	1.1781	-9.381506	0.000487	4.872115	0.825359	-0.000049
1893	1.8825e+02	1.1701	-9.430795	0.000495	4.953999	0.839230	-0.000050
1894	1.8835e+02	1.1610	-9.478454	0.000479	4.790231	0.811487	-0.000048
1895	1.8845e+02	1.1480	-9.525298	0.000471	4.708346	0.797615	-0.000047
1896	1.8855e+02	1.1417	-9.572550	0.000475	4.749289	0.804551	-0.000047
1897	1.8865e+02	1.1297	-9.623060	0.000508	5.076826	0.860038	-0.000051
1898	1.8875e+02	1.1196	-9.671127	0.000483	4.831173	0.818423	-0.000048
1899	1.8885e+02	1.1111	-9.716749	0.000459	4.585520	0.776808	-0.000046
1900	1.8895e+02	1.1004	-9.764001	0.000475	4.749289	0.804551	-0.000047
1901	1.8905e+02	1.0870	-9.807587	0.000438	4.380809	0.742129	-0.000044
1902	1.8915e+02	1.0799	-9.856875	0.000495	4.953999	0.839230	-0.000050
1903	1.8925e+02	1.0693	-9.906164	0.000495	4.953999	0.839230	-0.000050
1904	1.8935e+02	1.0596	-9.953008	0.000471	4.708346	0.797615	-0.000047
1905	1.8945e+02	1.0533	-9.993742	0.000409	4.094214	0.693579	-0.000041
1906	1.8955e+02	1.0428	-10.047104	0.000536	5.363421	0.908588	-0.000054
1907	1.8965e+02	1.0328	-10.092726	0.000459	4.585520	0.776808	-0.000046
1908	1.8975e+02	1.0191	-10.141200	0.000487	4.872115	0.825359	-0.000049
1909	1.8985e+02	1.0119	-10.188045	0.000471	4.708346	0.797615	-0.000047
1910	1.8995e+02	1.0011	-10.236111	0.000483	4.831173	0.818423	-0.000048
1911	1.9004e+02	0.9908	-10.284177	0.000483	4.831173	0.818423	-0.000048
1912	1.9014e+02	0.9793	-10.330207	0.000463	4.626462	0.783744	-0.000046
1913	1.9024e+02	0.9730	-10.376644	0.000467	4.667404	0.790680	-0.000047
1914	1.9034e+02	0.9624	-10.425118	0.000487	4.872115	0.825359	-0.000049
1915	1.9044e+02	0.9503	-10.474406	0.000495	4.953999	0.839230	-0.000050
1916	1.9054e+02	0.9418	-10.518399	0.000442	4.421751	0.749065	-0.000044
1917	1.9064e+02	0.9298	-10.565244	0.000471	4.708346	0.797615	-0.000047
1918	1.9074e+02	0.9207	-10.608422	0.000434	4.339867	0.735193	-0.000043
1919	1.9084e+02	0.9122	-10.656896	0.000487	4.872115	0.825359	-0.000049
1920	1.9094e+02	0.9025	-10.703333	0.000467	4.667404	0.790680	-0.000047
1921	1.9104e+02	0.8909	-10.749363	0.000463	4.626462	0.783744	-0.000046
1922	1.9114e+02	0.8825	-10.795800	0.000467	4.667404	0.790680	-0.000047
1923	1.9124e+02	0.8745	-10.839793	0.000442	4.421751	0.749065	-0.000044
1924	1.9134e+02	0.8616	-10.892747	0.000532	5.322479	0.901652	-0.000053
1925	1.9144e+02	0.8511	-10.940406	0.000479	4.790231	0.811487	-0.000048
1926	1.9154e+02	0.8412	-10.982363	0.000422	4.217041	0.714386	-0.000042
1927	1.9164e+02	0.8314	-11.032466	0.000504	5.035884	0.853102	-0.000050
1928	1.9174e+02	0.8212	-11.076459	0.000442	4.421751	0.749065	-0.000044
1929	1.9184e+02	0.8097	-11.121674	0.000454	4.544578	0.769872	-0.000045
1930	1.9194e+02	0.8015	-11.171369	0.000499	4.994941	0.846166	-0.000050
1931	1.9203e+02	0.7928	-11.214548	0.000434	4.339867	0.735193	-0.000043
1932	1.9213e+02	0.7842	-11.263022	0.000487	4.872115	0.825359	-0.000049
1933	1.9223e+02	0.7736	-11.311088	0.000483	4.831173	0.818423	-0.000048
1934	1.9233e+02	0.7622	-11.356303	0.000454	4.544578	0.769872	-0.000045
1935	1.9243e+02	0.7551	-11.399481	0.000434	4.339867	0.735193	-0.000043
1936	1.9253e+02	0.7420	-11.445918	0.000467	4.667404	0.790680	-0.000047
1937	1.9263e+02	0.7298	-11.497244	0.000516	5.158710	0.873909	-0.000052
1938	1.9273e+02	0.7246	-11.549383	0.000524	5.240594	0.887781	-0.000052
1939	1.9283e+02	0.7146	-11.590932	0.000418	4.176099	0.707450	-0.000042
1940	1.9293e+02	0.6982	-11.639406	0.000487	4.872115	0.825359	-0.000049
1941	1.9303e+02	0.6938	-11.688695	0.000495	4.953999	0.839230	-0.000050
1942	1.9313e+02	0.6850	-11.735946	0.000475	4.749289	0.804551	-0.000047
1943	1.9323e+02	0.6715	-11.784827	0.000491	4.913057	0.832294	-0.000049
1944	1.9333e+02	0.6608	-11.832894	0.000483	4.831173	0.818423	-0.000048
1945	1.9343e+02	0.6523	-11.879738	0.000471	4.708346	0.797615	-0.000047
1946	1.9353e+02	0.6399	-11.926990	0.000475	4.749289	0.804551	-0.000047
1947	1.9363e+02	0.6327	-11.975056	0.000483	4.831173	0.818423	-0.000048
1948	1.9373e+02	0.6221	-12.024345	0.000495	4.953999	0.839230	-0.000050
1949	1.9383e+02	0.6114	-12.070374	0.000463	4.626462	0.783744	-0.000046
1950	1.9393e+02	0.6036	-12.118441	0.000483	4.831173	0.818423	-0.000048
1951	1.9403e+02	0.5899	-12.169359	0.000512	5.117768	0.866973	-0.000051
1952	1.9412e+02	0.5849	-12.217832	0.000487	4.872115	0.825359	-0.000049
1953	1.9422e+02	0.5730	-12.266306	0.000487	4.872115	0.825359	-0.000049
1954	1.9432e+02	0.5641	-12.316002	0.000499	4.994941	0.846166	-0.000050
1955	1.9442e+02	0.5540	-12.370993	0.000553	5.527189	0.936331	-0.000055
1956	1.9452e+02	0.5406	-12.416208	0.000454	4.544578	0.769872	-0.000045
1957	1.9462e+02	0.5357	-12.467941	0.000520	5.199652	0.880845	-0.000052
1958	1.9472e+02	0.5238	-12.519673	0.000520	5.199652	0.880845	-0.000052
1959	1.9482e+02	0.5132	-12.570998	0.000516	5.158710	0.873909	-0.000052
1960	1.9492e+02	0.5031	-12.621509	0.000508	5.076826	0.860038	-0.000051
1961	1.9502e+02	0.4950	-12.674463	0.000532	5.322479	0.901652	-0.000053
1962	1.9512e+02	0.4826	-12.722937	0.000487	4.872115	0.825359	-0.000049
1963	1.9522e+02	0.4746	-12.773855	0.000512	5.117768	0.866973	-0.000051
1964	1.9532e+02	0.4655	-12.827624	0.000540	5.404363	0.915524	-0.000054
1965	1.9542e+02	0.4514	-12.878542	0.000512	5.117768	0.866973	-0.000051
1966	1.9552e+02	0.4451	-12.929867	0.000516	5.158710	0.873909	-0.000052
1967	1.9562e+02	0.4363	-12.982007	0.000524	5.240594	0.887781	-0.000052
1968	1.9572e+02	0.4219	-13.034962	0.000532	5.322479	0.901652	-0.000053
1969	1.9582e+02	0.4161	-13.084657	0.000499	4.994941	0.846166	-0.000050
1970	1.9592e+02	0.4036	-13.139241	0.000549	5.486247	0.929395	-0.000055
1971	1.9601e+02	0.3946	-13.192603	0.000536	5.363421	0.908588	-0.000054
1972	1.9611e+02	0.3838	-13.243928	0.000516	5.158710	0.873909	-0.000052
1973	1.9621e+02	0.3716	-13.298920	0.000553	5.527189	0.936331	-0.000055
1974	1.9631e+02	0.3623	-13.347393	0.000487	4.872115	0.825359	-0.000049
1975	1.9641e+02	0.3535	-13.405236	0.000581	5.813784	0.984882	-0.000058
1976	1.9651e+02	0.3445	-13.454932	0.000499	4.994941	0.846166	-0.000050
1977	1.9661e+02	0.3334	-13.508294	0.000536	5.363421	0.908588	-0.000054
1978	1.9671e+02	0.3243	-13.560434	0.000524	5.240594	0.887781	-0.000052
1979	1.9681e+02	0.3149	-13.610129	0.000499	4.994941	0.846166	-0.000050
1980	1.9691e+02	0.3045	-13.666343	0.000565	5.650016	0.957139	-0.000056
1981	1.9701e+02	0.2944	-13.715631	0.000495	4.953999	0.839230	-0.000050
1982	1.9711e+02	0.2850	-13.766956	0.000516	5.158710	0.873909	-0.000052
1983	1.9721e+02	0.2753	-13.825614	0.000590	5.895669	0.998753	-0.000059
1984	1.9731e+02	0.2634	-13.872458	0.000471	4.708346	0.797615	-0.000047
1985	1.9741e+02	0.2539	-13.933967	0.000618	6.182264	1.047304	-0.000062
1986	1.9751e+02	0.2481	-13.978774	0.000450	4.503636	0.762937	-0.000045
1987	1.9761e+02	0.2368	-14.039061	0.000606	6.059437	1.026496	-0.000061
1988	1.9771e+02	0.2283	-14.092423	0.000536	5.363421	0.908588	-0.000054
1989	1.9781e+02	0.2164	-14.142119	0.000499	4.994941	0.846166	-0.000050
1990	1.9791e+02	0.2042	-14.197517	0.000557	5.568131	0.943267	-0.000056
1991	1.9800e+02	0.1952	-14.246398	0.000491	4.913057	0.832294	-0.000049
1992	1.9810e+02	0.1876	-14.303426	0.000573	5.731900	0.971010	-0.000057
1993	1.9820e+02	0.1747	-14.355566	0.000524	5.240594	0.887781	-0.000052
1994	1.9830e+02	0.1630	-14.413409	0.000581	5.813784	0.984882	-0.000058
1995	1.9840e+02	0.1578	-14.462290	0.000491	4.913057	0.832294	-0.000049
1996	1.9850e+02	0.1435	-14.514022	0.000520	5.199652	0.880845	-0.000052
1997	1.9860e+02	0.1344	-14.573087	0.000594	5.936611	1.005689	-0.000059
1998	1.9870e+02	0.1247	-14.626449	0.000536	5.363421	0.908588	-0.000054
1999	1.9880e+02	0.1156	-14.682662	0.000565	5.650016	0.957139	-0.000056
2000	1.9890e+02	0.1048	-14.738061	0.000557	5.568131	0.943267	-0.000056
2001	1.9900e+02	0.0949	-14.791015	0.000532	5.322479	0.901652	-0.000053
2002	1.9910e+02	0.0864	-14.846821	0.000561	5.609074	0.950203	-0.000056
2003	1.9920e+02	0.0755	-14.905886	0.000594	5.936611	1.005689	-0.000059
2004	1.9930e+02	0.0665	-14.962507	0.000569	5.690958	0.964074	-0.000057
2005	1.9940e+02	0.0560	-15.015868	0.000536	5.363421	0.908588	-0.000054
2006	1.9950e+02	0.0463	-15.072489	0.000569	5.690958	0.964074	-0.000057
2007	1.9960e+02	0.0342	-15.128295	0.000561	5.609074	0.950203	-0.000056
2008	1.9970e+02	0.0227	-15.183694	0.000557	5.568131	0.943267	-0.000056
2009	1.9980e+02	0.0149	-15.238278	0.000549	5.486247	0.929395	-0.000055
2010	1.9990e+02	0.0043	-15.290417	0.000524	5.240594	0.887781	-0.000052
2011	2.0000e+02	-0.0050	-15.345816	0.000524	5.240594	0.887781	-0.000056

PMax (uC/cm2):	3.93e+01
Pr (uC/cm2):	4.27e+00
-Pr (uC/cm2):	0.00e+00
PLoss (uC/cm2):	0.00e+00
C (Max-Eff) (nF):	3.93e-01
K (Eff):	6.65e+02
Vert. (+/-Pr) Shift (uC/cm2):	2.13e+00
Offset (uC/cm2):	1.96e+01

A (Loop Area - uC/cm2·Volts):	-4.19e-02



Hysteresis Version: 5.48.1 - Radiant Technologies, Inc., 1999 - 9/12/24

