»»»»»»»»»»»»»»»»»»»»»»»»»»»»»»»»»»»» Hysteresis ««««««««««««««««««««««««««««««««««««
»»»  Executed Version:	5.48.1
»»»  Vision Version:	5.48.4 (R)
»»»  Vision Compiled:	9/18/24
»»»  Driver Version:	5.47.0
»»»  Windows Version:	Windows 8 or 8.1
»»»  Processor Information:	x86 (AMD or Intel) - 32 Processors
»»»  Tester Name:	PMF21124-494 (100V)
»»»  Tester S/N:	PMF21124-494
»»»  Internal Amp Type:	100V RevK 270k
»»»  Internal Amp S/N:	iAB2-596/K     
»»»  Execution Count:	1
»»»»»»»»»»»»»»»»»»»»»»»»»»»»»»»»»»»»»»»»»»««««««««««««««««««««««««««««««««««««««««««

Stored:	6/30/2025 - 12:29:12
Configured:	06/30/25 10:19:58 AM
Executed:	06/30/25 12:28:43 PM

»»»»»»»»»»»»»»»»»»»»»»»»»»»»»»»»»»» Sample Info ««««««««««««««««««««««««««««««««««««
Sample Name:	
Lot Name:	
Wafer Name:	
Die Row/Column:	0/0
Capacitor Number:	0
Sample Area (cm2):	1.00e-04
Sample Thickness (microns):	1.50e-01

Amplifier:	Internal

»»»»»»»»»»»»»»»»»»»»»»»»»»»»»»»»»»» Tester Info «««««««««««««««««««««««««««««««««««
Tester Name:	PMF21124-494 (100V)
Tester Serial Number:	PMF21124-494
Return Signal Amp. Level:	1.9 [Index: 2]

»»»»»»»»»»»»»»»»»»»»»»»»»»»»»»»» Hysteresis Info ««««««««««««««««««««««««««««««««««
Task Name:	Hyst-1804
Volts:	10.00
Field:	666.67 (kV/cm)
DCBias:	0.00
DCField:	0.00 (kV/cm)
Hysteresis Period (ms):	2.00e+02
Preset:	Enabled
Preset Delay (ms):	1.00e+03
Profile:	Standard Monopolar

»»»»»»»»»»»»»»»»»»»»»»»»»»»»»»»»»»»»»» Data «««««««««««««««««««««««««««««««««««««««
Points:	2011

Valid Data

Point	Time (ms)	Drive Voltage	Measured Polarization (uC/cm2)	Capacitance (uF)	Normalized Capacitance (uF/cm2)	Dielectric Constant	Instantaneous Current (mA)
   1	0.0000e+00	-0.0040	-20.054085	0.000467	4.666016	0.790444	0.000047
   2	9.9500e-02	0.0060	-20.007648	0.000467	4.666016	0.790444	0.000047
   3	1.9900e-01	0.0168	-19.959989	0.000479	4.788806	0.811246	0.000048
   4	2.9850e-01	0.0236	-19.915588	0.000446	4.461366	0.755776	0.000045
   5	3.9800e-01	0.0333	-19.869151	0.000467	4.666016	0.790444	0.000047
   6	4.9750e-01	0.0438	-19.819863	0.000495	4.952526	0.838981	0.000050
   7	5.9700e-01	0.0547	-19.771389	0.000487	4.870666	0.825113	0.000049
   8	6.9650e-01	0.0683	-19.727803	0.000438	4.379506	0.741908	0.000044
   9	7.9600e-01	0.0750	-19.678108	0.000499	4.993456	0.845914	0.000050
  10	8.9550e-01	0.0864	-19.631263	0.000471	4.706946	0.797378	0.000047
  11	9.9500e-01	0.0961	-19.583197	0.000483	4.829736	0.818179	0.000048
  12	1.0945e+00	0.1023	-19.536760	0.000467	4.666016	0.790444	0.000047
  13	1.1940e+00	0.1148	-19.489915	0.000471	4.706946	0.797378	0.000047
  14	1.2935e+00	0.1212	-19.445108	0.000450	4.502296	0.762710	0.000045
  15	1.3930e+00	0.1379	-19.397856	0.000475	4.747876	0.804312	0.000047
  16	1.4925e+00	0.1435	-19.348160	0.000499	4.993456	0.845914	0.000050
  17	1.5920e+00	0.1554	-19.300501	0.000479	4.788806	0.811246	0.000048
  18	1.6915e+00	0.1650	-19.252842	0.000479	4.788806	0.811246	0.000048
  19	1.7910e+00	0.1749	-19.205183	0.000479	4.788806	0.811246	0.000048
  20	1.8905e+00	0.1829	-19.157931	0.000475	4.747876	0.804312	0.000047
  21	1.9900e+00	0.1950	-19.111902	0.000463	4.625086	0.783511	0.000046
  22	2.0895e+00	0.2061	-19.062206	0.000499	4.993456	0.845914	0.000050
  23	2.1890e+00	0.2125	-19.017398	0.000450	4.502296	0.762710	0.000045
  24	2.2885e+00	0.2246	-18.964851	0.000528	5.279965	0.894450	0.000053
  25	2.3880e+00	0.2347	-18.919636	0.000454	4.543226	0.769643	0.000045
  26	2.4875e+00	0.2438	-18.872791	0.000471	4.706946	0.797378	0.000047
  27	2.5870e+00	0.2554	-18.827576	0.000454	4.543226	0.769643	0.000045
  28	2.6865e+00	0.2653	-18.775844	0.000520	5.198105	0.880583	0.000052
  29	2.7860e+00	0.2766	-18.731036	0.000450	4.502296	0.762710	0.000045
  30	2.8855e+00	0.2853	-18.683784	0.000475	4.747876	0.804312	0.000047
  31	2.9850e+00	0.2908	-18.635311	0.000487	4.870666	0.825113	0.000049
  32	3.0845e+00	0.3037	-18.587244	0.000483	4.829736	0.818179	0.000048
  33	3.1840e+00	0.3139	-18.539993	0.000475	4.747876	0.804312	0.000047
  34	3.2835e+00	0.3220	-18.490297	0.000499	4.993456	0.845914	0.000050
  35	3.3830e+00	0.3342	-18.443860	0.000467	4.666016	0.790444	0.000047
  36	3.4825e+00	0.3439	-18.397423	0.000467	4.666016	0.790444	0.000047
  37	3.5820e+00	0.3543	-18.350171	0.000475	4.747876	0.804312	0.000047
  38	3.6815e+00	0.3614	-18.298438	0.000520	5.198105	0.880583	0.000052
  39	3.7810e+00	0.3721	-18.255260	0.000434	4.338576	0.734975	0.000043
  40	3.8805e+00	0.3831	-18.207194	0.000483	4.829736	0.818179	0.000048
  41	3.9800e+00	0.3948	-18.157905	0.000495	4.952526	0.838981	0.000050
  42	4.0795e+00	0.4041	-18.110654	0.000475	4.747876	0.804312	0.000047
  43	4.1790e+00	0.4144	-18.068697	0.000422	4.215786	0.714174	0.000042
  44	4.2785e+00	0.4237	-18.018594	0.000503	5.034386	0.852848	0.000050
  45	4.3780e+00	0.4360	-17.970120	0.000487	4.870666	0.825113	0.000049
  46	4.4775e+00	0.4397	-17.924091	0.000463	4.625086	0.783511	0.000046
  47	4.5770e+00	0.4547	-17.878876	0.000454	4.543226	0.769643	0.000045
  48	4.6765e+00	0.4622	-17.825514	0.000536	5.361825	0.908318	0.000054
  49	4.7760e+00	0.4732	-17.782743	0.000430	4.297646	0.728041	0.000043
  50	4.8755e+00	0.4816	-17.731418	0.000516	5.157175	0.873649	0.000052
  51	4.9750e+00	0.4934	-17.682536	0.000491	4.911596	0.832047	0.000049
  52	5.0745e+00	0.5019	-17.638136	0.000446	4.461366	0.755776	0.000045
  53	5.1740e+00	0.5145	-17.592514	0.000458	4.584156	0.776577	0.000046
  54	5.2735e+00	0.5244	-17.543633	0.000491	4.911596	0.832047	0.000049
  55	5.3730e+00	0.5332	-17.494752	0.000491	4.911596	0.832047	0.000049
  56	5.4725e+00	0.5400	-17.445870	0.000491	4.911596	0.832047	0.000049
  57	5.5720e+00	0.5506	-17.400655	0.000454	4.543226	0.769643	0.000045
  58	5.6715e+00	0.5605	-17.353404	0.000475	4.747876	0.804312	0.000047
  59	5.7710e+00	0.5713	-17.304930	0.000487	4.870666	0.825113	0.000049
  60	5.8705e+00	0.5827	-17.257271	0.000479	4.788806	0.811246	0.000048
  61	5.9700e+00	0.5928	-17.208390	0.000491	4.911596	0.832047	0.000049
  62	6.0695e+00	0.6026	-17.161545	0.000471	4.706946	0.797378	0.000047
  63	6.1690e+00	0.6121	-17.116330	0.000454	4.543226	0.769643	0.000045
  64	6.2685e+00	0.6225	-17.064598	0.000520	5.198105	0.880583	0.000052
  65	6.3680e+00	0.6319	-17.024678	0.000401	4.011136	0.679505	0.000040
  66	6.4675e+00	0.6418	-16.972946	0.000520	5.198105	0.880583	0.000052
  67	6.5670e+00	0.6550	-16.928545	0.000446	4.461366	0.755776	0.000045
  68	6.6665e+00	0.6618	-16.875998	0.000528	5.279965	0.894450	0.000053
  69	6.7660e+00	0.6742	-16.831191	0.000450	4.502296	0.762710	0.000045
  70	6.8655e+00	0.6841	-16.782717	0.000487	4.870666	0.825113	0.000049
  71	6.9650e+00	0.6911	-16.735872	0.000471	4.706946	0.797378	0.000047
  72	7.0645e+00	0.7030	-16.690657	0.000454	4.543226	0.769643	0.000045
  73	7.1640e+00	0.7128	-16.640962	0.000499	4.993456	0.845914	0.000050
  74	7.2635e+00	0.7238	-16.597376	0.000438	4.379506	0.741908	0.000044
  75	7.3630e+00	0.7319	-16.548902	0.000487	4.870666	0.825113	0.000049
  76	7.4625e+00	0.7417	-16.500428	0.000487	4.870666	0.825113	0.000049
  77	7.5620e+00	0.7515	-16.451955	0.000487	4.870666	0.825113	0.000049
  78	7.6615e+00	0.7615	-16.402666	0.000495	4.952526	0.838981	0.000050
  79	7.7610e+00	0.7704	-16.359081	0.000438	4.379506	0.741908	0.000044
  80	7.8605e+00	0.7812	-16.311014	0.000483	4.829736	0.818179	0.000048
  81	7.9600e+00	0.7912	-16.260504	0.000508	5.075315	0.859782	0.000051
  82	8.0595e+00	0.8027	-16.217325	0.000434	4.338576	0.734975	0.000043
  83	8.1590e+00	0.8097	-16.169259	0.000483	4.829736	0.818179	0.000048
  84	8.2585e+00	0.8221	-16.122822	0.000467	4.666016	0.790444	0.000047
  85	8.3580e+00	0.8328	-16.073941	0.000491	4.911596	0.832047	0.000049
  86	8.4575e+00	0.8431	-16.025467	0.000487	4.870666	0.825113	0.000049
  87	8.5570e+00	0.8530	-15.978215	0.000475	4.747876	0.804312	0.000047
  88	8.6565e+00	0.8622	-15.933000	0.000454	4.543226	0.769643	0.000045
  89	8.7560e+00	0.8746	-15.886156	0.000471	4.706946	0.797378	0.000047
  90	8.8555e+00	0.8817	-15.843385	0.000430	4.297646	0.728041	0.000043
  91	8.9550e+00	0.8907	-15.793282	0.000503	5.034386	0.852848	0.000050
  92	9.0545e+00	0.9029	-15.745623	0.000479	4.788806	0.811246	0.000048
  93	9.1540e+00	0.9111	-15.696334	0.000495	4.952526	0.838981	0.000050
  94	9.2535e+00	0.9241	-15.651934	0.000446	4.461366	0.755776	0.000045
  95	9.3530e+00	0.9313	-15.603460	0.000487	4.870666	0.825113	0.000049
  96	9.4525e+00	0.9434	-15.558652	0.000450	4.502296	0.762710	0.000045
  97	9.5520e+00	0.9517	-15.509771	0.000491	4.911596	0.832047	0.000049
  98	9.6515e+00	0.9605	-15.460890	0.000491	4.911596	0.832047	0.000049
  99	9.7510e+00	0.9712	-15.419749	0.000413	4.133926	0.700306	0.000041
 100	9.8505e+00	0.9815	-15.368423	0.000516	5.157175	0.873649	0.000052
 101	9.9500e+00	0.9906	-15.323616	0.000450	4.502296	0.762710	0.000045
 102	1.0050e+01	0.9978	-15.275549	0.000483	4.829736	0.818179	0.000048
 103	1.0149e+01	1.0114	-15.228298	0.000475	4.747876	0.804312	0.000047
 104	1.0248e+01	1.0214	-15.181453	0.000471	4.706946	0.797378	0.000047
 105	1.0348e+01	1.0301	-15.136646	0.000450	4.502296	0.762710	0.000045
 106	1.0447e+01	1.0402	-15.090208	0.000467	4.666016	0.790444	0.000047
 107	1.0547e+01	1.0509	-15.041735	0.000487	4.870666	0.825113	0.000049
 108	1.0646e+01	1.0613	-14.992854	0.000491	4.911596	0.832047	0.000049
 109	1.0746e+01	1.0694	-14.946824	0.000463	4.625086	0.783511	0.000046
 110	1.0845e+01	1.0822	-14.899165	0.000479	4.788806	0.811246	0.000048
 111	1.0945e+01	1.0883	-14.854357	0.000450	4.502296	0.762710	0.000045
 112	1.1044e+01	1.1028	-14.805883	0.000487	4.870666	0.825113	0.000049
 113	1.1144e+01	1.1134	-14.757817	0.000483	4.829736	0.818179	0.000048
 114	1.1243e+01	1.1193	-14.712195	0.000458	4.584156	0.776577	0.000046
 115	1.1343e+01	1.1296	-14.669424	0.000430	4.297646	0.728041	0.000043
 116	1.1443e+01	1.1376	-14.621357	0.000483	4.829736	0.818179	0.000048
 117	1.1542e+01	1.1488	-14.572476	0.000491	4.911596	0.832047	0.000049
 118	1.1642e+01	1.1596	-14.528483	0.000442	4.420436	0.748842	0.000044
 119	1.1741e+01	1.1696	-14.482861	0.000458	4.584156	0.776577	0.000046
 120	1.1841e+01	1.1796	-14.435609	0.000475	4.747876	0.804312	0.000047
 121	1.1940e+01	1.1922	-14.385913	0.000499	4.993456	0.845914	0.000050
 122	1.2040e+01	1.2011	-14.342328	0.000438	4.379506	0.741908	0.000044
 123	1.2139e+01	1.2110	-14.293854	0.000487	4.870666	0.825113	0.000049
 124	1.2239e+01	1.2186	-14.245380	0.000487	4.870666	0.825113	0.000049
 125	1.2338e+01	1.2325	-14.198128	0.000475	4.747876	0.804312	0.000047
 126	1.2438e+01	1.2403	-14.152913	0.000454	4.543226	0.769643	0.000045
 127	1.2537e+01	1.2493	-14.109328	0.000438	4.379506	0.741908	0.000044
 128	1.2636e+01	1.2601	-14.063705	0.000458	4.584156	0.776577	0.000046
 129	1.2736e+01	1.2683	-14.013602	0.000503	5.034386	0.852848	0.000050
 130	1.2835e+01	1.2782	-13.973275	0.000405	4.052066	0.686439	0.000041
 131	1.2935e+01	1.2858	-13.924394	0.000491	4.911596	0.832047	0.000049
 132	1.3034e+01	1.3006	-13.882030	0.000426	4.256716	0.721107	0.000043
 133	1.3134e+01	1.3093	-13.832335	0.000499	4.993456	0.845914	0.000050
 134	1.3233e+01	1.3186	-13.785898	0.000467	4.666016	0.790444	0.000047
 135	1.3333e+01	1.3284	-13.739868	0.000463	4.625086	0.783511	0.000046
 136	1.3432e+01	1.3384	-13.695060	0.000450	4.502296	0.762710	0.000045
 137	1.3532e+01	1.3506	-13.648216	0.000471	4.706946	0.797378	0.000047
 138	1.3632e+01	1.3578	-13.601371	0.000471	4.706946	0.797378	0.000047
 139	1.3731e+01	1.3686	-13.552083	0.000495	4.952526	0.838981	0.000050
 140	1.3831e+01	1.3777	-13.508090	0.000442	4.420436	0.748842	0.000044
 141	1.3930e+01	1.3882	-13.464504	0.000438	4.379506	0.741908	0.000044
 142	1.4030e+01	1.3988	-13.415623	0.000491	4.911596	0.832047	0.000049
 143	1.4129e+01	1.4072	-13.370816	0.000450	4.502296	0.762710	0.000045
 144	1.4229e+01	1.4173	-13.323971	0.000471	4.706946	0.797378	0.000047
 145	1.4328e+01	1.4285	-13.279978	0.000442	4.420436	0.748842	0.000044
 146	1.4428e+01	1.4394	-13.232319	0.000479	4.788806	0.811246	0.000048
 147	1.4527e+01	1.4460	-13.186697	0.000458	4.584156	0.776577	0.000046
 148	1.4627e+01	1.4565	-13.140667	0.000463	4.625086	0.783511	0.000046
 149	1.4726e+01	1.4669	-13.094637	0.000463	4.625086	0.783511	0.000046
 150	1.4825e+01	1.4782	-13.044534	0.000503	5.034386	0.852848	0.000050
 151	1.4925e+01	1.4881	-13.003393	0.000413	4.133926	0.700306	0.000041
 152	1.5024e+01	1.4983	-12.956141	0.000475	4.747876	0.804312	0.000047
 153	1.5124e+01	1.5074	-12.907667	0.000487	4.870666	0.825113	0.000049
 154	1.5223e+01	1.5200	-12.866118	0.000417	4.174856	0.707240	0.000042
 155	1.5323e+01	1.5264	-12.817644	0.000487	4.870666	0.825113	0.000049
 156	1.5422e+01	1.5379	-12.773244	0.000446	4.461366	0.755776	0.000045
 157	1.5522e+01	1.5472	-12.728436	0.000450	4.502296	0.762710	0.000045
 158	1.5621e+01	1.5576	-12.684036	0.000446	4.461366	0.755776	0.000045
 159	1.5721e+01	1.5675	-12.634340	0.000499	4.993456	0.845914	0.000050
 160	1.5820e+01	1.5778	-12.591569	0.000430	4.297646	0.728041	0.000043
 161	1.5920e+01	1.5881	-12.541873	0.000499	4.993456	0.845914	0.000050
 162	1.6020e+01	1.5983	-12.500325	0.000417	4.174856	0.707240	0.000042
 163	1.6119e+01	1.6062	-12.456739	0.000438	4.379506	0.741908	0.000044
 164	1.6218e+01	1.6192	-12.407450	0.000495	4.952526	0.838981	0.000050
 165	1.6318e+01	1.6299	-12.360606	0.000471	4.706946	0.797378	0.000047
 166	1.6418e+01	1.6419	-12.315391	0.000454	4.543226	0.769643	0.000045
 167	1.6517e+01	1.6463	-12.270583	0.000450	4.502296	0.762710	0.000045
 168	1.6616e+01	1.6575	-12.223739	0.000471	4.706946	0.797378	0.000047
 169	1.6716e+01	1.6677	-12.179746	0.000442	4.420436	0.748842	0.000044
 170	1.6816e+01	1.6765	-12.132494	0.000475	4.747876	0.804312	0.000047
 171	1.6915e+01	1.6882	-12.088094	0.000446	4.461366	0.755776	0.000045
 172	1.7015e+01	1.6965	-12.044916	0.000434	4.338576	0.734975	0.000043
 173	1.7114e+01	1.7068	-11.996849	0.000483	4.829736	0.818179	0.000048
 174	1.7213e+01	1.7174	-11.952856	0.000442	4.420436	0.748842	0.000044
 175	1.7313e+01	1.7259	-11.908048	0.000450	4.502296	0.762710	0.000045
 176	1.7413e+01	1.7378	-11.860797	0.000475	4.747876	0.804312	0.000047
 177	1.7512e+01	1.7463	-11.819248	0.000417	4.174856	0.707240	0.000042
 178	1.7611e+01	1.7577	-11.769959	0.000495	4.952526	0.838981	0.000050
 179	1.7711e+01	1.7679	-11.726374	0.000438	4.379506	0.741908	0.000044
 180	1.7811e+01	1.7760	-11.679122	0.000475	4.747876	0.804312	0.000047
 181	1.7910e+01	1.7864	-11.640017	0.000393	3.929276	0.665637	0.000039
 182	1.8009e+01	1.7978	-11.591136	0.000491	4.911596	0.832047	0.000049
 183	1.8109e+01	1.8058	-11.545921	0.000454	4.543226	0.769643	0.000045
 184	1.8209e+01	1.8151	-11.500299	0.000458	4.584156	0.776577	0.000046
 185	1.8308e+01	1.8266	-11.453862	0.000467	4.666016	0.790444	0.000047
 186	1.8407e+01	1.8374	-11.409869	0.000442	4.420436	0.748842	0.000044
 187	1.8507e+01	1.8460	-11.367098	0.000430	4.297646	0.728041	0.000043
 188	1.8607e+01	1.8542	-11.320253	0.000471	4.706946	0.797378	0.000047
 189	1.8706e+01	1.8659	-11.274223	0.000463	4.625086	0.783511	0.000046
 190	1.8805e+01	1.8778	-11.231453	0.000430	4.297646	0.728041	0.000043
 191	1.8905e+01	1.8889	-11.182979	0.000487	4.870666	0.825113	0.000049
 192	1.9005e+01	1.8964	-11.141022	0.000422	4.215786	0.714174	0.000042
 193	1.9104e+01	1.9054	-11.092956	0.000483	4.829736	0.818179	0.000048
 194	1.9203e+01	1.9145	-11.048556	0.000446	4.461366	0.755776	0.000045
 195	1.9303e+01	1.9260	-11.007414	0.000413	4.133926	0.700306	0.000041
 196	1.9402e+01	1.9350	-10.959755	0.000479	4.788806	0.811246	0.000048
 197	1.9502e+01	1.9456	-10.916577	0.000434	4.338576	0.734975	0.000043
 198	1.9602e+01	1.9549	-10.871362	0.000454	4.543226	0.769643	0.000045
 199	1.9701e+01	1.9666	-10.827369	0.000442	4.420436	0.748842	0.000044
 200	1.9800e+01	1.9794	-10.782154	0.000454	4.543226	0.769643	0.000045
 201	1.9900e+01	1.9866	-10.738161	0.000442	4.420436	0.748842	0.000044
 202	2.0000e+01	1.9958	-10.691316	0.000471	4.706946	0.797378	0.000047
 203	2.0099e+01	2.0049	-10.648953	0.000426	4.256716	0.721107	0.000043
 204	2.0198e+01	2.0178	-10.602923	0.000463	4.625086	0.783511	0.000046
 205	2.0298e+01	2.0275	-10.558930	0.000442	4.420436	0.748842	0.000044
 206	2.0398e+01	2.0361	-10.512900	0.000463	4.625086	0.783511	0.000046
 207	2.0497e+01	2.0462	-10.469722	0.000434	4.338576	0.734975	0.000043
 208	2.0596e+01	2.0570	-10.424100	0.000458	4.584156	0.776577	0.000046
 209	2.0696e+01	2.0638	-10.381736	0.000426	4.256716	0.721107	0.000043
 210	2.0796e+01	2.0754	-10.335299	0.000467	4.666016	0.790444	0.000047
 211	2.0895e+01	2.0838	-10.290899	0.000446	4.461366	0.755776	0.000045
 212	2.0994e+01	2.0943	-10.248942	0.000422	4.215786	0.714174	0.000042
 213	2.1094e+01	2.1053	-10.198432	0.000508	5.075315	0.859782	0.000051
 214	2.1194e+01	2.1156	-10.158512	0.000401	4.011136	0.679505	0.000040
 215	2.1293e+01	2.1256	-10.118593	0.000401	4.011136	0.679505	0.000040
 216	2.1392e+01	2.1333	-10.068082	0.000508	5.075315	0.859782	0.000051
 217	2.1492e+01	2.1442	-10.023274	0.000450	4.502296	0.762710	0.000045
 218	2.1591e+01	2.1554	-9.979689	0.000438	4.379506	0.741908	0.000044
 219	2.1691e+01	2.1645	-9.943843	0.000360	3.601837	0.610168	0.000036
 220	2.1791e+01	2.1746	-9.895369	0.000487	4.870666	0.825113	0.000049
 221	2.1890e+01	2.1866	-9.848117	0.000475	4.747876	0.804312	0.000047
 222	2.1989e+01	2.1937	-9.806568	0.000417	4.174856	0.707240	0.000042
 223	2.2089e+01	2.2056	-9.758909	0.000479	4.788806	0.811246	0.000048
 224	2.2189e+01	2.2169	-9.715324	0.000438	4.379506	0.741908	0.000044
 225	2.2288e+01	2.2243	-9.673367	0.000422	4.215786	0.714174	0.000042
 226	2.2387e+01	2.2337	-9.628152	0.000454	4.543226	0.769643	0.000045
 227	2.2487e+01	2.2452	-9.583345	0.000450	4.502296	0.762710	0.000045
 228	2.2587e+01	2.2517	-9.538130	0.000454	4.543226	0.769643	0.000045
 229	2.2686e+01	2.2649	-9.498210	0.000401	4.011136	0.679505	0.000040
 230	2.2785e+01	2.2767	-9.455439	0.000430	4.297646	0.728041	0.000043
 231	2.2885e+01	2.2851	-9.409002	0.000467	4.666016	0.790444	0.000047
 232	2.2985e+01	2.2913	-9.368268	0.000409	4.092996	0.693372	0.000041
 233	2.3084e+01	2.3061	-9.317757	0.000508	5.075315	0.859782	0.000051
 234	2.3183e+01	2.3129	-9.278245	0.000397	3.970206	0.672571	0.000040
 235	2.3283e+01	2.3241	-9.234252	0.000442	4.420436	0.748842	0.000044
 236	2.3383e+01	2.3329	-9.189037	0.000454	4.543226	0.769643	0.000045
 237	2.3482e+01	2.3431	-9.149932	0.000393	3.929276	0.665637	0.000039
 238	2.3581e+01	2.3551	-9.102273	0.000479	4.788806	0.811246	0.000048
 239	2.3681e+01	2.3628	-9.063168	0.000393	3.929276	0.665637	0.000039
 240	2.3780e+01	2.3733	-9.016731	0.000467	4.666016	0.790444	0.000047
 241	2.3880e+01	2.3843	-8.972331	0.000446	4.461366	0.755776	0.000045
 242	2.3980e+01	2.3949	-8.929152	0.000434	4.338576	0.734975	0.000043
 243	2.4079e+01	2.4049	-8.883530	0.000458	4.584156	0.776577	0.000046
 244	2.4178e+01	2.4138	-8.841574	0.000422	4.215786	0.714174	0.000042
 245	2.4278e+01	2.4223	-8.797988	0.000438	4.379506	0.741908	0.000044
 246	2.4378e+01	2.4346	-8.756032	0.000422	4.215786	0.714174	0.000042
 247	2.4477e+01	2.4435	-8.712039	0.000442	4.420436	0.748842	0.000044
 248	2.4576e+01	2.4563	-8.668046	0.000442	4.420436	0.748842	0.000044
 249	2.4676e+01	2.4619	-8.625275	0.000430	4.297646	0.728041	0.000043
 250	2.4776e+01	2.4746	-8.579652	0.000458	4.584156	0.776577	0.000046
 251	2.4875e+01	2.4855	-8.538104	0.000417	4.174856	0.707240	0.000042
 252	2.4974e+01	2.4934	-8.494111	0.000442	4.420436	0.748842	0.000044
 253	2.5074e+01	2.5008	-8.453784	0.000405	4.052066	0.686439	0.000041
 254	2.5174e+01	2.5121	-8.413049	0.000409	4.092996	0.693372	0.000041
 255	2.5273e+01	2.5274	-8.366612	0.000467	4.666016	0.790444	0.000047
 256	2.5372e+01	2.5343	-8.323841	0.000430	4.297646	0.728041	0.000043
 257	2.5472e+01	2.5418	-8.283514	0.000405	4.052066	0.686439	0.000041
 258	2.5572e+01	2.5521	-8.239521	0.000442	4.420436	0.748842	0.000044
 259	2.5671e+01	2.5636	-8.196750	0.000430	4.297646	0.728041	0.000043
 260	2.5770e+01	2.5715	-8.150313	0.000467	4.666016	0.790444	0.000047
 261	2.5870e+01	2.5830	-8.109579	0.000409	4.092996	0.693372	0.000041
 262	2.5970e+01	2.5927	-8.068030	0.000417	4.174856	0.707240	0.000042
 263	2.6069e+01	2.6035	-8.024852	0.000434	4.338576	0.734975	0.000043
 264	2.6169e+01	2.6122	-7.983303	0.000417	4.174856	0.707240	0.000042
 265	2.6268e+01	2.6219	-7.938088	0.000454	4.543226	0.769643	0.000045
 266	2.6367e+01	2.6323	-7.895317	0.000430	4.297646	0.728041	0.000043
 267	2.6467e+01	2.6435	-7.852139	0.000434	4.338576	0.734975	0.000043
 268	2.6567e+01	2.6517	-7.810182	0.000422	4.215786	0.714174	0.000042
 269	2.6666e+01	2.6628	-7.766597	0.000438	4.379506	0.741908	0.000044
 270	2.6765e+01	2.6721	-7.725048	0.000417	4.174856	0.707240	0.000042
 271	2.6865e+01	2.6831	-7.681870	0.000434	4.338576	0.734975	0.000043
 272	2.6965e+01	2.6900	-7.639506	0.000426	4.256716	0.721107	0.000043
 273	2.7064e+01	2.7030	-7.597142	0.000426	4.256716	0.721107	0.000043
 274	2.7163e+01	2.7122	-7.553964	0.000434	4.338576	0.734975	0.000043
 275	2.7263e+01	2.7245	-7.513230	0.000409	4.092996	0.693372	0.000041
 276	2.7363e+01	2.7312	-7.468015	0.000454	4.543226	0.769643	0.000045
 277	2.7462e+01	2.7416	-7.424836	0.000434	4.338576	0.734975	0.000043
 278	2.7561e+01	2.7512	-7.384917	0.000401	4.011136	0.679505	0.000040
 279	2.7661e+01	2.7633	-7.339294	0.000458	4.584156	0.776577	0.000046
 280	2.7761e+01	2.7721	-7.299782	0.000397	3.970206	0.672571	0.000040
 281	2.7860e+01	2.7831	-7.255382	0.000446	4.461366	0.755776	0.000045
 282	2.7959e+01	2.7897	-7.216684	0.000389	3.888347	0.658704	0.000039
 283	2.8059e+01	2.8002	-7.169840	0.000471	4.706946	0.797378	0.000047
 284	2.8159e+01	2.8109	-7.125847	0.000442	4.420436	0.748842	0.000044
 285	2.8258e+01	2.8197	-7.087557	0.000385	3.847417	0.651770	0.000038
 286	2.8358e+01	2.8333	-7.044378	0.000434	4.338576	0.734975	0.000043
 287	2.8457e+01	2.8388	-7.005274	0.000393	3.929276	0.665637	0.000039
 288	2.8556e+01	2.8488	-6.960873	0.000446	4.461366	0.755776	0.000045
 289	2.8656e+01	2.8627	-6.918917	0.000422	4.215786	0.714174	0.000042
 290	2.8756e+01	2.8738	-6.876146	0.000430	4.297646	0.728041	0.000043
 291	2.8855e+01	2.8811	-6.834190	0.000422	4.215786	0.714174	0.000042
 292	2.8954e+01	2.8910	-6.796307	0.000381	3.806487	0.644836	0.000038
 293	2.9054e+01	2.9016	-6.751499	0.000450	4.502296	0.762710	0.000045
 294	2.9154e+01	2.9089	-6.710765	0.000409	4.092996	0.693372	0.000041
 295	2.9253e+01	2.9202	-6.668809	0.000422	4.215786	0.714174	0.000042
 296	2.9352e+01	2.9290	-6.625223	0.000438	4.379506	0.741908	0.000044
 297	2.9452e+01	2.9400	-6.580415	0.000450	4.502296	0.762710	0.000045
 298	2.9552e+01	2.9502	-6.538459	0.000422	4.215786	0.714174	0.000042
 299	2.9651e+01	2.9594	-6.503020	0.000356	3.560907	0.603234	0.000036
 300	2.9750e+01	2.9693	-6.459027	0.000442	4.420436	0.748842	0.000044
 301	2.9850e+01	2.9836	-6.417071	0.000422	4.215786	0.714174	0.000042
 302	2.9950e+01	2.9897	-6.373893	0.000434	4.338576	0.734975	0.000043
 303	3.0049e+01	3.0025	-6.331936	0.000422	4.215786	0.714174	0.000042
 304	3.0148e+01	3.0116	-6.293646	0.000385	3.847417	0.651770	0.000038
 305	3.0248e+01	3.0224	-6.252504	0.000413	4.133926	0.700306	0.000041
 306	3.0348e+01	3.0285	-6.209734	0.000430	4.297646	0.728041	0.000043
 307	3.0447e+01	3.0418	-6.166148	0.000438	4.379506	0.741908	0.000044
 308	3.0547e+01	3.0499	-6.124599	0.000417	4.174856	0.707240	0.000042
 309	3.0646e+01	3.0605	-6.081421	0.000434	4.338576	0.734975	0.000043
 310	3.0745e+01	3.0712	-6.042316	0.000393	3.929276	0.665637	0.000039
 311	3.0845e+01	3.0798	-6.002396	0.000401	4.011136	0.679505	0.000040
 312	3.0945e+01	3.0933	-5.959218	0.000434	4.338576	0.734975	0.000043
 313	3.1044e+01	3.1017	-5.918484	0.000409	4.092996	0.693372	0.000041
 314	3.1143e+01	3.1106	-5.878971	0.000397	3.970206	0.672571	0.000040
 315	3.1243e+01	3.1194	-5.836608	0.000426	4.256716	0.721107	0.000043
 316	3.1343e+01	3.1294	-5.793022	0.000438	4.379506	0.741908	0.000044
 317	3.1442e+01	3.1400	-5.753510	0.000397	3.970206	0.672571	0.000040
 318	3.1541e+01	3.1466	-5.713590	0.000401	4.011136	0.679505	0.000040
 319	3.1641e+01	3.1616	-5.670819	0.000430	4.297646	0.728041	0.000043
 320	3.1741e+01	3.1722	-5.632936	0.000381	3.806487	0.644836	0.000038
 321	3.1840e+01	3.1774	-5.588943	0.000442	4.420436	0.748842	0.000044
 322	3.1939e+01	3.1905	-5.551468	0.000377	3.765557	0.637903	0.000038
 323	3.2039e+01	3.2002	-5.510326	0.000413	4.133926	0.700306	0.000041
 324	3.2139e+01	3.2081	-5.468777	0.000417	4.174856	0.707240	0.000042
 325	3.2238e+01	3.2189	-5.428451	0.000405	4.052066	0.686439	0.000041
 326	3.2337e+01	3.2299	-5.383235	0.000454	4.543226	0.769643	0.000045
 327	3.2437e+01	3.2403	-5.344538	0.000389	3.888347	0.658704	0.000039
 328	3.2536e+01	3.2510	-5.304618	0.000401	4.011136	0.679505	0.000040
 329	3.2636e+01	3.2590	-5.261440	0.000434	4.338576	0.734975	0.000043
 330	3.2736e+01	3.2687	-5.220706	0.000409	4.092996	0.693372	0.000041
 331	3.2835e+01	3.2813	-5.181194	0.000397	3.970206	0.672571	0.000040
 332	3.2934e+01	3.2895	-5.142496	0.000389	3.888347	0.658704	0.000039
 333	3.3034e+01	3.2990	-5.099318	0.000434	4.338576	0.734975	0.000043
 334	3.3133e+01	3.3089	-5.058583	0.000409	4.092996	0.693372	0.000041
 335	3.3233e+01	3.3199	-5.016220	0.000426	4.256716	0.721107	0.000043
 336	3.3333e+01	3.3286	-4.977522	0.000389	3.888347	0.658704	0.000039
 337	3.3432e+01	3.3410	-4.939639	0.000381	3.806487	0.644836	0.000038
 338	3.3532e+01	3.3508	-4.894424	0.000454	4.543226	0.769643	0.000045
 339	3.3631e+01	3.3598	-4.858986	0.000356	3.560907	0.603234	0.000036
 340	3.3730e+01	3.3674	-4.819066	0.000401	4.011136	0.679505	0.000040
 341	3.3830e+01	3.3791	-4.774258	0.000450	4.502296	0.762710	0.000045
 342	3.3929e+01	3.3884	-4.738412	0.000360	3.601837	0.610168	0.000036
 343	3.4029e+01	3.3994	-4.692383	0.000463	4.625086	0.783511	0.000046
 344	3.4129e+01	3.4097	-4.653685	0.000389	3.888347	0.658704	0.000039
 345	3.4228e+01	3.4154	-4.611729	0.000422	4.215786	0.714174	0.000042
 346	3.4328e+01	3.4299	-4.577512	0.000344	3.438117	0.582433	0.000034
 347	3.4427e+01	3.4386	-4.534741	0.000430	4.297646	0.728041	0.000043
 348	3.4526e+01	3.4493	-4.492377	0.000426	4.256716	0.721107	0.000043
 349	3.4626e+01	3.4588	-4.454902	0.000377	3.765557	0.637903	0.000038
 350	3.4725e+01	3.4673	-4.412538	0.000426	4.256716	0.721107	0.000043
 351	3.4825e+01	3.4810	-4.377099	0.000356	3.560907	0.603234	0.000036
 352	3.4925e+01	3.4871	-4.335143	0.000422	4.215786	0.714174	0.000042
 353	3.5024e+01	3.4991	-4.294002	0.000413	4.133926	0.700306	0.000041
 354	3.5123e+01	3.5110	-4.250009	0.000442	4.420436	0.748842	0.000044
 355	3.5223e+01	3.5157	-4.213348	0.000368	3.683697	0.624035	0.000037
 356	3.5322e+01	3.5258	-4.174650	0.000389	3.888347	0.658704	0.000039
 357	3.5422e+01	3.5372	-4.133916	0.000409	4.092996	0.693372	0.000041
 358	3.5522e+01	3.5482	-4.092774	0.000413	4.133926	0.700306	0.000041
 359	3.5621e+01	3.5577	-4.053669	0.000393	3.929276	0.665637	0.000039
 360	3.5721e+01	3.5680	-4.016194	0.000377	3.765557	0.637903	0.000038
 361	3.5820e+01	3.5760	-3.973423	0.000430	4.297646	0.728041	0.000043
 362	3.5919e+01	3.5880	-3.934318	0.000393	3.929276	0.665637	0.000039
 363	3.6019e+01	3.5983	-3.895620	0.000389	3.888347	0.658704	0.000039
 364	3.6118e+01	3.6091	-3.854072	0.000417	4.174856	0.707240	0.000042
 365	3.6218e+01	3.6175	-3.814967	0.000393	3.929276	0.665637	0.000039
 366	3.6318e+01	3.6301	-3.773010	0.000422	4.215786	0.714174	0.000042
 367	3.6417e+01	3.6377	-3.737572	0.000356	3.560907	0.603234	0.000036
 368	3.6517e+01	3.6465	-3.692764	0.000450	4.502296	0.762710	0.000045
 369	3.6616e+01	3.6593	-3.657732	0.000352	3.519977	0.596300	0.000035
 370	3.6715e+01	3.6662	-3.616184	0.000417	4.174856	0.707240	0.000042
 371	3.6815e+01	3.6796	-3.575857	0.000405	4.052066	0.686439	0.000041
 372	3.6914e+01	3.6846	-3.536752	0.000393	3.929276	0.665637	0.000039
 373	3.7014e+01	3.7014	-3.497647	0.000393	3.929276	0.665637	0.000039
 374	3.7114e+01	3.7081	-3.459357	0.000385	3.847417	0.651770	0.000038
 375	3.7213e+01	3.7166	-3.417400	0.000422	4.215786	0.714174	0.000042
 376	3.7313e+01	3.7293	-3.379925	0.000377	3.765557	0.637903	0.000038
 377	3.7412e+01	3.7392	-3.338376	0.000417	4.174856	0.707240	0.000042
 378	3.7511e+01	3.7480	-3.302937	0.000356	3.560907	0.603234	0.000036
 379	3.7611e+01	3.7595	-3.265054	0.000381	3.806487	0.644836	0.000038
 380	3.7711e+01	3.7666	-3.225949	0.000393	3.929276	0.665637	0.000039
 381	3.7810e+01	3.7769	-3.184808	0.000413	4.133926	0.700306	0.000041
 382	3.7910e+01	3.7844	-3.145296	0.000397	3.970206	0.672571	0.000040
 383	3.8009e+01	3.7956	-3.108227	0.000372	3.724627	0.630969	0.000037
 384	3.8108e+01	3.8055	-3.067493	0.000409	4.092996	0.693372	0.000041
 385	3.8208e+01	3.8163	-3.027166	0.000405	4.052066	0.686439	0.000041
 386	3.8307e+01	3.8287	-2.989691	0.000377	3.765557	0.637903	0.000038
 387	3.8407e+01	3.8372	-2.953030	0.000368	3.683697	0.624035	0.000037
 388	3.8507e+01	3.8445	-2.915147	0.000381	3.806487	0.644836	0.000038
 389	3.8606e+01	3.8590	-2.873598	0.000417	4.174856	0.707240	0.000042
 390	3.8706e+01	3.8659	-2.833678	0.000401	4.011136	0.679505	0.000040
 391	3.8805e+01	3.8757	-2.794166	0.000397	3.970206	0.672571	0.000040
 392	3.8904e+01	3.8859	-2.760764	0.000336	3.356257	0.568565	0.000034
 393	3.9004e+01	3.8940	-2.717178	0.000438	4.379506	0.741908	0.000044
 394	3.9103e+01	3.9050	-2.678888	0.000385	3.847417	0.651770	0.000038
 395	3.9203e+01	3.9186	-2.643449	0.000356	3.560907	0.603234	0.000036
 396	3.9303e+01	3.9259	-2.599864	0.000438	4.379506	0.741908	0.000044
 397	3.9402e+01	3.9374	-2.561574	0.000385	3.847417	0.651770	0.000038
 398	3.9502e+01	3.9468	-2.526950	0.000348	3.479047	0.589366	0.000035
 399	3.9601e+01	3.9558	-2.480105	0.000471	4.706946	0.797378	0.000047
 400	3.9700e+01	3.9678	-2.446703	0.000336	3.356257	0.568565	0.000034
 401	3.9800e+01	3.9773	-2.406376	0.000405	4.052066	0.686439	0.000041
 402	3.9900e+01	3.9852	-2.370530	0.000360	3.601837	0.610168	0.000036
 403	3.9999e+01	3.9980	-2.329796	0.000409	4.092996	0.693372	0.000041
 404	4.0099e+01	4.0051	-2.292320	0.000377	3.765557	0.637903	0.000038
 405	4.0198e+01	4.0131	-2.250771	0.000417	4.174856	0.707240	0.000042
 406	4.0297e+01	4.0272	-2.214518	0.000364	3.642767	0.617101	0.000036
 407	4.0397e+01	4.0356	-2.176228	0.000385	3.847417	0.651770	0.000038
 408	4.0496e+01	4.0476	-2.139159	0.000372	3.724627	0.630969	0.000037
 409	4.0596e+01	4.0551	-2.098018	0.000413	4.133926	0.700306	0.000041
 410	4.0696e+01	4.0672	-2.061764	0.000364	3.642767	0.617101	0.000036
 411	4.0795e+01	4.0775	-2.021030	0.000409	4.092996	0.693372	0.000041
 412	4.0895e+01	4.0855	-1.984777	0.000364	3.642767	0.617101	0.000036
 413	4.0994e+01	4.0942	-1.946486	0.000385	3.847417	0.651770	0.000038
 414	4.1093e+01	4.1047	-1.909418	0.000372	3.724627	0.630969	0.000037
 415	4.1193e+01	4.1161	-1.871128	0.000385	3.847417	0.651770	0.000038
 416	4.1292e+01	4.1282	-1.831208	0.000401	4.011136	0.679505	0.000040
 417	4.1392e+01	4.1338	-1.790882	0.000405	4.052066	0.686439	0.000041
 418	4.1492e+01	4.1471	-1.756665	0.000344	3.438117	0.582433	0.000034
 419	4.1591e+01	4.1547	-1.718375	0.000385	3.847417	0.651770	0.000038
 420	4.1691e+01	4.1683	-1.682121	0.000364	3.642767	0.617101	0.000036
 421	4.1790e+01	4.1775	-1.639350	0.000430	4.297646	0.728041	0.000043
 422	4.1889e+01	4.1851	-1.609614	0.000299	2.987887	0.506162	0.000030
 423	4.1989e+01	4.1938	-1.564399	0.000454	4.543226	0.769643	0.000045
 424	4.2089e+01	4.2028	-1.529775	0.000348	3.479047	0.589366	0.000035
 425	4.2188e+01	4.2120	-1.493521	0.000364	3.642767	0.617101	0.000036
 426	4.2288e+01	4.2268	-1.451158	0.000426	4.256716	0.721107	0.000043
 427	4.2387e+01	4.2348	-1.415312	0.000360	3.601837	0.610168	0.000036
 428	4.2486e+01	4.2440	-1.374985	0.000405	4.052066	0.686439	0.000041
 429	4.2586e+01	4.2557	-1.339546	0.000356	3.560907	0.603234	0.000036
 430	4.2685e+01	4.2657	-1.300441	0.000393	3.929276	0.665637	0.000039
 431	4.2785e+01	4.2760	-1.262966	0.000377	3.765557	0.637903	0.000038
 432	4.2885e+01	4.2844	-1.226712	0.000364	3.642767	0.617101	0.000036
 433	4.2984e+01	4.2920	-1.188422	0.000385	3.847417	0.651770	0.000038
 434	4.3084e+01	4.3023	-1.149724	0.000389	3.888347	0.658704	0.000039
 435	4.3183e+01	4.3163	-1.113878	0.000360	3.601837	0.610168	0.000036
 436	4.3282e+01	4.3223	-1.073144	0.000409	4.092996	0.693372	0.000041
 437	4.3382e+01	4.3342	-1.037705	0.000356	3.560907	0.603234	0.000036
 438	4.3481e+01	4.3422	-0.999822	0.000381	3.806487	0.644836	0.000038
 439	4.3581e+01	4.3568	-0.961939	0.000381	3.806487	0.644836	0.000038
 440	4.3681e+01	4.3658	-0.924057	0.000381	3.806487	0.644836	0.000038
 441	4.3780e+01	4.3752	-0.888618	0.000356	3.560907	0.603234	0.000036
 442	4.3880e+01	4.3856	-0.850735	0.000381	3.806487	0.644836	0.000038
 443	4.3979e+01	4.3983	-0.815296	0.000356	3.560907	0.603234	0.000036
 444	4.4078e+01	4.4038	-0.769674	0.000458	4.584156	0.776577	0.000046
 445	4.4178e+01	4.4128	-0.737901	0.000319	3.192537	0.540830	0.000032
 446	4.4278e+01	4.4256	-0.700426	0.000377	3.765557	0.637903	0.000038
 447	4.4377e+01	4.4338	-0.662950	0.000377	3.765557	0.637903	0.000038
 448	4.4477e+01	4.4450	-0.627919	0.000352	3.519977	0.596300	0.000035
 449	4.4576e+01	4.4553	-0.590036	0.000381	3.806487	0.644836	0.000038
 450	4.4675e+01	4.4660	-0.555412	0.000348	3.479047	0.589366	0.000035
 451	4.4775e+01	4.4752	-0.515085	0.000405	4.052066	0.686439	0.000041
 452	4.4874e+01	4.4833	-0.479239	0.000360	3.601837	0.610168	0.000036
 453	4.4974e+01	4.4924	-0.440948	0.000385	3.847417	0.651770	0.000038
 454	4.5074e+01	4.5019	-0.404287	0.000368	3.683697	0.624035	0.000037
 455	4.5173e+01	4.5158	-0.367219	0.000372	3.724627	0.630969	0.000037
 456	4.5273e+01	4.5225	-0.332595	0.000348	3.479047	0.589366	0.000035
 457	4.5372e+01	4.5325	-0.295120	0.000377	3.765557	0.637903	0.000038
 458	4.5471e+01	4.5444	-0.256015	0.000393	3.929276	0.665637	0.000039
 459	4.5571e+01	4.5513	-0.216503	0.000397	3.970206	0.672571	0.000040
 460	4.5670e+01	4.5619	-0.181471	0.000352	3.519977	0.596300	0.000035
 461	4.5770e+01	4.5750	-0.148069	0.000336	3.356257	0.568565	0.000034
 462	4.5870e+01	4.5840	-0.107742	0.000405	4.052066	0.686439	0.000041
 463	4.5969e+01	4.5917	-0.072711	0.000352	3.519977	0.596300	0.000035
 464	4.6069e+01	4.6029	-0.035642	0.000372	3.724627	0.630969	0.000037
 465	4.6168e+01	4.6143	0.003462	0.000393	3.929276	0.665637	0.000039
 466	4.6267e+01	4.6219	0.039716	0.000364	3.642767	0.617101	0.000036
 467	4.6367e+01	4.6328	0.072303	0.000327	3.274397	0.554698	0.000033
 468	4.6467e+01	4.6433	0.111816	0.000397	3.970206	0.672571	0.000040
 469	4.6566e+01	4.6522	0.150106	0.000385	3.847417	0.651770	0.000038
 470	4.6666e+01	4.6638	0.187174	0.000372	3.724627	0.630969	0.000037
 471	4.6765e+01	4.6697	0.225057	0.000381	3.806487	0.644836	0.000038
 472	4.6864e+01	4.6866	0.259681	0.000348	3.479047	0.589366	0.000035
 473	4.6964e+01	4.6945	0.294305	0.000348	3.479047	0.589366	0.000035
 474	4.7063e+01	4.7035	0.330966	0.000368	3.683697	0.624035	0.000037
 475	4.7163e+01	4.7137	0.366405	0.000356	3.560907	0.603234	0.000036
 476	4.7263e+01	4.7230	0.404287	0.000381	3.806487	0.644836	0.000038
 477	4.7362e+01	4.7318	0.438912	0.000348	3.479047	0.589366	0.000035
 478	4.7462e+01	4.7410	0.475165	0.000364	3.642767	0.617101	0.000036
 479	4.7561e+01	4.7523	0.515085	0.000401	4.011136	0.679505	0.000040
 480	4.7660e+01	4.7637	0.549301	0.000344	3.438117	0.582433	0.000034
 481	4.7760e+01	4.7729	0.585148	0.000360	3.601837	0.610168	0.000036
 482	4.7859e+01	4.7822	0.622623	0.000377	3.765557	0.637903	0.000038
 483	4.7959e+01	4.7941	0.656433	0.000340	3.397187	0.575499	0.000034
 484	4.8059e+01	4.8036	0.694315	0.000381	3.806487	0.644836	0.000038
 485	4.8158e+01	4.8141	0.732198	0.000381	3.806487	0.644836	0.000038
 486	4.8258e+01	4.8237	0.766415	0.000344	3.438117	0.582433	0.000034
 487	4.8357e+01	4.8325	0.802668	0.000364	3.642767	0.617101	0.000036
 488	4.8456e+01	4.8412	0.839737	0.000372	3.724627	0.630969	0.000037
 489	4.8556e+01	4.8507	0.875990	0.000364	3.642767	0.617101	0.000036
 490	4.8656e+01	4.8634	0.910207	0.000344	3.438117	0.582433	0.000034
 491	4.8755e+01	4.8708	0.946868	0.000368	3.683697	0.624035	0.000037
 492	4.8855e+01	4.8817	0.981899	0.000352	3.519977	0.596300	0.000035
 493	4.8954e+01	4.8898	1.022633	0.000409	4.092996	0.693372	0.000041
 494	4.9053e+01	4.9017	1.053592	0.000311	3.110677	0.526963	0.000031
 495	4.9153e+01	4.9125	1.091067	0.000377	3.765557	0.637903	0.000038
 496	4.9252e+01	4.9186	1.128950	0.000381	3.806487	0.644836	0.000038
 497	4.9352e+01	4.9302	1.160315	0.000315	3.151607	0.533897	0.000032
 498	4.9452e+01	4.9418	1.201050	0.000409	4.092996	0.693372	0.000041
 499	4.9551e+01	4.9520	1.233230	0.000323	3.233467	0.547764	0.000032
 500	4.9651e+01	4.9611	1.271520	0.000385	3.847417	0.651770	0.000038
 501	4.9750e+01	4.9726	1.306551	0.000352	3.519977	0.596300	0.000035
 502	4.9849e+01	4.9809	1.341583	0.000352	3.519977	0.596300	0.000035
 503	4.9949e+01	4.9953	1.377429	0.000360	3.601837	0.610168	0.000036
 504	5.0048e+01	5.0050	1.412053	0.000348	3.479047	0.589366	0.000035
 505	5.0148e+01	5.0117	1.450750	0.000389	3.888347	0.658704	0.000039
 506	5.0248e+01	5.0222	1.483745	0.000332	3.315327	0.561632	0.000033
 507	5.0347e+01	5.0329	1.524072	0.000405	4.052066	0.686439	0.000041
 508	5.0447e+01	5.0411	1.557067	0.000332	3.315327	0.561632	0.000033
 509	5.0546e+01	5.0513	1.591284	0.000344	3.438117	0.582433	0.000034
 510	5.0645e+01	5.0581	1.625500	0.000344	3.438117	0.582433	0.000034
 511	5.0745e+01	5.0727	1.662161	0.000368	3.683697	0.624035	0.000037
 512	5.0844e+01	5.0814	1.696378	0.000344	3.438117	0.582433	0.000034
 513	5.0944e+01	5.0900	1.732632	0.000364	3.642767	0.617101	0.000036
 514	5.1044e+01	5.0991	1.766441	0.000340	3.397187	0.575499	0.000034
 515	5.1143e+01	5.1116	1.802694	0.000364	3.642767	0.617101	0.000036
 516	5.1242e+01	5.1189	1.837726	0.000352	3.519977	0.596300	0.000035
 517	5.1342e+01	5.1308	1.873979	0.000364	3.642767	0.617101	0.000036
 518	5.1441e+01	5.1391	1.910233	0.000364	3.642767	0.617101	0.000036
 519	5.1541e+01	5.1506	1.947708	0.000377	3.765557	0.637903	0.000038
 520	5.1641e+01	5.1610	1.978259	0.000307	3.069747	0.520029	0.000031
 521	5.1740e+01	5.1691	2.012883	0.000348	3.479047	0.589366	0.000035
 522	5.1840e+01	5.1783	2.049951	0.000372	3.724627	0.630969	0.000037
 523	5.1939e+01	5.1900	2.085798	0.000360	3.601837	0.610168	0.000036
 524	5.2038e+01	5.1989	2.126532	0.000409	4.092996	0.693372	0.000041
 525	5.2138e+01	5.2077	2.155453	0.000291	2.906027	0.492294	0.000029
 526	5.2237e+01	5.2214	2.189670	0.000344	3.438117	0.582433	0.000034
 527	5.2337e+01	5.2276	2.227553	0.000381	3.806487	0.644836	0.000038
 528	5.2437e+01	5.2393	2.261770	0.000344	3.438117	0.582433	0.000034
 529	5.2536e+01	5.2497	2.297616	0.000360	3.601837	0.610168	0.000036
 530	5.2636e+01	5.2605	2.330610	0.000332	3.315327	0.561632	0.000033
 531	5.2735e+01	5.2743	2.364420	0.000340	3.397187	0.575499	0.000034
 532	5.2834e+01	5.2798	2.400673	0.000364	3.642767	0.617101	0.000036
 533	5.2934e+01	5.2917	2.435705	0.000352	3.519977	0.596300	0.000035
 534	5.3033e+01	5.2952	2.471958	0.000364	3.642767	0.617101	0.000036
 535	5.3133e+01	5.3119	2.504546	0.000327	3.274397	0.554698	0.000033
 536	5.3233e+01	5.3198	2.539984	0.000356	3.560907	0.603234	0.000036
 537	5.3332e+01	5.3275	2.579089	0.000393	3.929276	0.665637	0.000039
 538	5.3431e+01	5.3394	2.610455	0.000315	3.151607	0.533897	0.000032
 539	5.3531e+01	5.3477	2.644672	0.000344	3.438117	0.582433	0.000034
 540	5.3630e+01	5.3582	2.679296	0.000348	3.479047	0.589366	0.000035
 541	5.3730e+01	5.3694	2.715956	0.000368	3.683697	0.624035	0.000037
 542	5.3830e+01	5.3814	2.748544	0.000327	3.274397	0.554698	0.000033
 543	5.3929e+01	5.3905	2.782353	0.000340	3.397187	0.575499	0.000034
 544	5.4029e+01	5.3994	2.818199	0.000360	3.601837	0.610168	0.000036
 545	5.4128e+01	5.4092	2.852009	0.000340	3.397187	0.575499	0.000034
 546	5.4227e+01	5.4192	2.889077	0.000372	3.724627	0.630969	0.000037
 547	5.4327e+01	5.4285	2.920850	0.000319	3.192537	0.540830	0.000032
 548	5.4426e+01	5.4392	2.957103	0.000364	3.642767	0.617101	0.000036
 549	5.4526e+01	5.4484	2.991727	0.000348	3.479047	0.589366	0.000035
 550	5.4626e+01	5.4588	3.023500	0.000319	3.192537	0.540830	0.000032
 551	5.4725e+01	5.4668	3.063012	0.000397	3.970206	0.672571	0.000040
 552	5.4825e+01	5.4795	3.093970	0.000311	3.110677	0.526963	0.000031
 553	5.4924e+01	5.4885	3.129816	0.000360	3.601837	0.610168	0.000036
 554	5.5023e+01	5.4980	3.165663	0.000360	3.601837	0.610168	0.000036
 555	5.5123e+01	5.5100	3.200287	0.000348	3.479047	0.589366	0.000035
 556	5.5222e+01	5.5187	3.234096	0.000340	3.397187	0.575499	0.000034
 557	5.5322e+01	5.5284	3.268313	0.000344	3.438117	0.582433	0.000034
 558	5.5422e+01	5.5411	3.303752	0.000356	3.560907	0.603234	0.000036
 559	5.5521e+01	5.5482	3.333488	0.000299	2.987887	0.506162	0.000030
 560	5.5620e+01	5.5577	3.370149	0.000368	3.683697	0.624035	0.000037
 561	5.5720e+01	5.5689	3.407217	0.000372	3.724627	0.630969	0.000037
 562	5.5819e+01	5.5773	3.440619	0.000336	3.356257	0.568565	0.000034
 563	5.5919e+01	5.5873	3.471984	0.000315	3.151607	0.533897	0.000032
 564	5.6019e+01	5.5965	3.507016	0.000352	3.519977	0.596300	0.000035
 565	5.6118e+01	5.6038	3.542862	0.000360	3.601837	0.610168	0.000036
 566	5.6218e+01	5.6153	3.577079	0.000344	3.438117	0.582433	0.000034
 567	5.6317e+01	5.6313	3.610073	0.000332	3.315327	0.561632	0.000033
 568	5.6416e+01	5.6374	3.641031	0.000311	3.110677	0.526963	0.000031
 569	5.6516e+01	5.6475	3.675248	0.000344	3.438117	0.582433	0.000034
 570	5.6615e+01	5.6582	3.711502	0.000364	3.642767	0.617101	0.000036
 571	5.6715e+01	5.6661	3.744496	0.000332	3.315327	0.561632	0.000033
 572	5.6815e+01	5.6841	3.781157	0.000368	3.683697	0.624035	0.000037
 573	5.6914e+01	5.6873	3.814559	0.000336	3.356257	0.568565	0.000034
 574	5.7014e+01	5.6974	3.848776	0.000344	3.438117	0.582433	0.000034
 575	5.7113e+01	5.7076	3.881364	0.000327	3.274397	0.554698	0.000033
 576	5.7212e+01	5.7194	3.915988	0.000348	3.479047	0.589366	0.000035
 577	5.7312e+01	5.7253	3.948168	0.000323	3.233467	0.547764	0.000032
 578	5.7411e+01	5.7369	3.984014	0.000360	3.601837	0.610168	0.000036
 579	5.7511e+01	5.7490	4.017416	0.000336	3.356257	0.568565	0.000034
 580	5.7611e+01	5.7573	4.051225	0.000340	3.397187	0.575499	0.000034
 581	5.7710e+01	5.7656	4.082998	0.000319	3.192537	0.540830	0.000032
 582	5.7809e+01	5.7787	4.118030	0.000352	3.519977	0.596300	0.000035
 583	5.7909e+01	5.7881	4.151432	0.000336	3.356257	0.568565	0.000034
 584	5.8008e+01	5.7947	4.187278	0.000360	3.601837	0.610168	0.000036
 585	5.8108e+01	5.8065	4.219050	0.000319	3.192537	0.540830	0.000032
 586	5.8208e+01	5.8157	4.258155	0.000393	3.929276	0.665637	0.000039
 587	5.8307e+01	5.8287	4.286669	0.000287	2.865097	0.485361	0.000029
 588	5.8407e+01	5.8386	4.322923	0.000364	3.642767	0.617101	0.000036
 589	5.8506e+01	5.8497	4.357954	0.000352	3.519977	0.596300	0.000035
 590	5.8605e+01	5.8556	4.386876	0.000291	2.906027	0.492294	0.000029
 591	5.8705e+01	5.8646	4.423129	0.000364	3.642767	0.617101	0.000036
 592	5.8804e+01	5.8768	4.455309	0.000323	3.233467	0.547764	0.000032
 593	5.8904e+01	5.8871	4.487489	0.000323	3.233467	0.547764	0.000032
 594	5.9004e+01	5.8964	4.520891	0.000336	3.356257	0.568565	0.000034
 595	5.9103e+01	5.9060	4.554701	0.000340	3.397187	0.575499	0.000034
 596	5.9203e+01	5.9155	4.586881	0.000323	3.233467	0.547764	0.000032
 597	5.9302e+01	5.9273	4.623949	0.000372	3.724627	0.630969	0.000037
 598	5.9401e+01	5.9364	4.658980	0.000352	3.519977	0.596300	0.000035
 599	5.9501e+01	5.9458	4.686680	0.000278	2.783238	0.471493	0.000028
 600	5.9600e+01	5.9574	4.723341	0.000368	3.683697	0.624035	0.000037
 601	5.9700e+01	5.9637	4.757965	0.000348	3.479047	0.589366	0.000035
 602	5.9800e+01	5.9769	4.792181	0.000344	3.438117	0.582433	0.000034
 603	5.9899e+01	5.9858	4.821510	0.000295	2.946957	0.499228	0.000029
 604	5.9998e+01	5.9948	4.852875	0.000315	3.151607	0.533897	0.000032
 605	6.0098e+01	6.0088	4.888314	0.000356	3.560907	0.603234	0.000036
 606	6.0197e+01	6.0162	4.926197	0.000381	3.806487	0.644836	0.000038
 607	6.0297e+01	6.0278	4.957563	0.000315	3.151607	0.533897	0.000032
 608	6.0397e+01	6.0358	4.991372	0.000340	3.397187	0.575499	0.000034
 609	6.0496e+01	6.0445	5.025181	0.000340	3.397187	0.575499	0.000034
 610	6.0596e+01	6.0564	5.051659	0.000266	2.660448	0.450692	0.000027
 611	6.0695e+01	6.0668	5.089542	0.000381	3.806487	0.644836	0.000038
 612	6.0794e+01	6.0735	5.124166	0.000348	3.479047	0.589366	0.000035
 613	6.0894e+01	6.0879	5.154309	0.000303	3.028817	0.513096	0.000030
 614	6.0993e+01	6.0963	5.188118	0.000340	3.397187	0.575499	0.000034
 615	6.1093e+01	6.1040	5.219891	0.000319	3.192537	0.540830	0.000032
 616	6.1193e+01	6.1163	5.256552	0.000368	3.683697	0.624035	0.000037
 617	6.1292e+01	6.1273	5.287510	0.000311	3.110677	0.526963	0.000031
 618	6.1392e+01	6.1344	5.319690	0.000323	3.233467	0.547764	0.000032
 619	6.1491e+01	6.1431	5.355129	0.000356	3.560907	0.603234	0.000036
 620	6.1590e+01	6.1575	5.386494	0.000315	3.151607	0.533897	0.000032
 621	6.1690e+01	6.1660	5.419896	0.000336	3.356257	0.568565	0.000034
 622	6.1789e+01	6.1739	5.450854	0.000311	3.110677	0.526963	0.000031
 623	6.1889e+01	6.1855	5.486700	0.000360	3.601837	0.610168	0.000036
 624	6.1989e+01	6.1977	5.519695	0.000332	3.315327	0.561632	0.000033
 625	6.2088e+01	6.2051	5.547395	0.000278	2.783238	0.471493	0.000028
 626	6.2188e+01	6.2136	5.582833	0.000356	3.560907	0.603234	0.000036
 627	6.2287e+01	6.2273	5.621938	0.000393	3.929276	0.665637	0.000039
 628	6.2386e+01	6.2344	5.648008	0.000262	2.619518	0.443758	0.000026
 629	6.2486e+01	6.2457	5.683447	0.000356	3.560907	0.603234	0.000036
 630	6.2586e+01	6.2539	5.713998	0.000307	3.069747	0.520029	0.000031
 631	6.2685e+01	6.2653	5.749844	0.000360	3.601837	0.610168	0.000036
 632	6.2785e+01	6.2765	5.780394	0.000307	3.069747	0.520029	0.000031
 633	6.2884e+01	6.2843	5.815019	0.000348	3.479047	0.589366	0.000035
 634	6.2983e+01	6.2929	5.847199	0.000323	3.233467	0.547764	0.000032
 635	6.3083e+01	6.3058	5.880193	0.000332	3.315327	0.561632	0.000033
 636	6.3182e+01	6.3145	5.907485	0.000274	2.742308	0.464559	0.000027
 637	6.3282e+01	6.3238	5.944554	0.000372	3.724627	0.630969	0.000037
 638	6.3382e+01	6.3336	5.976734	0.000323	3.233467	0.547764	0.000032
 639	6.3481e+01	6.3441	6.008099	0.000315	3.151607	0.533897	0.000032
 640	6.3581e+01	6.3536	6.038650	0.000307	3.069747	0.520029	0.000031
 641	6.3680e+01	6.3657	6.072866	0.000344	3.438117	0.582433	0.000034
 642	6.3779e+01	6.3737	6.106269	0.000336	3.356257	0.568565	0.000034
 643	6.3879e+01	6.3808	6.141300	0.000352	3.519977	0.596300	0.000035
 644	6.3978e+01	6.3911	6.170629	0.000295	2.946957	0.499228	0.000029
 645	6.4078e+01	6.4046	6.203623	0.000332	3.315327	0.561632	0.000033
 646	6.4177e+01	6.4104	6.239062	0.000356	3.560907	0.603234	0.000036
 647	6.4277e+01	6.4256	6.267576	0.000287	2.865097	0.485361	0.000029
 648	6.4376e+01	6.4336	6.299349	0.000319	3.192537	0.540830	0.000032
 649	6.4476e+01	6.4428	6.334788	0.000356	3.560907	0.603234	0.000036
 650	6.4576e+01	6.4545	6.368190	0.000336	3.356257	0.568565	0.000034
 651	6.4675e+01	6.4628	6.396296	0.000282	2.824167	0.478427	0.000028
 652	6.4775e+01	6.4727	6.432550	0.000364	3.642767	0.617101	0.000036
 653	6.4874e+01	6.4830	6.464730	0.000323	3.233467	0.547764	0.000032
 654	6.4974e+01	6.4959	6.496095	0.000315	3.151607	0.533897	0.000032
 655	6.5073e+01	6.5063	6.529905	0.000340	3.397187	0.575499	0.000034
 656	6.5172e+01	6.5159	6.562492	0.000327	3.274397	0.554698	0.000033
 657	6.5272e+01	6.5240	6.595080	0.000327	3.274397	0.554698	0.000033
 658	6.5371e+01	6.5328	6.623186	0.000282	2.824167	0.478427	0.000028
 659	6.5471e+01	6.5447	6.657810	0.000348	3.479047	0.589366	0.000035
 660	6.5570e+01	6.5541	6.688768	0.000311	3.110677	0.526963	0.000031
 661	6.5670e+01	6.5639	6.722578	0.000340	3.397187	0.575499	0.000034
 662	6.5769e+01	6.5775	6.755980	0.000336	3.356257	0.568565	0.000034
 663	6.5869e+01	6.5806	6.786938	0.000311	3.110677	0.526963	0.000031
 664	6.5969e+01	6.5925	6.820340	0.000336	3.356257	0.568565	0.000034
 665	6.6068e+01	6.6037	6.852927	0.000327	3.274397	0.554698	0.000033
 666	6.6168e+01	6.6105	6.883478	0.000307	3.069747	0.520029	0.000031
 667	6.6267e+01	6.6270	6.915658	0.000323	3.233467	0.547764	0.000032
 668	6.6367e+01	6.6328	6.947838	0.000323	3.233467	0.547764	0.000032
 669	6.6466e+01	6.6414	6.977982	0.000303	3.028817	0.513096	0.000030
 670	6.6566e+01	6.6543	7.011791	0.000340	3.397187	0.575499	0.000034
 671	6.6665e+01	6.6602	7.042342	0.000307	3.069747	0.520029	0.000031
 672	6.6764e+01	6.6723	7.074522	0.000323	3.233467	0.547764	0.000032
 673	6.6864e+01	6.6816	7.109553	0.000352	3.519977	0.596300	0.000035
 674	6.6963e+01	6.6928	7.138067	0.000287	2.865097	0.485361	0.000029
 675	6.7063e+01	6.7010	7.175950	0.000381	3.806487	0.644836	0.000038
 676	6.7162e+01	6.7154	7.206908	0.000311	3.110677	0.526963	0.000031
 677	6.7262e+01	6.7222	7.238681	0.000319	3.192537	0.540830	0.000032
 678	6.7362e+01	6.7330	7.269639	0.000311	3.110677	0.526963	0.000031
 679	6.7461e+01	6.7406	7.302226	0.000327	3.274397	0.554698	0.000033
 680	6.7561e+01	6.7502	7.335221	0.000332	3.315327	0.561632	0.000033
 681	6.7660e+01	6.7617	7.369845	0.000348	3.479047	0.589366	0.000035
 682	6.7760e+01	6.7699	7.401210	0.000315	3.151607	0.533897	0.000032
 683	6.7859e+01	6.7830	7.425651	0.000246	2.455798	0.416023	0.000025
 684	6.7959e+01	6.7936	7.464756	0.000393	3.929276	0.665637	0.000039
 685	6.8058e+01	6.8020	7.492863	0.000282	2.824167	0.478427	0.000028
 686	6.8157e+01	6.8116	7.527894	0.000352	3.519977	0.596300	0.000035
 687	6.8257e+01	6.8206	7.560889	0.000332	3.315327	0.561632	0.000033
 688	6.8356e+01	6.8340	7.591847	0.000311	3.110677	0.526963	0.000031
 689	6.8456e+01	6.8401	7.621990	0.000303	3.028817	0.513096	0.000030
 690	6.8555e+01	6.8519	7.652948	0.000311	3.110677	0.526963	0.000031
 691	6.8655e+01	6.8613	7.686758	0.000340	3.397187	0.575499	0.000034
 692	6.8754e+01	6.8707	7.717716	0.000311	3.110677	0.526963	0.000031
 693	6.8854e+01	6.8824	7.752340	0.000348	3.479047	0.589366	0.000035
 694	6.8954e+01	6.8893	7.782076	0.000299	2.987887	0.506162	0.000030
 695	6.9053e+01	6.9013	7.814663	0.000327	3.274397	0.554698	0.000033
 696	6.9153e+01	6.9149	7.845621	0.000311	3.110677	0.526963	0.000031
 697	6.9252e+01	6.9217	7.880653	0.000352	3.519977	0.596300	0.000035
 698	6.9352e+01	6.9299	7.910389	0.000299	2.987887	0.506162	0.000030
 699	6.9451e+01	6.9418	7.940939	0.000307	3.069747	0.520029	0.000031
 700	6.9550e+01	6.9506	7.973527	0.000327	3.274397	0.554698	0.000033
 701	6.9650e+01	6.9601	8.006522	0.000332	3.315327	0.561632	0.000033
 702	6.9749e+01	6.9696	8.035850	0.000295	2.946957	0.499228	0.000029
 703	6.9849e+01	6.9808	8.067216	0.000315	3.151607	0.533897	0.000032
 704	6.9948e+01	6.9873	8.103062	0.000360	3.601837	0.610168	0.000036
 705	7.0048e+01	7.0004	8.133205	0.000303	3.028817	0.513096	0.000030
 706	7.0147e+01	7.0100	8.165792	0.000327	3.274397	0.554698	0.000033
 707	7.0247e+01	7.0225	8.197158	0.000315	3.151607	0.533897	0.000032
 708	7.0347e+01	7.0306	8.231782	0.000348	3.479047	0.589366	0.000035
 709	7.0446e+01	7.0388	8.262333	0.000307	3.069747	0.520029	0.000031
 710	7.0546e+01	7.0504	8.293698	0.000315	3.151607	0.533897	0.000032
 711	7.0645e+01	7.0602	8.323434	0.000299	2.987887	0.506162	0.000030
 712	7.0745e+01	7.0699	8.358058	0.000348	3.479047	0.589366	0.000035
 713	7.0844e+01	7.0797	8.385757	0.000278	2.783238	0.471493	0.000028
 714	7.0944e+01	7.0921	8.418345	0.000327	3.274397	0.554698	0.000033
 715	7.1043e+01	7.1000	8.447266	0.000291	2.906027	0.492294	0.000029
 716	7.1142e+01	7.1099	8.480261	0.000332	3.315327	0.561632	0.000033
 717	7.1242e+01	7.1196	8.510812	0.000307	3.069747	0.520029	0.000031
 718	7.1341e+01	7.1284	8.545436	0.000348	3.479047	0.589366	0.000035
 719	7.1441e+01	7.1447	8.575579	0.000303	3.028817	0.513096	0.000030
 720	7.1540e+01	7.1516	8.604500	0.000291	2.906027	0.492294	0.000029
 721	7.1640e+01	7.1590	8.639125	0.000348	3.479047	0.589366	0.000035
 722	7.1740e+01	7.1700	8.670897	0.000319	3.192537	0.540830	0.000032
 723	7.1839e+01	7.1809	8.703077	0.000323	3.233467	0.547764	0.000032
 724	7.1939e+01	7.1876	8.733221	0.000303	3.028817	0.513096	0.000030
 725	7.2038e+01	7.2009	8.762142	0.000291	2.906027	0.492294	0.000029
 726	7.2138e+01	7.2098	8.795137	0.000332	3.315327	0.561632	0.000033
 727	7.2237e+01	7.2191	8.830576	0.000356	3.560907	0.603234	0.000036
 728	7.2337e+01	7.2314	8.859497	0.000291	2.906027	0.492294	0.000029
 729	7.2436e+01	7.2384	8.890862	0.000315	3.151607	0.533897	0.000032
 730	7.2535e+01	7.2472	8.923857	0.000332	3.315327	0.561632	0.000033
 731	7.2635e+01	7.2619	8.952778	0.000291	2.906027	0.492294	0.000029
 732	7.2734e+01	7.2691	8.985773	0.000332	3.315327	0.561632	0.000033
 733	7.2834e+01	7.2790	9.013472	0.000278	2.783238	0.471493	0.000028
 734	7.2933e+01	7.2903	9.048096	0.000348	3.479047	0.589366	0.000035
 735	7.3033e+01	7.2994	9.076610	0.000287	2.865097	0.485361	0.000029
 736	7.3132e+01	7.3086	9.109198	0.000327	3.274397	0.554698	0.000033
 737	7.3232e+01	7.3187	9.143007	0.000340	3.397187	0.575499	0.000034
 738	7.3332e+01	7.3302	9.172336	0.000295	2.946957	0.499228	0.000029
 739	7.3431e+01	7.3394	9.206960	0.000348	3.479047	0.589366	0.000035
 740	7.3531e+01	7.3472	9.235067	0.000282	2.824167	0.478427	0.000028
 741	7.3630e+01	7.3569	9.269283	0.000344	3.438117	0.582433	0.000034
 742	7.3730e+01	7.3675	9.301056	0.000319	3.192537	0.540830	0.000032
 743	7.3829e+01	7.3798	9.332422	0.000315	3.151607	0.533897	0.000032
 744	7.3928e+01	7.3901	9.363380	0.000311	3.110677	0.526963	0.000031
 745	7.4028e+01	7.3977	9.392708	0.000295	2.946957	0.499228	0.000029
 746	7.4127e+01	7.4089	9.424074	0.000315	3.151607	0.533897	0.000032
 747	7.4227e+01	7.4187	9.455846	0.000319	3.192537	0.540830	0.000032
 748	7.4326e+01	7.4297	9.487619	0.000319	3.192537	0.540830	0.000032
 749	7.4426e+01	7.4390	9.516540	0.000291	2.906027	0.492294	0.000029
 750	7.4525e+01	7.4494	9.547498	0.000311	3.110677	0.526963	0.000031
 751	7.4625e+01	7.4584	9.580493	0.000332	3.315327	0.561632	0.000033
 752	7.4725e+01	7.4676	9.608600	0.000282	2.824167	0.478427	0.000028
 753	7.4824e+01	7.4786	9.646483	0.000381	3.806487	0.644836	0.000038
 754	7.4924e+01	7.4908	9.673367	0.000270	2.701378	0.457626	0.000027
 755	7.5023e+01	7.4981	9.704325	0.000311	3.110677	0.526963	0.000031
 756	7.5123e+01	7.5054	9.734061	0.000299	2.987887	0.506162	0.000030
 757	7.5222e+01	7.5176	9.768278	0.000344	3.438117	0.582433	0.000034
 758	7.5322e+01	7.5263	9.800051	0.000319	3.192537	0.540830	0.000032
 759	7.5421e+01	7.5369	9.831823	0.000319	3.192537	0.540830	0.000032
 760	7.5520e+01	7.5498	9.861152	0.000295	2.946957	0.499228	0.000029
 761	7.5620e+01	7.5591	9.892518	0.000315	3.151607	0.533897	0.000032
 762	7.5719e+01	7.5677	9.923883	0.000315	3.151607	0.533897	0.000032
 763	7.5819e+01	7.5777	9.955656	0.000319	3.192537	0.540830	0.000032
 764	7.5918e+01	7.5873	9.984577	0.000291	2.906027	0.492294	0.000029
 765	7.6018e+01	7.5977	10.013498	0.000291	2.906027	0.492294	0.000029
 766	7.6118e+01	7.6087	10.044864	0.000315	3.151607	0.533897	0.000032
 767	7.6217e+01	7.6176	10.082339	0.000377	3.765557	0.637903	0.000038
 768	7.6317e+01	7.6273	10.110038	0.000278	2.783238	0.471493	0.000028
 769	7.6416e+01	7.6356	10.141404	0.000315	3.151607	0.533897	0.000032
 770	7.6516e+01	7.6493	10.175213	0.000340	3.397187	0.575499	0.000034
 771	7.6615e+01	7.6563	10.205357	0.000303	3.028817	0.513096	0.000030
 772	7.6715e+01	7.6660	10.235907	0.000307	3.069747	0.520029	0.000031
 773	7.6814e+01	7.6768	10.267273	0.000315	3.151607	0.533897	0.000032
 774	7.6913e+01	7.6892	10.299860	0.000327	3.274397	0.554698	0.000033
 775	7.7013e+01	7.6973	10.329189	0.000295	2.946957	0.499228	0.000029
 776	7.7112e+01	7.7052	10.358925	0.000299	2.987887	0.506162	0.000030
 777	7.7212e+01	7.7164	10.389883	0.000311	3.110677	0.526963	0.000031
 778	7.7311e+01	7.7264	10.421656	0.000319	3.192537	0.540830	0.000032
 779	7.7411e+01	7.7385	10.456687	0.000352	3.519977	0.596300	0.000035
 780	7.7510e+01	7.7457	10.486016	0.000295	2.946957	0.499228	0.000029
 781	7.7610e+01	7.7557	10.515752	0.000299	2.987887	0.506162	0.000030
 782	7.7710e+01	7.7677	10.549968	0.000344	3.438117	0.582433	0.000034
 783	7.7809e+01	7.7773	10.582556	0.000327	3.274397	0.554698	0.000033
 784	7.7909e+01	7.7856	10.610662	0.000282	2.824167	0.478427	0.000028
 785	7.8008e+01	7.7933	10.642435	0.000319	3.192537	0.540830	0.000032
 786	7.8108e+01	7.8107	10.677059	0.000348	3.479047	0.589366	0.000035
 787	7.8207e+01	7.8157	10.705981	0.000291	2.906027	0.492294	0.000029
 788	7.8306e+01	7.8236	10.738161	0.000323	3.233467	0.547764	0.000032
 789	7.8406e+01	7.8369	10.767489	0.000295	2.946957	0.499228	0.000029
 790	7.8505e+01	7.8443	10.802113	0.000348	3.479047	0.589366	0.000035
 791	7.8605e+01	7.8556	10.835516	0.000336	3.356257	0.568565	0.000034
 792	7.8704e+01	7.8642	10.866474	0.000311	3.110677	0.526963	0.000031
 793	7.8804e+01	7.8775	10.901912	0.000356	3.560907	0.603234	0.000036
 794	7.8903e+01	7.8845	10.926760	0.000250	2.496728	0.422957	0.000025
 795	7.9003e+01	7.8992	10.962606	0.000360	3.601837	0.610168	0.000036
 796	7.9103e+01	7.9038	10.993157	0.000307	3.069747	0.520029	0.000031
 797	7.9202e+01	7.9162	11.022078	0.000291	2.906027	0.492294	0.000029
 798	7.9302e+01	7.9270	11.052222	0.000303	3.028817	0.513096	0.000030
 799	7.9401e+01	7.9333	11.088068	0.000360	3.601837	0.610168	0.000036
 800	7.9501e+01	7.9443	11.115360	0.000274	2.742308	0.464559	0.000027
 801	7.9600e+01	7.9559	11.149577	0.000344	3.438117	0.582433	0.000034
 802	7.9700e+01	7.9658	11.178905	0.000295	2.946957	0.499228	0.000029
 803	7.9799e+01	7.9752	11.209456	0.000307	3.069747	0.520029	0.000031
 804	7.9898e+01	7.9866	11.243673	0.000344	3.438117	0.582433	0.000034
 805	7.9998e+01	7.9957	11.275445	0.000319	3.192537	0.540830	0.000032
 806	8.0097e+01	8.0070	11.308440	0.000332	3.315327	0.561632	0.000033
 807	8.0197e+01	8.0154	11.336547	0.000282	2.824167	0.478427	0.000028
 808	8.0296e+01	8.0235	11.373208	0.000368	3.683697	0.624035	0.000037
 809	8.0396e+01	8.0371	11.403758	0.000307	3.069747	0.520029	0.000031
 810	8.0496e+01	8.0453	11.435124	0.000315	3.151607	0.533897	0.000032
 811	8.0595e+01	8.0545	11.466489	0.000315	3.151607	0.533897	0.000032
 812	8.0695e+01	8.0657	11.497040	0.000307	3.069747	0.520029	0.000031
 813	8.0794e+01	8.0738	11.526776	0.000299	2.987887	0.506162	0.000030
 814	8.0894e+01	8.0868	11.565066	0.000385	3.847417	0.651770	0.000038
 815	8.0993e+01	8.0952	11.597246	0.000323	3.233467	0.547764	0.000032
 816	8.1093e+01	8.1052	11.626575	0.000295	2.946957	0.499228	0.000029
 817	8.1192e+01	8.1168	11.657940	0.000315	3.151607	0.533897	0.000032
 818	8.1291e+01	8.1236	11.688491	0.000307	3.069747	0.520029	0.000031
 819	8.1391e+01	8.1340	11.723115	0.000348	3.479047	0.589366	0.000035
 820	8.1490e+01	8.1457	11.755295	0.000323	3.233467	0.547764	0.000032
 821	8.1590e+01	8.1538	11.789919	0.000348	3.479047	0.589366	0.000035
 822	8.1689e+01	8.1638	11.820877	0.000311	3.110677	0.526963	0.000031
 823	8.1789e+01	8.1759	11.857945	0.000372	3.724627	0.630969	0.000037
 824	8.1888e+01	8.1882	11.883608	0.000258	2.578588	0.436825	0.000026
 825	8.1988e+01	8.1934	11.920676	0.000372	3.724627	0.630969	0.000037
 826	8.2088e+01	8.2053	11.952041	0.000315	3.151607	0.533897	0.000032
 827	8.2187e+01	8.2150	11.984629	0.000327	3.274397	0.554698	0.000033
 828	8.2287e+01	8.2265	12.015587	0.000311	3.110677	0.526963	0.000031
 829	8.2386e+01	8.2312	12.050211	0.000348	3.479047	0.589366	0.000035
 830	8.2486e+01	8.2442	12.082798	0.000327	3.274397	0.554698	0.000033
 831	8.2585e+01	8.2535	12.114164	0.000315	3.151607	0.533897	0.000032
 832	8.2684e+01	8.2642	12.151232	0.000372	3.724627	0.630969	0.000037
 833	8.2784e+01	8.2726	12.184227	0.000332	3.315327	0.561632	0.000033
 834	8.2883e+01	8.2840	12.215592	0.000315	3.151607	0.533897	0.000032
 835	8.2983e+01	8.2941	12.247365	0.000319	3.192537	0.540830	0.000032
 836	8.3082e+01	8.3041	12.283618	0.000364	3.642767	0.617101	0.000036
 837	8.3182e+01	8.3118	12.313762	0.000303	3.028817	0.513096	0.000030
 838	8.3281e+01	8.3237	12.345127	0.000315	3.151607	0.533897	0.000032
 839	8.3381e+01	8.3340	12.379344	0.000344	3.438117	0.582433	0.000034
 840	8.3481e+01	8.3453	12.413561	0.000344	3.438117	0.582433	0.000034
 841	8.3580e+01	8.3540	12.447370	0.000340	3.397187	0.575499	0.000034
 842	8.3680e+01	8.3626	12.476699	0.000295	2.946957	0.499228	0.000029
 843	8.3779e+01	8.3753	12.515804	0.000393	3.929276	0.665637	0.000039
 844	8.3879e+01	8.3813	12.547576	0.000319	3.192537	0.540830	0.000032
 845	8.3978e+01	8.3936	12.577312	0.000299	2.987887	0.506162	0.000030
 846	8.4078e+01	8.4055	12.611529	0.000344	3.438117	0.582433	0.000034
 847	8.4177e+01	8.4139	12.646561	0.000352	3.519977	0.596300	0.000035
 848	8.4276e+01	8.4220	12.683629	0.000372	3.724627	0.630969	0.000037
 849	8.4376e+01	8.4341	12.714994	0.000315	3.151607	0.533897	0.000032
 850	8.4475e+01	8.4431	12.749618	0.000348	3.479047	0.589366	0.000035
 851	8.4575e+01	8.4543	12.788723	0.000393	3.929276	0.665637	0.000039
 852	8.4674e+01	8.4644	12.821310	0.000327	3.274397	0.554698	0.000033
 853	8.4774e+01	8.4717	12.852676	0.000315	3.151607	0.533897	0.000032
 854	8.4874e+01	8.4837	12.888522	0.000360	3.601837	0.610168	0.000036
 855	8.4973e+01	8.4921	12.921924	0.000336	3.356257	0.568565	0.000034
 856	8.5073e+01	8.5010	12.957363	0.000356	3.560907	0.603234	0.000036
 857	8.5172e+01	8.5145	12.988728	0.000315	3.151607	0.533897	0.000032
 858	8.5272e+01	8.5211	13.027018	0.000385	3.847417	0.651770	0.000038
 859	8.5371e+01	8.5345	13.059199	0.000323	3.233467	0.547764	0.000032
 860	8.5471e+01	8.5429	13.090564	0.000315	3.151607	0.533897	0.000032
 861	8.5570e+01	8.5515	13.129669	0.000393	3.929276	0.665637	0.000039
 862	8.5669e+01	8.5636	13.165515	0.000360	3.601837	0.610168	0.000036
 863	8.5769e+01	8.5714	13.199324	0.000340	3.397187	0.575499	0.000034
 864	8.5868e+01	8.5840	13.233134	0.000340	3.397187	0.575499	0.000034
 865	8.5968e+01	8.5929	13.272239	0.000393	3.929276	0.665637	0.000039
 866	8.6067e+01	8.6023	13.303197	0.000311	3.110677	0.526963	0.000031
 867	8.6167e+01	8.6152	13.341080	0.000381	3.806487	0.644836	0.000038
 868	8.6266e+01	8.6227	13.375704	0.000348	3.479047	0.589366	0.000035
 869	8.6366e+01	8.6328	13.408291	0.000327	3.274397	0.554698	0.000033
 870	8.6466e+01	8.6417	13.443730	0.000356	3.560907	0.603234	0.000036
 871	8.6565e+01	8.6503	13.479576	0.000360	3.601837	0.610168	0.000036
 872	8.6665e+01	8.6623	13.517052	0.000377	3.765557	0.637903	0.000038
 873	8.6764e+01	8.6731	13.551268	0.000344	3.438117	0.582433	0.000034
 874	8.6864e+01	8.6816	13.587114	0.000360	3.601837	0.610168	0.000036
 875	8.6963e+01	8.6963	13.624183	0.000372	3.724627	0.630969	0.000037
 876	8.7063e+01	8.7018	13.660029	0.000360	3.601837	0.610168	0.000036
 877	8.7162e+01	8.7124	13.697097	0.000372	3.724627	0.630969	0.000037
 878	8.7261e+01	8.7216	13.733758	0.000368	3.683697	0.624035	0.000037
 879	8.7361e+01	8.7301	13.771233	0.000377	3.765557	0.637903	0.000038
 880	8.7460e+01	8.7461	13.805043	0.000340	3.397187	0.575499	0.000034
 881	8.7560e+01	8.7521	13.844148	0.000393	3.929276	0.665637	0.000039
 882	8.7659e+01	8.7616	13.880401	0.000364	3.642767	0.617101	0.000036
 883	8.7759e+01	8.7708	13.911766	0.000315	3.151607	0.533897	0.000032
 884	8.7859e+01	8.7808	13.950057	0.000385	3.847417	0.651770	0.000038
 885	8.7958e+01	8.7946	13.987532	0.000377	3.765557	0.637903	0.000038
 886	8.8058e+01	8.8046	14.022564	0.000352	3.519977	0.596300	0.000035
 887	8.8157e+01	8.8129	14.060447	0.000381	3.806487	0.644836	0.000038
 888	8.8257e+01	8.8196	14.100773	0.000405	4.052066	0.686439	0.000041
 889	8.8356e+01	8.8313	14.135398	0.000348	3.479047	0.589366	0.000035
 890	8.8456e+01	8.8398	14.173688	0.000385	3.847417	0.651770	0.000038
 891	8.8555e+01	8.8508	14.211163	0.000377	3.765557	0.637903	0.000038
 892	8.8654e+01	8.8581	14.244565	0.000336	3.356257	0.568565	0.000034
 893	8.8754e+01	8.8709	14.282448	0.000381	3.806487	0.644836	0.000038
 894	8.8853e+01	8.8802	14.323590	0.000413	4.133926	0.700306	0.000041
 895	8.8953e+01	8.8892	14.362287	0.000389	3.888347	0.658704	0.000039
 896	8.9052e+01	8.8992	14.399763	0.000377	3.765557	0.637903	0.000038
 897	8.9152e+01	8.9101	14.440497	0.000409	4.092996	0.693372	0.000041
 898	8.9251e+01	8.9210	14.475936	0.000356	3.560907	0.603234	0.000036
 899	8.9351e+01	8.9319	14.516263	0.000405	4.052066	0.686439	0.000041
 900	8.9451e+01	8.9410	14.554553	0.000385	3.847417	0.651770	0.000038
 901	8.9550e+01	8.9492	14.591214	0.000368	3.683697	0.624035	0.000037
 902	8.9650e+01	8.9603	14.630726	0.000397	3.970206	0.672571	0.000040
 903	8.9749e+01	8.9697	14.670238	0.000397	3.970206	0.672571	0.000040
 904	8.9849e+01	8.9808	14.707714	0.000377	3.765557	0.637903	0.000038
 905	8.9948e+01	8.9909	14.748448	0.000409	4.092996	0.693372	0.000041
 906	9.0047e+01	9.0015	14.785516	0.000372	3.724627	0.630969	0.000037
 907	9.0147e+01	9.0092	14.826658	0.000413	4.133926	0.700306	0.000041
 908	9.0246e+01	9.0177	14.863726	0.000372	3.724627	0.630969	0.000037
 909	9.0346e+01	9.0316	14.911385	0.000479	4.788806	0.811246	0.000048
 910	9.0445e+01	9.0375	14.950897	0.000397	3.970206	0.672571	0.000040
 911	9.0545e+01	9.0515	14.991632	0.000409	4.092996	0.693372	0.000041
 912	9.0644e+01	9.0585	15.028292	0.000368	3.683697	0.624035	0.000037
 913	9.0744e+01	9.0698	15.071471	0.000434	4.338576	0.734975	0.000043
 914	9.0844e+01	9.0796	15.112612	0.000413	4.133926	0.700306	0.000041
 915	9.0943e+01	9.0885	15.154161	0.000417	4.174856	0.707240	0.000042
 916	9.1043e+01	9.1010	15.194081	0.000401	4.011136	0.679505	0.000040
 917	9.1142e+01	9.1113	15.236444	0.000426	4.256716	0.721107	0.000043
 918	9.1242e+01	9.1187	15.272698	0.000364	3.642767	0.617101	0.000036
 919	9.1341e+01	9.1286	15.315876	0.000434	4.338576	0.734975	0.000043
 920	9.1441e+01	9.1406	15.356611	0.000409	4.092996	0.693372	0.000041
 921	9.1540e+01	9.1468	15.396937	0.000405	4.052066	0.686439	0.000041
 922	9.1639e+01	9.1579	15.440116	0.000434	4.338576	0.734975	0.000043
 923	9.1739e+01	9.1688	15.484109	0.000442	4.420436	0.748842	0.000044
 924	9.1838e+01	9.1797	15.524843	0.000409	4.092996	0.693372	0.000041
 925	9.1938e+01	9.1897	15.565985	0.000413	4.133926	0.700306	0.000041
 926	9.2037e+01	9.1984	15.607126	0.000413	4.133926	0.700306	0.000041
 927	9.2137e+01	9.2080	15.651527	0.000446	4.461366	0.755776	0.000045
 928	9.2237e+01	9.2204	15.690224	0.000389	3.888347	0.658704	0.000039
 929	9.2336e+01	9.2285	15.736661	0.000467	4.666016	0.790444	0.000047
 930	9.2436e+01	9.2384	15.783098	0.000467	4.666016	0.790444	0.000047
 931	9.2535e+01	9.2465	15.825462	0.000426	4.256716	0.721107	0.000043
 932	9.2635e+01	9.2547	15.869455	0.000442	4.420436	0.748842	0.000044
 933	9.2734e+01	9.2676	15.911004	0.000417	4.174856	0.707240	0.000042
 934	9.2834e+01	9.2786	15.957441	0.000467	4.666016	0.790444	0.000047
 935	9.2933e+01	9.2854	15.998582	0.000413	4.133926	0.700306	0.000041
 936	9.3032e+01	9.2974	16.044205	0.000458	4.584156	0.776577	0.000046
 937	9.3132e+01	9.3071	16.086976	0.000430	4.297646	0.728041	0.000043
 938	9.3231e+01	9.3185	16.128117	0.000413	4.133926	0.700306	0.000041
 939	9.3331e+01	9.3280	16.173740	0.000458	4.584156	0.776577	0.000046
 940	9.3430e+01	9.3385	16.217325	0.000438	4.379506	0.741908	0.000044
 941	9.3530e+01	9.3465	16.262133	0.000450	4.502296	0.762710	0.000045
 942	9.3629e+01	9.3566	16.305719	0.000438	4.379506	0.741908	0.000044
 943	9.3729e+01	9.3703	16.349712	0.000442	4.420436	0.748842	0.000044
 944	9.3829e+01	9.3779	16.391261	0.000417	4.174856	0.707240	0.000042
 945	9.3928e+01	9.3876	16.437290	0.000463	4.625086	0.783511	0.000046
 946	9.4028e+01	9.3960	16.481691	0.000446	4.461366	0.755776	0.000045
 947	9.4127e+01	9.4092	16.522832	0.000413	4.133926	0.700306	0.000041
 948	9.4227e+01	9.4171	16.568455	0.000458	4.584156	0.776577	0.000046
 949	9.4326e+01	9.4281	16.612448	0.000442	4.420436	0.748842	0.000044
 950	9.4425e+01	9.4375	16.662143	0.000499	4.993456	0.845914	0.000050
 951	9.4525e+01	9.4489	16.704100	0.000422	4.215786	0.714174	0.000042
 952	9.4624e+01	9.4574	16.750129	0.000463	4.625086	0.783511	0.000046
 953	9.4724e+01	9.4668	16.797381	0.000475	4.747876	0.804312	0.000047
 954	9.4823e+01	9.4752	16.840559	0.000434	4.338576	0.734975	0.000043
 955	9.4923e+01	9.4876	16.888219	0.000479	4.788806	0.811246	0.000048
 956	9.5022e+01	9.4971	16.937507	0.000495	4.952526	0.838981	0.000050
 957	9.5122e+01	9.5070	16.985166	0.000479	4.788806	0.811246	0.000048
 958	9.5222e+01	9.5182	17.038121	0.000532	5.320895	0.901384	0.000053
 959	9.5321e+01	9.5276	17.082521	0.000446	4.461366	0.755776	0.000045
 960	9.5421e+01	9.5376	17.134253	0.000520	5.198105	0.880583	0.000052
 961	9.5520e+01	9.5461	17.179468	0.000454	4.543226	0.769643	0.000045
 962	9.5620e+01	9.5589	17.225498	0.000463	4.625086	0.783511	0.000046
 963	9.5719e+01	9.5686	17.282119	0.000569	5.689265	0.963788	0.000057
 964	9.5819e+01	9.5754	17.332222	0.000503	5.034386	0.852848	0.000050
 965	9.5918e+01	9.5856	17.382325	0.000503	5.034386	0.852848	0.000050
 966	9.6017e+01	9.5956	17.427540	0.000454	4.543226	0.769643	0.000045
 967	9.6117e+01	9.6063	17.478865	0.000516	5.157175	0.873649	0.000052
 968	9.6216e+01	9.6167	17.531412	0.000528	5.279965	0.894450	0.000053
 969	9.6316e+01	9.6255	17.579071	0.000479	4.788806	0.811246	0.000048
 970	9.6415e+01	9.6372	17.635285	0.000565	5.648335	0.956854	0.000056
 971	9.6515e+01	9.6484	17.688647	0.000536	5.361825	0.908318	0.000054
 972	9.6615e+01	9.6552	17.742009	0.000536	5.361825	0.908318	0.000054
 973	9.6714e+01	9.6670	17.793741	0.000520	5.198105	0.880583	0.000052
 974	9.6814e+01	9.6761	17.849140	0.000557	5.566475	0.942986	0.000056
 975	9.6913e+01	9.6869	17.903316	0.000544	5.443685	0.922185	0.000054
 976	9.7013e+01	9.6978	17.959122	0.000561	5.607405	0.949920	0.000056
 977	9.7112e+01	9.7072	18.014928	0.000561	5.607405	0.949920	0.000056
 978	9.7212e+01	9.7177	18.071956	0.000573	5.730195	0.970721	0.000057
 979	9.7311e+01	9.7250	18.131835	0.000602	6.016705	1.019257	0.000060
 980	9.7410e+01	9.7368	18.185605	0.000540	5.402755	0.915252	0.000054
 981	9.7510e+01	9.7462	18.244669	0.000593	5.934845	1.005390	0.000059
 982	9.7609e+01	9.7559	18.306585	0.000622	6.221354	1.053926	0.000062
 983	9.7709e+01	9.7656	18.357503	0.000512	5.116245	0.866715	0.000051
 984	9.7808e+01	9.7738	18.414938	0.000577	5.771125	0.977655	0.000058
 985	9.7908e+01	9.7844	18.468708	0.000540	5.402755	0.915252	0.000054
 986	9.8007e+01	9.7961	18.525328	0.000569	5.689265	0.963788	0.000057
 987	9.8107e+01	9.8051	18.578690	0.000536	5.361825	0.908318	0.000054
 988	9.8207e+01	9.8135	18.635311	0.000569	5.689265	0.963788	0.000057
 989	9.8306e+01	9.8257	18.689895	0.000548	5.484615	0.929119	0.000055
 990	9.8406e+01	9.8376	18.746108	0.000565	5.648335	0.956854	0.000056
 991	9.8505e+01	9.8432	18.801506	0.000557	5.566475	0.942986	0.000056
 992	9.8605e+01	9.8553	18.861793	0.000606	6.057635	1.026191	0.000061
 993	9.8704e+01	9.8633	18.918006	0.000565	5.648335	0.956854	0.000056
 994	9.8803e+01	9.8743	18.972998	0.000553	5.525545	0.936053	0.000055
 995	9.8903e+01	9.8888	19.032877	0.000602	6.016705	1.019257	0.000060
 996	9.9002e+01	9.8947	19.095608	0.000630	6.303214	1.067793	0.000063
 997	9.9102e+01	9.9044	19.155080	0.000598	5.975775	1.012324	0.000060
 998	9.9201e+01	9.9133	19.223921	0.000692	6.917164	1.171799	0.000069
 999	9.9301e+01	9.9232	19.284207	0.000606	6.057635	1.026191	0.000061
1000	9.9400e+01	9.9337	19.343679	0.000598	5.975775	1.012324	0.000060
1001	9.9500e+01	9.9442	19.405188	0.000618	6.180424	1.046992	0.000062
1002	9.9600e+01	9.9540	19.465475	0.000606	6.057635	1.026191	0.000061
1003	9.9699e+01	9.9670	19.531464	0.000663	6.630654	1.123263	0.000066
1004	9.9799e+01	9.9756	19.596232	0.000651	6.507864	1.102462	0.000065
1005	9.9898e+01	9.9854	19.664665	0.000688	6.876234	1.164866	0.000069
1006	9.9998e+01	9.9982	19.730247	0.000659	6.589724	1.116329	0.000066
1007	1.0010e+02	9.9836	19.751429	-0.000213	-2.128358	-0.360554	0.000021
1008	1.0020e+02	9.9757	19.772611	-0.000213	-2.128358	-0.360554	0.000021
1009	1.0030e+02	9.9628	19.791349	-0.000188	-1.882778	-0.318951	0.000019
1010	1.0040e+02	9.9530	19.810087	-0.000188	-1.882778	-0.318951	0.000019
1011	1.0050e+02	9.9456	19.824751	-0.000147	-1.473479	-0.249614	0.000015
1012	1.0059e+02	9.9331	19.843896	-0.000192	-1.923708	-0.325885	0.000019
1013	1.0069e+02	9.9274	19.858153	-0.000143	-1.432549	-0.242680	0.000014
1014	1.0079e+02	9.9137	19.873632	-0.000156	-1.555339	-0.263481	0.000016
1015	1.0089e+02	9.9059	19.889518	-0.000160	-1.596269	-0.270415	0.000016
1016	1.0099e+02	9.8944	19.904183	-0.000147	-1.473479	-0.249614	0.000015
1017	1.0109e+02	9.8849	19.922921	-0.000188	-1.882778	-0.318951	0.000019
1018	1.0119e+02	9.8746	19.935548	-0.000127	-1.268829	-0.214945	0.000013
1019	1.0129e+02	9.8652	19.948176	-0.000127	-1.268829	-0.214945	0.000013
1020	1.0139e+02	9.8554	19.955101	-0.000070	-0.695809	-0.117873	0.000007
1021	1.0149e+02	9.8444	19.963655	-0.000086	-0.859529	-0.145608	0.000009
1022	1.0159e+02	9.8340	19.968136	-0.000045	-0.450230	-0.076271	0.000005
1023	1.0169e+02	9.8260	19.979134	-0.000111	-1.105109	-0.187211	0.000011
1024	1.0179e+02	9.8169	19.983615	-0.000045	-0.450230	-0.076271	0.000005
1025	1.0189e+02	9.8057	19.984429	-0.000008	-0.081860	-0.013867	0.000001
1026	1.0199e+02	9.7949	19.990947	-0.000065	-0.654879	-0.110940	0.000007
1027	1.0209e+02	9.7868	19.997057	-0.000061	-0.613949	-0.104006	0.000006
1028	1.0219e+02	9.7766	20.005611	-0.000086	-0.859529	-0.145608	0.000009
1029	1.0229e+02	9.7644	20.010092	-0.000045	-0.450230	-0.076271	0.000005
1030	1.0239e+02	9.7547	20.017424	-0.000074	-0.736739	-0.124807	0.000007
1031	1.0248e+02	9.7461	20.021905	-0.000045	-0.450230	-0.076271	0.000005
1032	1.0258e+02	9.7332	20.023127	-0.000012	-0.122790	-0.020801	0.000001
1033	1.0268e+02	9.7253	20.025978	-0.000029	-0.286510	-0.048536	0.000003
1034	1.0278e+02	9.7157	20.028422	-0.000025	-0.245580	-0.041602	0.000002
1035	1.0288e+02	9.7051	20.032496	-0.000041	-0.409300	-0.069337	0.000004
1036	1.0298e+02	9.6939	20.032496	-0.000000	-0.000000	-0.000000	0.000000
1037	1.0308e+02	9.6854	20.037384	-0.000049	-0.491160	-0.083205	0.000005
1038	1.0318e+02	9.6763	20.041457	-0.000041	-0.409300	-0.069337	0.000004
1039	1.0328e+02	9.6659	20.043494	-0.000020	-0.204650	-0.034669	0.000002
1040	1.0338e+02	9.6558	20.050826	-0.000074	-0.736739	-0.124807	0.000007
1041	1.0348e+02	9.6461	20.050011	0.000008	0.081860	0.013867	-0.000001
1042	1.0358e+02	9.6350	20.053270	-0.000033	-0.327440	-0.055470	0.000003
1043	1.0368e+02	9.6265	20.053677	-0.000004	-0.040930	-0.006934	0.000000
1044	1.0378e+02	9.6167	20.052455	0.000012	0.122790	0.020801	-0.000001
1045	1.0388e+02	9.6071	20.054085	-0.000016	-0.163720	-0.027735	0.000002
1046	1.0398e+02	9.5964	20.051641	0.000025	0.245580	0.041602	-0.000002
1047	1.0408e+02	9.5852	20.048789	0.000029	0.286510	0.048536	-0.000003
1048	1.0418e+02	9.5779	20.047567	0.000012	0.122790	0.020801	-0.000001
1049	1.0428e+02	9.5662	20.047975	-0.000004	-0.040930	-0.006934	0.000000
1050	1.0438e+02	9.5557	20.045123	0.000029	0.286510	0.048536	-0.000003
1051	1.0447e+02	9.5459	20.046345	-0.000012	-0.122790	-0.020801	0.000001
1052	1.0457e+02	9.5363	20.047975	-0.000016	-0.163720	-0.027735	0.000002
1053	1.0467e+02	9.5264	20.041050	0.000070	0.695809	0.117873	-0.000007
1054	1.0477e+02	9.5166	20.041865	-0.000008	-0.081860	-0.013867	0.000001
1055	1.0487e+02	9.5088	20.032496	0.000094	0.941389	0.159476	-0.000009
1056	1.0497e+02	9.4941	20.027200	0.000053	0.532090	0.090138	-0.000005
1057	1.0507e+02	9.4902	20.019461	0.000078	0.777669	0.131741	-0.000008
1058	1.0517e+02	9.4785	20.011314	0.000082	0.818599	0.138674	-0.000008
1059	1.0527e+02	9.4685	20.006833	0.000045	0.450230	0.076271	-0.000005
1060	1.0537e+02	9.4556	20.003982	0.000029	0.286510	0.048536	-0.000003
1061	1.0547e+02	9.4475	19.995427	0.000086	0.859529	0.145608	-0.000009
1062	1.0557e+02	9.4385	19.988503	0.000070	0.695809	0.117873	-0.000007
1063	1.0567e+02	9.4249	19.980763	0.000078	0.777669	0.131741	-0.000008
1064	1.0577e+02	9.4176	19.974653	0.000061	0.613949	0.104006	-0.000006
1065	1.0587e+02	9.4067	19.965691	0.000090	0.900459	0.152542	-0.000009
1066	1.0597e+02	9.3982	19.960396	0.000053	0.532090	0.090138	-0.000005
1067	1.0607e+02	9.3858	19.953064	0.000074	0.736739	0.124807	-0.000007
1068	1.0617e+02	9.3774	19.942473	0.000106	1.064179	0.180277	-0.000011
1069	1.0627e+02	9.3659	19.929845	0.000127	1.268829	0.214945	-0.000013
1070	1.0637e+02	9.3594	19.927809	0.000020	0.204650	0.034669	-0.000002
1071	1.0647e+02	9.3488	19.915996	0.000119	1.186969	0.201078	-0.000012
1072	1.0656e+02	9.3397	19.908664	0.000074	0.736739	0.124807	-0.000007
1073	1.0666e+02	9.3280	19.897258	0.000115	1.146039	0.194144	-0.000011
1074	1.0676e+02	9.3195	19.885852	0.000115	1.146039	0.194144	-0.000011
1075	1.0686e+02	9.3070	19.877298	0.000086	0.859529	0.145608	-0.000009
1076	1.0696e+02	9.2980	19.869151	0.000082	0.818599	0.138674	-0.000008
1077	1.0706e+02	9.2872	19.856116	0.000131	1.309759	0.221879	-0.000013
1078	1.0716e+02	9.2802	19.848784	0.000074	0.736739	0.124807	-0.000007
1079	1.0726e+02	9.2678	19.837786	0.000111	1.105109	0.187211	-0.000011
1080	1.0736e+02	9.2578	19.827602	0.000102	1.023249	0.173343	-0.000010
1081	1.0746e+02	9.2500	19.821900	0.000057	0.573019	0.097072	-0.000006
1082	1.0756e+02	9.2388	19.809272	0.000127	1.268829	0.214945	-0.000013
1083	1.0766e+02	9.2279	19.796644	0.000127	1.268829	0.214945	-0.000013
1084	1.0776e+02	9.2188	19.789720	0.000070	0.695809	0.117873	-0.000007
1085	1.0786e+02	9.2096	19.777499	0.000123	1.227899	0.208012	-0.000012
1086	1.0796e+02	9.1970	19.763242	0.000143	1.432549	0.242680	-0.000014
1087	1.0806e+02	9.1910	19.750207	0.000131	1.309759	0.221879	-0.000013
1088	1.0816e+02	9.1806	19.735543	0.000147	1.473479	0.249614	-0.000015
1089	1.0826e+02	9.1665	19.727803	0.000078	0.777669	0.131741	-0.000008
1090	1.0836e+02	9.1610	19.717213	0.000106	1.064179	0.180277	-0.000011
1091	1.0845e+02	9.1489	19.700919	0.000164	1.637199	0.277349	-0.000016
1092	1.0855e+02	9.1395	19.689513	0.000115	1.146039	0.194144	-0.000011
1093	1.0865e+02	9.1291	19.671998	0.000176	1.759988	0.298150	-0.000018
1094	1.0875e+02	9.1174	19.662629	0.000094	0.941389	0.159476	-0.000009
1095	1.0885e+02	9.1104	19.649594	0.000131	1.309759	0.221879	-0.000013
1096	1.0895e+02	9.0991	19.636151	0.000135	1.350689	0.228813	-0.000014
1097	1.0905e+02	9.0923	19.621894	0.000143	1.432549	0.242680	-0.000014
1098	1.0915e+02	9.0798	19.609267	0.000127	1.268829	0.214945	-0.000013
1099	1.0925e+02	9.0729	19.590529	0.000188	1.882778	0.318951	-0.000019
1100	1.0935e+02	9.0582	19.577901	0.000127	1.268829	0.214945	-0.000013
1101	1.0945e+02	9.0479	19.564459	0.000135	1.350689	0.228813	-0.000014
1102	1.0955e+02	9.0405	19.552646	0.000119	1.186969	0.201078	-0.000012
1103	1.0965e+02	9.0284	19.535538	0.000172	1.719058	0.291216	-0.000017
1104	1.0975e+02	9.0192	19.523317	0.000123	1.227899	0.208012	-0.000012
1105	1.0985e+02	9.0089	19.509875	0.000135	1.350689	0.228813	-0.000014
1106	1.0995e+02	9.0000	19.493989	0.000160	1.596269	0.270415	-0.000016
1107	1.1005e+02	8.9893	19.478510	0.000156	1.555339	0.263481	-0.000016
1108	1.1015e+02	8.9819	19.466290	0.000123	1.227899	0.208012	-0.000012
1109	1.1025e+02	8.9687	19.451625	0.000147	1.473479	0.249614	-0.000015
1110	1.1035e+02	8.9600	19.437776	0.000139	1.391619	0.235747	-0.000014
1111	1.1044e+02	8.9491	19.423926	0.000139	1.391619	0.235747	-0.000014
1112	1.1054e+02	8.9389	19.410076	0.000139	1.391619	0.235747	-0.000014
1113	1.1064e+02	8.9289	19.393783	0.000164	1.637199	0.277349	-0.000016
1114	1.1074e+02	8.9201	19.380748	0.000131	1.309759	0.221879	-0.000013
1115	1.1084e+02	8.9088	19.363232	0.000176	1.759988	0.298150	-0.000018
1116	1.1094e+02	8.9026	19.348568	0.000147	1.473479	0.249614	-0.000015
1117	1.1104e+02	8.8904	19.331459	0.000172	1.719058	0.291216	-0.000017
1118	1.1114e+02	8.8808	19.315573	0.000160	1.596269	0.270415	-0.000016
1119	1.1124e+02	8.8697	19.299686	0.000160	1.596269	0.270415	-0.000016
1120	1.1134e+02	8.8609	19.280541	0.000192	1.923708	0.325885	-0.000019
1121	1.1144e+02	8.8490	19.264655	0.000160	1.596269	0.270415	-0.000016
1122	1.1154e+02	8.8404	19.245510	0.000192	1.923708	0.325885	-0.000019
1123	1.1164e+02	8.8316	19.228809	0.000168	1.678129	0.284283	-0.000017
1124	1.1174e+02	8.8219	19.215367	0.000135	1.350689	0.228813	-0.000014
1125	1.1184e+02	8.8142	19.195814	0.000196	1.964638	0.332819	-0.000020
1126	1.1194e+02	8.8004	19.179928	0.000160	1.596269	0.270415	-0.000016
1127	1.1204e+02	8.7911	19.164041	0.000160	1.596269	0.270415	-0.000016
1128	1.1214e+02	8.7809	19.143267	0.000209	2.087428	0.353620	-0.000021
1129	1.1224e+02	8.7716	19.127788	0.000156	1.555339	0.263481	-0.000016
1130	1.1234e+02	8.7614	19.106199	0.000217	2.169288	0.367487	-0.000022
1131	1.1244e+02	8.7520	19.085832	0.000205	2.046498	0.346686	-0.000020
1132	1.1253e+02	8.7415	19.066279	0.000196	1.964638	0.332819	-0.000020
1133	1.1263e+02	8.7319	19.051615	0.000147	1.473479	0.249614	-0.000015
1134	1.1273e+02	8.7222	19.031655	0.000201	2.005568	0.339752	-0.000020
1135	1.1283e+02	8.7121	19.013732	0.000180	1.800918	0.305084	-0.000018
1136	1.1293e+02	8.7020	18.989699	0.000241	2.414868	0.409090	-0.000024
1137	1.1303e+02	8.6910	18.972183	0.000176	1.759988	0.298150	-0.000018
1138	1.1313e+02	8.6835	18.953038	0.000192	1.923708	0.325885	-0.000019
1139	1.1323e+02	8.6720	18.930227	0.000229	2.292078	0.388289	-0.000023
1140	1.1333e+02	8.6621	18.909860	0.000205	2.046498	0.346686	-0.000020
1141	1.1343e+02	8.6496	18.893566	0.000164	1.637199	0.277349	-0.000016
1142	1.1353e+02	8.6416	18.871162	0.000225	2.251148	0.381355	-0.000023
1143	1.1363e+02	8.6330	18.851610	0.000196	1.964638	0.332819	-0.000020
1144	1.1373e+02	8.6230	18.833279	0.000184	1.841848	0.312018	-0.000018
1145	1.1383e+02	8.6107	18.809653	0.000237	2.373938	0.402156	-0.000024
1146	1.1393e+02	8.6037	18.794174	0.000156	1.555339	0.263481	-0.000016
1147	1.1403e+02	8.5904	18.775437	0.000188	1.882778	0.318951	-0.000019
1148	1.1413e+02	8.5818	18.752218	0.000233	2.333008	0.395222	-0.000023
1149	1.1423e+02	8.5738	18.732666	0.000196	1.964638	0.332819	-0.000020
1150	1.1433e+02	8.5622	18.713520	0.000192	1.923708	0.325885	-0.000019
1151	1.1442e+02	8.5526	18.694783	0.000188	1.882778	0.318951	-0.000019
1152	1.1452e+02	8.5415	18.673194	0.000217	2.169288	0.367487	-0.000022
1153	1.1462e+02	8.5352	18.655678	0.000176	1.759988	0.298150	-0.000018
1154	1.1472e+02	8.5254	18.631645	0.000241	2.414868	0.409090	-0.000024
1155	1.1482e+02	8.5136	18.608426	0.000233	2.333008	0.395222	-0.000023
1156	1.1492e+02	8.5042	18.589688	0.000188	1.882778	0.318951	-0.000019
1157	1.1502e+02	8.4936	18.569729	0.000201	2.005568	0.339752	-0.000020
1158	1.1512e+02	8.4832	18.549361	0.000205	2.046498	0.346686	-0.000020
1159	1.1522e+02	8.4718	18.524106	0.000254	2.537658	0.429891	-0.000025
1160	1.1532e+02	8.4638	18.499666	0.000246	2.455798	0.416023	-0.000025
1161	1.1542e+02	8.4521	18.479706	0.000201	2.005568	0.339752	-0.000020
1162	1.1552e+02	8.4457	18.459339	0.000205	2.046498	0.346686	-0.000020
1163	1.1562e+02	8.4351	18.434898	0.000246	2.455798	0.416023	-0.000025
1164	1.1572e+02	8.4190	18.414124	0.000209	2.087428	0.353620	-0.000021
1165	1.1582e+02	8.4144	18.394164	0.000201	2.005568	0.339752	-0.000020
1166	1.1592e+02	8.4006	18.366872	0.000274	2.742308	0.464559	-0.000027
1167	1.1602e+02	8.3930	18.345283	0.000217	2.169288	0.367487	-0.000022
1168	1.1612e+02	8.3820	18.326545	0.000188	1.882778	0.318951	-0.000019
1169	1.1622e+02	8.3730	18.301290	0.000254	2.537658	0.429891	-0.000025
1170	1.1632e+02	8.3647	18.277664	0.000237	2.373938	0.402156	-0.000024
1171	1.1642e+02	8.3538	18.256075	0.000217	2.169288	0.367487	-0.000022
1172	1.1651e+02	8.3428	18.229190	0.000270	2.701378	0.457626	-0.000027
1173	1.1661e+02	8.3329	18.207194	0.000221	2.210218	0.374421	-0.000022
1174	1.1671e+02	8.3252	18.184790	0.000225	2.251148	0.381355	-0.000023
1175	1.1681e+02	8.3132	18.167681	0.000172	1.719058	0.291216	-0.000017
1176	1.1691e+02	8.3044	18.139982	0.000278	2.783238	0.471493	-0.000028
1177	1.1701e+02	8.2952	18.112283	0.000278	2.783238	0.471493	-0.000028
1178	1.1711e+02	8.2832	18.095174	0.000172	1.719058	0.291216	-0.000017
1179	1.1721e+02	8.2742	18.070327	0.000250	2.496728	0.422957	-0.000025
1180	1.1731e+02	8.2635	18.049145	0.000213	2.128358	0.360554	-0.000021
1181	1.1741e+02	8.2548	18.023075	0.000262	2.619518	0.443758	-0.000026
1182	1.1751e+02	8.2423	18.000264	0.000229	2.292078	0.388289	-0.000023
1183	1.1761e+02	8.2334	17.979082	0.000213	2.128358	0.360554	-0.000021
1184	1.1771e+02	8.2220	17.953827	0.000254	2.537658	0.429891	-0.000025
1185	1.1781e+02	8.2153	17.928164	0.000258	2.578588	0.436825	-0.000026
1186	1.1791e+02	8.2028	17.904538	0.000237	2.373938	0.402156	-0.000024
1187	1.1801e+02	8.1941	17.883764	0.000209	2.087428	0.353620	-0.000021
1188	1.1811e+02	8.1817	17.861767	0.000221	2.210218	0.374421	-0.000022
1189	1.1821e+02	8.1730	17.835290	0.000266	2.660448	0.450692	-0.000027
1190	1.1831e+02	8.1628	17.810035	0.000254	2.537658	0.429891	-0.000025
1191	1.1841e+02	8.1550	17.791297	0.000188	1.882778	0.318951	-0.000019
1192	1.1850e+02	8.1454	17.763598	0.000278	2.783238	0.471493	-0.000028
1193	1.1860e+02	8.1343	17.741194	0.000225	2.251148	0.381355	-0.000023
1194	1.1870e+02	8.1283	17.717568	0.000237	2.373938	0.402156	-0.000024
1195	1.1880e+02	8.1146	17.692313	0.000254	2.537658	0.429891	-0.000025
1196	1.1890e+02	8.1043	17.668687	0.000237	2.373938	0.402156	-0.000024
1197	1.1900e+02	8.0969	17.639766	0.000291	2.906027	0.492294	-0.000029
1198	1.1910e+02	8.0851	17.619806	0.000201	2.005568	0.339752	-0.000020
1199	1.1920e+02	8.0753	17.594143	0.000258	2.578588	0.436825	-0.000026
1200	1.1930e+02	8.0636	17.571332	0.000229	2.292078	0.388289	-0.000023
1201	1.1940e+02	8.0559	17.542818	0.000287	2.865097	0.485361	-0.000029
1202	1.1950e+02	8.0450	17.516748	0.000262	2.619518	0.443758	-0.000026
1203	1.1960e+02	8.0373	17.493937	0.000229	2.292078	0.388289	-0.000023
1204	1.1970e+02	8.0252	17.472755	0.000213	2.128358	0.360554	-0.000021
1205	1.1980e+02	8.0142	17.445056	0.000278	2.783238	0.471493	-0.000028
1206	1.1990e+02	8.0071	17.423467	0.000217	2.169288	0.367487	-0.000022
1207	1.2000e+02	7.9961	17.398619	0.000250	2.496728	0.422957	-0.000025
1208	1.2010e+02	7.9857	17.371327	0.000274	2.742308	0.464559	-0.000027
1209	1.2020e+02	7.9783	17.347701	0.000237	2.373938	0.402156	-0.000024
1210	1.2030e+02	7.9644	17.321224	0.000266	2.660448	0.450692	-0.000027
1211	1.2039e+02	7.9577	17.295154	0.000262	2.619518	0.443758	-0.000026
1212	1.2049e+02	7.9476	17.272343	0.000229	2.292078	0.388289	-0.000023
1213	1.2059e+02	7.9362	17.246273	0.000262	2.619518	0.443758	-0.000026
1214	1.2069e+02	7.9243	17.219388	0.000270	2.701378	0.457626	-0.000027
1215	1.2079e+02	7.9151	17.195355	0.000241	2.414868	0.409090	-0.000024
1216	1.2089e+02	7.9077	17.173358	0.000221	2.210218	0.374421	-0.000022
1217	1.2099e+02	7.8970	17.146881	0.000266	2.660448	0.450692	-0.000027
1218	1.2109e+02	7.8859	17.119182	0.000278	2.783238	0.471493	-0.000028
1219	1.2119e+02	7.8757	17.095556	0.000237	2.373938	0.402156	-0.000024
1220	1.2129e+02	7.8645	17.070708	0.000250	2.496728	0.422957	-0.000025
1221	1.2139e+02	7.8565	17.043009	0.000278	2.783238	0.471493	-0.000028
1222	1.2149e+02	7.8449	17.018161	0.000250	2.496728	0.422957	-0.000025
1223	1.2159e+02	7.8385	16.994942	0.000233	2.333008	0.395222	-0.000023
1224	1.2169e+02	7.8278	16.969280	0.000258	2.578588	0.436825	-0.000026
1225	1.2179e+02	7.8207	16.944024	0.000254	2.537658	0.429891	-0.000025
1226	1.2189e+02	7.8066	16.920399	0.000237	2.373938	0.402156	-0.000024
1227	1.2199e+02	7.7961	16.889033	0.000315	3.151607	0.533897	-0.000032
1228	1.2209e+02	7.7868	16.866222	0.000229	2.292078	0.388289	-0.000023
1229	1.2219e+02	7.7779	16.836893	0.000295	2.946957	0.499228	-0.000029
1230	1.2229e+02	7.7661	16.814490	0.000225	2.251148	0.381355	-0.000023
1231	1.2239e+02	7.7590	16.787198	0.000274	2.742308	0.464559	-0.000027
1232	1.2248e+02	7.7490	16.761535	0.000258	2.578588	0.436825	-0.000026
1233	1.2258e+02	7.7402	16.737909	0.000237	2.373938	0.402156	-0.000024
1234	1.2268e+02	7.7274	16.708173	0.000299	2.987887	0.506162	-0.000030
1235	1.2278e+02	7.7151	16.684547	0.000237	2.373938	0.402156	-0.000024
1236	1.2288e+02	7.7059	16.658477	0.000262	2.619518	0.443758	-0.000026
1237	1.2298e+02	7.6947	16.634851	0.000237	2.373938	0.402156	-0.000024
1238	1.2308e+02	7.6869	16.605115	0.000299	2.987887	0.506162	-0.000030
1239	1.2318e+02	7.6775	16.576601	0.000287	2.865097	0.485361	-0.000029
1240	1.2328e+02	7.6677	16.552976	0.000237	2.373938	0.402156	-0.000024
1241	1.2338e+02	7.6548	16.525684	0.000274	2.742308	0.464559	-0.000027
1242	1.2348e+02	7.6476	16.501650	0.000241	2.414868	0.409090	-0.000024
1243	1.2358e+02	7.6369	16.471507	0.000303	3.028817	0.513096	-0.000030
1244	1.2368e+02	7.6261	16.446252	0.000254	2.537658	0.429891	-0.000025
1245	1.2378e+02	7.6179	16.422219	0.000241	2.414868	0.409090	-0.000024
1246	1.2388e+02	7.6055	16.397778	0.000246	2.455798	0.416023	-0.000025
1247	1.2398e+02	7.5995	16.369264	0.000287	2.865097	0.485361	-0.000029
1248	1.2408e+02	7.5875	16.343194	0.000262	2.619518	0.443758	-0.000026
1249	1.2418e+02	7.5782	16.314273	0.000291	2.906027	0.492294	-0.000029
1250	1.2428e+02	7.5692	16.289425	0.000250	2.496728	0.422957	-0.000025
1251	1.2438e+02	7.5573	16.261318	0.000282	2.824167	0.478427	-0.000028
1252	1.2447e+02	7.5465	16.231990	0.000295	2.946957	0.499228	-0.000029
1253	1.2457e+02	7.5373	16.205920	0.000262	2.619518	0.443758	-0.000026
1254	1.2467e+02	7.5260	16.182701	0.000233	2.333008	0.395222	-0.000023
1255	1.2477e+02	7.5210	16.153373	0.000295	2.946957	0.499228	-0.000029
1256	1.2487e+02	7.5079	16.126081	0.000274	2.742308	0.464559	-0.000027
1257	1.2497e+02	7.4974	16.099603	0.000266	2.660448	0.450692	-0.000027
1258	1.2507e+02	7.4874	16.076792	0.000229	2.292078	0.388289	-0.000023
1259	1.2517e+02	7.4805	16.046241	0.000307	3.069747	0.520029	-0.000031
1260	1.2527e+02	7.4665	16.018950	0.000274	2.742308	0.464559	-0.000027
1261	1.2537e+02	7.4590	15.990436	0.000287	2.865097	0.485361	-0.000029
1262	1.2547e+02	7.4485	15.965995	0.000246	2.455798	0.416023	-0.000025
1263	1.2557e+02	7.4378	15.938703	0.000274	2.742308	0.464559	-0.000027
1264	1.2567e+02	7.4276	15.911411	0.000274	2.742308	0.464559	-0.000027
1265	1.2577e+02	7.4177	15.887378	0.000241	2.414868	0.409090	-0.000024
1266	1.2587e+02	7.4101	15.855198	0.000323	3.233467	0.547764	-0.000032
1267	1.2597e+02	7.3964	15.827906	0.000274	2.742308	0.464559	-0.000027
1268	1.2607e+02	7.3881	15.801021	0.000270	2.701378	0.457626	-0.000027
1269	1.2617e+02	7.3792	15.774544	0.000266	2.660448	0.450692	-0.000027
1270	1.2627e+02	7.3717	15.747659	0.000270	2.701378	0.457626	-0.000027
1271	1.2636e+02	7.3584	15.720775	0.000270	2.701378	0.457626	-0.000027
1272	1.2646e+02	7.3501	15.689409	0.000315	3.151607	0.533897	-0.000032
1273	1.2656e+02	7.3372	15.664561	0.000250	2.496728	0.422957	-0.000025
1274	1.2666e+02	7.3260	15.636455	0.000282	2.824167	0.478427	-0.000028
1275	1.2676e+02	7.3203	15.608348	0.000282	2.824167	0.478427	-0.000028
1276	1.2686e+02	7.3089	15.579427	0.000291	2.906027	0.492294	-0.000029
1277	1.2696e+02	7.2994	15.551320	0.000282	2.824167	0.478427	-0.000028
1278	1.2706e+02	7.2904	15.525250	0.000262	2.619518	0.443758	-0.000026
1279	1.2716e+02	7.2791	15.500810	0.000246	2.455798	0.416023	-0.000025
1280	1.2726e+02	7.2688	15.473518	0.000274	2.742308	0.464559	-0.000027
1281	1.2736e+02	7.2583	15.442560	0.000311	3.110677	0.526963	-0.000031
1282	1.2746e+02	7.2500	15.412416	0.000303	3.028817	0.513096	-0.000030
1283	1.2756e+02	7.2385	15.383088	0.000295	2.946957	0.499228	-0.000029
1284	1.2766e+02	7.2291	15.358240	0.000250	2.496728	0.422957	-0.000025
1285	1.2776e+02	7.2191	15.329726	0.000287	2.865097	0.485361	-0.000029
1286	1.2786e+02	7.2094	15.303656	0.000262	2.619518	0.443758	-0.000026
1287	1.2796e+02	7.2010	15.275549	0.000282	2.824167	0.478427	-0.000028
1288	1.2806e+02	7.1909	15.247035	0.000287	2.865097	0.485361	-0.000029
1289	1.2816e+02	7.1804	15.218114	0.000291	2.906027	0.492294	-0.000029
1290	1.2826e+02	7.1714	15.189600	0.000287	2.865097	0.485361	-0.000029
1291	1.2835e+02	7.1587	15.161086	0.000287	2.865097	0.485361	-0.000029
1292	1.2845e+02	7.1511	15.132979	0.000282	2.824167	0.478427	-0.000028
1293	1.2855e+02	7.1392	15.104058	0.000291	2.906027	0.492294	-0.000029
1294	1.2865e+02	7.1317	15.080025	0.000241	2.414868	0.409090	-0.000024
1295	1.2875e+02	7.1205	15.049474	0.000307	3.069747	0.520029	-0.000031
1296	1.2885e+02	7.1110	15.020146	0.000295	2.946957	0.499228	-0.000029
1297	1.2895e+02	7.0983	14.990410	0.000299	2.987887	0.506162	-0.000030
1298	1.2905e+02	7.0879	14.959452	0.000311	3.110677	0.526963	-0.000031
1299	1.2915e+02	7.0809	14.936640	0.000229	2.292078	0.388289	-0.000023
1300	1.2925e+02	7.0722	14.909756	0.000270	2.701378	0.457626	-0.000027
1301	1.2935e+02	7.0606	14.881242	0.000287	2.865097	0.485361	-0.000029
1302	1.2945e+02	7.0495	14.852320	0.000291	2.906027	0.492294	-0.000029
1303	1.2955e+02	7.0410	14.827880	0.000246	2.455798	0.416023	-0.000025
1304	1.2965e+02	7.0322	14.795700	0.000323	3.233467	0.547764	-0.000032
1305	1.2975e+02	7.0195	14.766779	0.000291	2.906027	0.492294	-0.000029
1306	1.2985e+02	7.0103	14.736228	0.000307	3.069747	0.520029	-0.000031
1307	1.2995e+02	7.0012	14.708121	0.000282	2.824167	0.478427	-0.000028
1308	1.3005e+02	6.9881	14.678385	0.000299	2.987887	0.506162	-0.000030
1309	1.3015e+02	6.9807	14.651501	0.000270	2.701378	0.457626	-0.000027
1310	1.3025e+02	6.9675	14.620543	0.000311	3.110677	0.526963	-0.000031
1311	1.3034e+02	6.9622	14.592029	0.000287	2.865097	0.485361	-0.000029
1312	1.3044e+02	6.9518	14.565144	0.000270	2.701378	0.457626	-0.000027
1313	1.3054e+02	6.9398	14.535815	0.000295	2.946957	0.499228	-0.000029
1314	1.3064e+02	6.9320	14.508523	0.000274	2.742308	0.464559	-0.000027
1315	1.3074e+02	6.9181	14.481231	0.000274	2.742308	0.464559	-0.000027
1316	1.3084e+02	6.9141	14.452717	0.000287	2.865097	0.485361	-0.000029
1317	1.3094e+02	6.8992	14.422167	0.000307	3.069747	0.520029	-0.000031
1318	1.3104e+02	6.8902	14.393653	0.000287	2.865097	0.485361	-0.000029
1319	1.3114e+02	6.8838	14.361880	0.000319	3.192537	0.540830	-0.000032
1320	1.3124e+02	6.8725	14.334995	0.000270	2.701378	0.457626	-0.000027
1321	1.3134e+02	6.8567	14.306889	0.000282	2.824167	0.478427	-0.000028
1322	1.3144e+02	6.8498	14.277153	0.000299	2.987887	0.506162	-0.000030
1323	1.3154e+02	6.8381	14.249046	0.000282	2.824167	0.478427	-0.000028
1324	1.3164e+02	6.8317	14.217273	0.000319	3.192537	0.540830	-0.000032
1325	1.3174e+02	6.8206	14.192426	0.000250	2.496728	0.422957	-0.000025
1326	1.3184e+02	6.8145	14.161060	0.000315	3.151607	0.533897	-0.000032
1327	1.3194e+02	6.8027	14.132546	0.000287	2.865097	0.485361	-0.000029
1328	1.3204e+02	6.7910	14.100366	0.000323	3.233467	0.547764	-0.000032
1329	1.3214e+02	6.7815	14.072259	0.000282	2.824167	0.478427	-0.000028
1330	1.3224e+02	6.7756	14.046597	0.000258	2.578588	0.436825	-0.000026
1331	1.3234e+02	6.7620	14.016046	0.000307	3.069747	0.520029	-0.000031
1332	1.3243e+02	6.7508	13.987532	0.000287	2.865097	0.485361	-0.000029
1333	1.3253e+02	6.7413	13.956574	0.000311	3.110677	0.526963	-0.000031
1334	1.3263e+02	6.7330	13.929282	0.000274	2.742308	0.464559	-0.000027
1335	1.3273e+02	6.7229	13.899139	0.000303	3.028817	0.513096	-0.000030
1336	1.3283e+02	6.7110	13.866959	0.000323	3.233467	0.547764	-0.000032
1337	1.3293e+02	6.7010	13.840074	0.000270	2.701378	0.457626	-0.000027
1338	1.3303e+02	6.6950	13.810338	0.000299	2.987887	0.506162	-0.000030
1339	1.3313e+02	6.6827	13.777751	0.000327	3.274397	0.554698	-0.000033
1340	1.3323e+02	6.6729	13.751274	0.000266	2.660448	0.450692	-0.000027
1341	1.3333e+02	6.6595	13.721538	0.000299	2.987887	0.506162	-0.000030
1342	1.3343e+02	6.6537	13.686506	0.000352	3.519977	0.596300	-0.000035
1343	1.3353e+02	6.6439	13.661658	0.000250	2.496728	0.422957	-0.000025
1344	1.3363e+02	6.6322	13.631922	0.000299	2.987887	0.506162	-0.000030
1345	1.3373e+02	6.6215	13.603408	0.000287	2.865097	0.485361	-0.000029
1346	1.3383e+02	6.6122	13.573265	0.000303	3.028817	0.513096	-0.000030
1347	1.3393e+02	6.6050	13.547602	0.000258	2.578588	0.436825	-0.000026
1348	1.3403e+02	6.5900	13.515422	0.000323	3.233467	0.547764	-0.000032
1349	1.3413e+02	6.5813	13.486501	0.000291	2.906027	0.492294	-0.000029
1350	1.3423e+02	6.5716	13.456765	0.000299	2.987887	0.506162	-0.000030
1351	1.3432e+02	6.5635	13.424585	0.000323	3.233467	0.547764	-0.000032
1352	1.3442e+02	6.5520	13.392812	0.000319	3.192537	0.540830	-0.000032
1353	1.3452e+02	6.5411	13.367149	0.000258	2.578588	0.436825	-0.000026
1354	1.3462e+02	6.5328	13.334155	0.000332	3.315327	0.561632	-0.000033
1355	1.3472e+02	6.5211	13.305233	0.000291	2.906027	0.492294	-0.000029
1356	1.3482e+02	6.5108	13.277127	0.000282	2.824167	0.478427	-0.000028
1357	1.3492e+02	6.5031	13.248205	0.000291	2.906027	0.492294	-0.000029
1358	1.3502e+02	6.4928	13.216840	0.000315	3.151607	0.533897	-0.000032
1359	1.3512e+02	6.4803	13.186697	0.000303	3.028817	0.513096	-0.000030
1360	1.3522e+02	6.4716	13.157775	0.000291	2.906027	0.492294	-0.000029
1361	1.3532e+02	6.4630	13.128039	0.000299	2.987887	0.506162	-0.000030
1362	1.3542e+02	6.4526	13.099933	0.000282	2.824167	0.478427	-0.000028
1363	1.3552e+02	6.4446	13.065309	0.000348	3.479047	0.589366	-0.000035
1364	1.3562e+02	6.4340	13.035573	0.000299	2.987887	0.506162	-0.000030
1365	1.3572e+02	6.4223	13.007466	0.000282	2.824167	0.478427	-0.000028
1366	1.3582e+02	6.4126	12.978545	0.000291	2.906027	0.492294	-0.000029
1367	1.3592e+02	6.4043	12.944735	0.000340	3.397187	0.575499	-0.000034
1368	1.3602e+02	6.3954	12.918258	0.000266	2.660448	0.450692	-0.000027
1369	1.3612e+02	6.3838	12.885263	0.000332	3.315327	0.561632	-0.000033
1370	1.3622e+02	6.3738	12.854713	0.000307	3.069747	0.520029	-0.000031
1371	1.3631e+02	6.3656	12.823755	0.000311	3.110677	0.526963	-0.000031
1372	1.3641e+02	6.3551	12.793611	0.000303	3.028817	0.513096	-0.000030
1373	1.3651e+02	6.3464	12.766319	0.000274	2.742308	0.464559	-0.000027
1374	1.3661e+02	6.3344	12.734954	0.000315	3.151607	0.533897	-0.000032
1375	1.3671e+02	6.3244	12.705625	0.000295	2.946957	0.499228	-0.000029
1376	1.3681e+02	6.3084	12.677519	0.000282	2.824167	0.478427	-0.000028
1377	1.3691e+02	6.3043	12.643709	0.000340	3.397187	0.575499	-0.000034
1378	1.3701e+02	6.2954	12.618047	0.000258	2.578588	0.436825	-0.000026
1379	1.3711e+02	6.2858	12.584644	0.000336	3.356257	0.568565	-0.000034
1380	1.3721e+02	6.2749	12.555723	0.000291	2.906027	0.492294	-0.000029
1381	1.3731e+02	6.2667	12.525580	0.000303	3.028817	0.513096	-0.000030
1382	1.3741e+02	6.2552	12.495844	0.000299	2.987887	0.506162	-0.000030
1383	1.3751e+02	6.2432	12.466922	0.000291	2.906027	0.492294	-0.000029
1384	1.3761e+02	6.2344	12.431076	0.000360	3.601837	0.610168	-0.000036
1385	1.3771e+02	6.2251	12.403784	0.000274	2.742308	0.464559	-0.000027
1386	1.3781e+02	6.2113	12.370790	0.000332	3.315327	0.561632	-0.000033
1387	1.3791e+02	6.2048	12.341054	0.000299	2.987887	0.506162	-0.000030
1388	1.3801e+02	6.1963	12.312540	0.000287	2.865097	0.485361	-0.000029
1389	1.3811e+02	6.1849	12.281989	0.000307	3.069747	0.520029	-0.000031
1390	1.3821e+02	6.1745	12.251031	0.000311	3.110677	0.526963	-0.000031
1391	1.3831e+02	6.1663	12.218444	0.000327	3.274397	0.554698	-0.000033
1392	1.3840e+02	6.1544	12.188707	0.000299	2.987887	0.506162	-0.000030
1393	1.3850e+02	6.1462	12.154491	0.000344	3.438117	0.582433	-0.000034
1394	1.3860e+02	6.1381	12.123533	0.000311	3.110677	0.526963	-0.000031
1395	1.3870e+02	6.1230	12.098277	0.000254	2.537658	0.429891	-0.000025
1396	1.3880e+02	6.1169	12.062839	0.000356	3.560907	0.603234	-0.000036
1397	1.3890e+02	6.1074	12.032288	0.000307	3.069747	0.520029	-0.000031
1398	1.3900e+02	6.0941	12.001330	0.000311	3.110677	0.526963	-0.000031
1399	1.3910e+02	6.0818	11.969965	0.000315	3.151607	0.533897	-0.000032
1400	1.3920e+02	6.0760	11.941858	0.000282	2.824167	0.478427	-0.000028
1401	1.3930e+02	6.0677	11.907234	0.000348	3.479047	0.589366	-0.000035
1402	1.3940e+02	6.0566	11.880349	0.000270	2.701378	0.457626	-0.000027
1403	1.3950e+02	6.0448	11.850613	0.000299	2.987887	0.506162	-0.000030
1404	1.3960e+02	6.0375	11.816804	0.000340	3.397187	0.575499	-0.000034
1405	1.3970e+02	6.0271	11.788697	0.000282	2.824167	0.478427	-0.000028
1406	1.3980e+02	6.0166	11.755702	0.000332	3.315327	0.561632	-0.000033
1407	1.3990e+02	6.0062	11.723522	0.000323	3.233467	0.547764	-0.000032
1408	1.4000e+02	5.9957	11.693379	0.000303	3.028817	0.513096	-0.000030
1409	1.4010e+02	5.9832	11.662421	0.000311	3.110677	0.526963	-0.000031
1410	1.4020e+02	5.9761	11.627797	0.000348	3.479047	0.589366	-0.000035
1411	1.4029e+02	5.9675	11.598468	0.000295	2.946957	0.499228	-0.000029
1412	1.4039e+02	5.9551	11.567917	0.000307	3.069747	0.520029	-0.000031
1413	1.4049e+02	5.9464	11.537367	0.000307	3.069747	0.520029	-0.000031
1414	1.4059e+02	5.9346	11.508445	0.000291	2.906027	0.492294	-0.000029
1415	1.4069e+02	5.9268	11.474229	0.000344	3.438117	0.582433	-0.000034
1416	1.4079e+02	5.9148	11.442049	0.000323	3.233467	0.547764	-0.000032
1417	1.4089e+02	5.9063	11.411091	0.000311	3.110677	0.526963	-0.000031
1418	1.4099e+02	5.8953	11.382984	0.000282	2.824167	0.478427	-0.000028
1419	1.4109e+02	5.8838	11.353248	0.000299	2.987887	0.506162	-0.000030
1420	1.4119e+02	5.8749	11.318216	0.000352	3.519977	0.596300	-0.000035
1421	1.4129e+02	5.8643	11.286851	0.000315	3.151607	0.533897	-0.000032
1422	1.4139e+02	5.8559	11.255078	0.000319	3.192537	0.540830	-0.000032
1423	1.4149e+02	5.8466	11.221676	0.000336	3.356257	0.568565	-0.000034
1424	1.4159e+02	5.8376	11.186645	0.000352	3.519977	0.596300	-0.000035
1425	1.4169e+02	5.8263	11.164241	0.000225	2.251148	0.381355	-0.000023
1426	1.4179e+02	5.8179	11.132061	0.000323	3.233467	0.547764	-0.000032
1427	1.4189e+02	5.8074	11.098659	0.000336	3.356257	0.568565	-0.000034
1428	1.4199e+02	5.7961	11.064442	0.000344	3.438117	0.582433	-0.000034
1429	1.4209e+02	5.7863	11.031447	0.000332	3.315327	0.561632	-0.000033
1430	1.4219e+02	5.7787	11.003341	0.000282	2.824167	0.478427	-0.000028
1431	1.4228e+02	5.7662	10.969531	0.000340	3.397187	0.575499	-0.000034
1432	1.4238e+02	5.7561	10.937351	0.000323	3.233467	0.547764	-0.000032
1433	1.4248e+02	5.7473	10.908837	0.000287	2.865097	0.485361	-0.000029
1434	1.4258e+02	5.7369	10.877064	0.000319	3.192537	0.540830	-0.000032
1435	1.4268e+02	5.7256	10.843662	0.000336	3.356257	0.568565	-0.000034
1436	1.4278e+02	5.7198	10.815556	0.000282	2.824167	0.478427	-0.000028
1437	1.4288e+02	5.7063	10.778895	0.000368	3.683697	0.624035	-0.000037
1438	1.4298e+02	5.6994	10.749159	0.000299	2.987887	0.506162	-0.000030
1439	1.4308e+02	5.6893	10.716979	0.000323	3.233467	0.547764	-0.000032
1440	1.4318e+02	5.6768	10.682762	0.000344	3.438117	0.582433	-0.000034
1441	1.4328e+02	5.6664	10.652619	0.000303	3.028817	0.513096	-0.000030
1442	1.4338e+02	5.6594	10.618402	0.000344	3.438117	0.582433	-0.000034
1443	1.4348e+02	5.6469	10.587851	0.000307	3.069747	0.520029	-0.000031
1444	1.4358e+02	5.6385	10.557301	0.000307	3.069747	0.520029	-0.000031
1445	1.4368e+02	5.6283	10.523084	0.000344	3.438117	0.582433	-0.000034
1446	1.4378e+02	5.6152	10.490089	0.000332	3.315327	0.561632	-0.000033
1447	1.4388e+02	5.6089	10.463204	0.000270	2.701378	0.457626	-0.000027
1448	1.4398e+02	5.5957	10.428988	0.000344	3.438117	0.582433	-0.000034
1449	1.4408e+02	5.5853	10.397215	0.000319	3.192537	0.540830	-0.000032
1450	1.4418e+02	5.5762	10.363813	0.000336	3.356257	0.568565	-0.000034
1451	1.4428e+02	5.5647	10.333670	0.000303	3.028817	0.513096	-0.000030
1452	1.4437e+02	5.5577	10.297009	0.000368	3.683697	0.624035	-0.000037
1453	1.4447e+02	5.5460	10.266458	0.000307	3.069747	0.520029	-0.000031
1454	1.4457e+02	5.5373	10.233871	0.000327	3.274397	0.554698	-0.000033
1455	1.4467e+02	5.5302	10.202913	0.000311	3.110677	0.526963	-0.000031
1456	1.4477e+02	5.5177	10.165437	0.000377	3.765557	0.637903	-0.000038
1457	1.4487e+02	5.5082	10.135294	0.000303	3.028817	0.513096	-0.000030
1458	1.4497e+02	5.4977	10.104336	0.000311	3.110677	0.526963	-0.000031
1459	1.4507e+02	5.4884	10.071341	0.000332	3.315327	0.561632	-0.000033
1460	1.4517e+02	5.4810	10.040383	0.000311	3.110677	0.526963	-0.000031
1461	1.4527e+02	5.4688	10.005759	0.000348	3.479047	0.589366	-0.000035
1462	1.4537e+02	5.4591	9.975208	0.000307	3.069747	0.520029	-0.000031
1463	1.4547e+02	5.4492	9.940584	0.000348	3.479047	0.589366	-0.000035
1464	1.4557e+02	5.4393	9.910848	0.000299	2.987887	0.506162	-0.000030
1465	1.4567e+02	5.4298	9.878261	0.000327	3.274397	0.554698	-0.000033
1466	1.4577e+02	5.4205	9.844858	0.000336	3.356257	0.568565	-0.000034
1467	1.4587e+02	5.4101	9.810642	0.000344	3.438117	0.582433	-0.000034
1468	1.4597e+02	5.3999	9.779276	0.000315	3.151607	0.533897	-0.000032
1469	1.4607e+02	5.3883	9.746689	0.000327	3.274397	0.554698	-0.000033
1470	1.4617e+02	5.3767	9.709621	0.000372	3.724627	0.630969	-0.000037
1471	1.4626e+02	5.3689	9.681921	0.000278	2.783238	0.471493	-0.000028
1472	1.4636e+02	5.3605	9.648519	0.000336	3.356257	0.568565	-0.000034
1473	1.4646e+02	5.3497	9.616747	0.000319	3.192537	0.540830	-0.000032
1474	1.4656e+02	5.3381	9.582123	0.000348	3.479047	0.589366	-0.000035
1475	1.4666e+02	5.3297	9.549128	0.000332	3.315327	0.561632	-0.000033
1476	1.4676e+02	5.3185	9.516133	0.000332	3.315327	0.561632	-0.000033
1477	1.4686e+02	5.3085	9.486804	0.000295	2.946957	0.499228	-0.000029
1478	1.4696e+02	5.2990	9.453402	0.000336	3.356257	0.568565	-0.000034
1479	1.4706e+02	5.2905	9.421222	0.000323	3.233467	0.547764	-0.000032
1480	1.4716e+02	5.2798	9.385376	0.000360	3.601837	0.610168	-0.000036
1481	1.4726e+02	5.2687	9.355640	0.000299	2.987887	0.506162	-0.000030
1482	1.4736e+02	5.2603	9.321016	0.000348	3.479047	0.589366	-0.000035
1483	1.4746e+02	5.2486	9.284355	0.000368	3.683697	0.624035	-0.000037
1484	1.4756e+02	5.2394	9.253397	0.000311	3.110677	0.526963	-0.000031
1485	1.4766e+02	5.2287	9.218366	0.000352	3.519977	0.596300	-0.000035
1486	1.4776e+02	5.2197	9.186593	0.000319	3.192537	0.540830	-0.000032
1487	1.4786e+02	5.2094	9.153191	0.000336	3.356257	0.568565	-0.000034
1488	1.4796e+02	5.2014	9.119789	0.000336	3.356257	0.568565	-0.000034
1489	1.4806e+02	5.1910	9.089645	0.000303	3.028817	0.513096	-0.000030
1490	1.4816e+02	5.1807	9.051355	0.000385	3.847417	0.651770	-0.000038
1491	1.4825e+02	5.1712	9.020397	0.000311	3.110677	0.526963	-0.000031
1492	1.4835e+02	5.1610	8.989846	0.000307	3.069747	0.520029	-0.000031
1493	1.4845e+02	5.1479	8.951149	0.000389	3.888347	0.658704	-0.000039
1494	1.4855e+02	5.1401	8.919376	0.000319	3.192537	0.540830	-0.000032
1495	1.4865e+02	5.1296	8.887196	0.000323	3.233467	0.547764	-0.000032
1496	1.4875e+02	5.1202	8.852979	0.000344	3.438117	0.582433	-0.000034
1497	1.4885e+02	5.1107	8.819170	0.000340	3.397187	0.575499	-0.000034
1498	1.4895e+02	5.0985	8.786583	0.000327	3.274397	0.554698	-0.000033
1499	1.4905e+02	5.0889	8.753180	0.000336	3.356257	0.568565	-0.000034
1500	1.4915e+02	5.0814	8.720593	0.000327	3.274397	0.554698	-0.000033
1501	1.4925e+02	5.0697	8.684747	0.000360	3.601837	0.610168	-0.000036
1502	1.4935e+02	5.0611	8.653789	0.000311	3.110677	0.526963	-0.000031
1503	1.4945e+02	5.0542	8.619979	0.000340	3.397187	0.575499	-0.000034
1504	1.4955e+02	5.0430	8.586985	0.000332	3.315327	0.561632	-0.000033
1505	1.4965e+02	5.0308	8.553175	0.000340	3.397187	0.575499	-0.000034
1506	1.4975e+02	5.0233	8.521810	0.000315	3.151607	0.533897	-0.000032
1507	1.4985e+02	5.0100	8.484334	0.000377	3.765557	0.637903	-0.000038
1508	1.4995e+02	5.0020	8.450118	0.000344	3.438117	0.582433	-0.000034
1509	1.5005e+02	4.9914	8.417937	0.000323	3.233467	0.547764	-0.000032
1510	1.5015e+02	4.9831	8.382906	0.000352	3.519977	0.596300	-0.000035
1511	1.5025e+02	4.9703	8.348689	0.000344	3.438117	0.582433	-0.000034
1512	1.5034e+02	4.9624	8.314472	0.000344	3.438117	0.582433	-0.000034
1513	1.5044e+02	4.9496	8.281478	0.000332	3.315327	0.561632	-0.000033
1514	1.5054e+02	4.9401	8.247261	0.000344	3.438117	0.582433	-0.000034
1515	1.5064e+02	4.9317	8.212230	0.000352	3.519977	0.596300	-0.000035
1516	1.5074e+02	4.9200	8.180457	0.000319	3.192537	0.540830	-0.000032
1517	1.5084e+02	4.9122	8.142981	0.000377	3.765557	0.637903	-0.000038
1518	1.5094e+02	4.9029	8.111616	0.000315	3.151607	0.533897	-0.000032
1519	1.5104e+02	4.8912	8.076992	0.000348	3.479047	0.589366	-0.000035
1520	1.5114e+02	4.8817	8.041960	0.000352	3.519977	0.596300	-0.000035
1521	1.5124e+02	4.8734	8.009373	0.000327	3.274397	0.554698	-0.000033
1522	1.5134e+02	4.8618	7.977193	0.000323	3.233467	0.547764	-0.000032
1523	1.5144e+02	4.8522	7.940125	0.000372	3.724627	0.630969	-0.000037
1524	1.5154e+02	4.8418	7.907537	0.000327	3.274397	0.554698	-0.000033
1525	1.5164e+02	4.8318	7.871691	0.000360	3.601837	0.610168	-0.000036
1526	1.5174e+02	4.8214	7.837882	0.000340	3.397187	0.575499	-0.000034
1527	1.5184e+02	4.8121	7.804480	0.000336	3.356257	0.568565	-0.000034
1528	1.5194e+02	4.8006	7.769448	0.000352	3.519977	0.596300	-0.000035
1529	1.5204e+02	4.7918	7.734417	0.000352	3.519977	0.596300	-0.000035
1530	1.5214e+02	4.7842	7.698163	0.000364	3.642767	0.617101	-0.000036
1531	1.5224e+02	4.7721	7.668835	0.000295	2.946957	0.499228	-0.000029
1532	1.5233e+02	4.7610	7.631766	0.000372	3.724627	0.630969	-0.000037
1533	1.5243e+02	4.7533	7.599179	0.000327	3.274397	0.554698	-0.000033
1534	1.5253e+02	4.7418	7.562925	0.000364	3.642767	0.617101	-0.000036
1535	1.5263e+02	4.7317	7.525857	0.000372	3.724627	0.630969	-0.000037
1536	1.5273e+02	4.7221	7.493270	0.000327	3.274397	0.554698	-0.000033
1537	1.5283e+02	4.7121	7.461090	0.000323	3.233467	0.547764	-0.000032
1538	1.5293e+02	4.7025	7.428502	0.000327	3.274397	0.554698	-0.000033
1539	1.5303e+02	4.6922	7.391842	0.000368	3.683697	0.624035	-0.000037
1540	1.5313e+02	4.6821	7.354366	0.000377	3.765557	0.637903	-0.000038
1541	1.5323e+02	4.6714	7.324223	0.000303	3.028817	0.513096	-0.000030
1542	1.5333e+02	4.6606	7.285118	0.000393	3.929276	0.665637	-0.000039
1543	1.5343e+02	4.6545	7.250901	0.000344	3.438117	0.582433	-0.000034
1544	1.5353e+02	4.6462	7.215462	0.000356	3.560907	0.603234	-0.000036
1545	1.5363e+02	4.6340	7.181653	0.000340	3.397187	0.575499	-0.000034
1546	1.5373e+02	4.6229	7.147436	0.000344	3.438117	0.582433	-0.000034
1547	1.5383e+02	4.6125	7.111590	0.000360	3.601837	0.610168	-0.000036
1548	1.5393e+02	4.6033	7.076151	0.000356	3.560907	0.603234	-0.000036
1549	1.5403e+02	4.5948	7.041527	0.000348	3.479047	0.589366	-0.000035
1550	1.5413e+02	4.5811	7.004052	0.000377	3.765557	0.637903	-0.000038
1551	1.5422e+02	4.5728	6.970649	0.000336	3.356257	0.568565	-0.000034
1552	1.5432e+02	4.5631	6.934396	0.000364	3.642767	0.617101	-0.000036
1553	1.5442e+02	4.5557	6.903845	0.000307	3.069747	0.520029	-0.000031
1554	1.5452e+02	4.5451	6.867592	0.000364	3.642767	0.617101	-0.000036
1555	1.5462e+02	4.5330	6.832968	0.000348	3.479047	0.589366	-0.000035
1556	1.5472e+02	4.5216	6.795492	0.000377	3.765557	0.637903	-0.000038
1557	1.5482e+02	4.5136	6.759239	0.000364	3.642767	0.617101	-0.000036
1558	1.5492e+02	4.5045	6.724615	0.000348	3.479047	0.589366	-0.000035
1559	1.5502e+02	4.4926	6.692027	0.000327	3.274397	0.554698	-0.000033
1560	1.5512e+02	4.4827	6.654144	0.000381	3.806487	0.644836	-0.000038
1561	1.5522e+02	4.4744	6.624816	0.000295	2.946957	0.499228	-0.000029
1562	1.5532e+02	4.4627	6.586118	0.000389	3.888347	0.658704	-0.000039
1563	1.5542e+02	4.4509	6.551494	0.000348	3.479047	0.589366	-0.000035
1564	1.5552e+02	4.4418	6.516870	0.000348	3.479047	0.589366	-0.000035
1565	1.5562e+02	4.4364	6.479394	0.000377	3.765557	0.637903	-0.000038
1566	1.5572e+02	4.4222	6.441511	0.000381	3.806487	0.644836	-0.000038
1567	1.5582e+02	4.4150	6.404443	0.000372	3.724627	0.630969	-0.000037
1568	1.5592e+02	4.4043	6.372671	0.000319	3.192537	0.540830	-0.000032
1569	1.5602e+02	4.3954	6.336010	0.000368	3.683697	0.624035	-0.000037
1570	1.5612e+02	4.3809	6.301793	0.000344	3.438117	0.582433	-0.000034
1571	1.5622e+02	4.3740	6.271242	0.000307	3.069747	0.520029	-0.000031
1572	1.5631e+02	4.3658	6.234174	0.000372	3.724627	0.630969	-0.000037
1573	1.5641e+02	4.3551	6.193847	0.000405	4.052066	0.686439	-0.000041
1574	1.5651e+02	4.3463	6.158408	0.000356	3.560907	0.603234	-0.000036
1575	1.5661e+02	4.3354	6.123377	0.000352	3.519977	0.596300	-0.000035
1576	1.5671e+02	4.3233	6.090790	0.000327	3.274397	0.554698	-0.000033
1577	1.5681e+02	4.3140	6.052907	0.000381	3.806487	0.644836	-0.000038
1578	1.5691e+02	4.3041	6.015838	0.000372	3.724627	0.630969	-0.000037
1579	1.5701e+02	4.2948	5.983658	0.000323	3.233467	0.547764	-0.000032
1580	1.5711e+02	4.2847	5.944961	0.000389	3.888347	0.658704	-0.000039
1581	1.5721e+02	4.2753	5.908300	0.000368	3.683697	0.624035	-0.000037
1582	1.5731e+02	4.2619	5.873676	0.000348	3.479047	0.589366	-0.000035
1583	1.5741e+02	4.2562	5.836608	0.000372	3.724627	0.630969	-0.000037
1584	1.5751e+02	4.2474	5.800354	0.000364	3.642767	0.617101	-0.000036
1585	1.5761e+02	4.2341	5.764915	0.000356	3.560907	0.603234	-0.000036
1586	1.5771e+02	4.2245	5.728662	0.000364	3.642767	0.617101	-0.000036
1587	1.5781e+02	4.2165	5.691186	0.000377	3.765557	0.637903	-0.000038
1588	1.5791e+02	4.2052	5.659821	0.000315	3.151607	0.533897	-0.000032
1589	1.5801e+02	4.1938	5.620716	0.000393	3.929276	0.665637	-0.000039
1590	1.5811e+02	4.1862	5.586092	0.000348	3.479047	0.589366	-0.000035
1591	1.5821e+02	4.1761	5.547802	0.000385	3.847417	0.651770	-0.000038
1592	1.5830e+02	4.1645	5.510734	0.000372	3.724627	0.630969	-0.000037
1593	1.5840e+02	4.1566	5.478554	0.000323	3.233467	0.547764	-0.000032
1594	1.5850e+02	4.1437	5.440263	0.000385	3.847417	0.651770	-0.000038
1595	1.5860e+02	4.1341	5.403603	0.000368	3.683697	0.624035	-0.000037
1596	1.5870e+02	4.1260	5.368164	0.000356	3.560907	0.603234	-0.000036
1597	1.5880e+02	4.1123	5.331503	0.000368	3.683697	0.624035	-0.000037
1598	1.5890e+02	4.1084	5.295657	0.000360	3.601837	0.610168	-0.000036
1599	1.5900e+02	4.0954	5.260218	0.000356	3.560907	0.603234	-0.000036
1600	1.5910e+02	4.0838	5.221113	0.000393	3.929276	0.665637	-0.000039
1601	1.5920e+02	4.0748	5.185267	0.000360	3.601837	0.610168	-0.000036
1602	1.5930e+02	4.0641	5.151050	0.000344	3.438117	0.582433	-0.000034
1603	1.5940e+02	4.0558	5.111945	0.000393	3.929276	0.665637	-0.000039
1604	1.5950e+02	4.0444	5.075692	0.000364	3.642767	0.617101	-0.000036
1605	1.5960e+02	4.0367	5.039846	0.000360	3.601837	0.610168	-0.000036
1606	1.5970e+02	4.0250	5.005629	0.000344	3.438117	0.582433	-0.000034
1607	1.5980e+02	4.0150	4.966117	0.000397	3.970206	0.672571	-0.000040
1608	1.5990e+02	4.0047	4.928641	0.000377	3.765557	0.637903	-0.000038
1609	1.6000e+02	3.9956	4.892795	0.000360	3.601837	0.610168	-0.000036
1610	1.6010e+02	3.9850	4.854912	0.000381	3.806487	0.644836	-0.000038
1611	1.6019e+02	3.9782	4.817437	0.000377	3.765557	0.637903	-0.000038
1612	1.6029e+02	3.9666	4.781998	0.000356	3.560907	0.603234	-0.000036
1613	1.6039e+02	3.9576	4.742893	0.000393	3.929276	0.665637	-0.000039
1614	1.6049e+02	3.9449	4.709491	0.000336	3.356257	0.568565	-0.000034
1615	1.6059e+02	3.9362	4.670793	0.000389	3.888347	0.658704	-0.000039
1616	1.6069e+02	3.9289	4.634947	0.000360	3.601837	0.610168	-0.000036
1617	1.6079e+02	3.9214	4.595842	0.000393	3.929276	0.665637	-0.000039
1618	1.6089e+02	3.9085	4.557145	0.000389	3.888347	0.658704	-0.000039
1619	1.6099e+02	3.8959	4.520484	0.000368	3.683697	0.624035	-0.000037
1620	1.6109e+02	3.8859	4.485860	0.000348	3.479047	0.589366	-0.000035
1621	1.6119e+02	3.8763	4.448384	0.000377	3.765557	0.637903	-0.000038
1622	1.6129e+02	3.8676	4.414168	0.000344	3.438117	0.582433	-0.000034
1623	1.6139e+02	3.8606	4.376692	0.000377	3.765557	0.637903	-0.000038
1624	1.6149e+02	3.8451	4.335958	0.000409	4.092996	0.693372	-0.000041
1625	1.6159e+02	3.8362	4.294816	0.000413	4.133926	0.700306	-0.000041
1626	1.6169e+02	3.8280	4.259377	0.000356	3.560907	0.603234	-0.000036
1627	1.6179e+02	3.8180	4.223124	0.000364	3.642767	0.617101	-0.000036
1628	1.6189e+02	3.8073	4.186870	0.000364	3.642767	0.617101	-0.000036
1629	1.6199e+02	3.7978	4.147766	0.000393	3.929276	0.665637	-0.000039
1630	1.6209e+02	3.7862	4.111919	0.000360	3.601837	0.610168	-0.000036
1631	1.6219e+02	3.7762	4.074851	0.000372	3.724627	0.630969	-0.000037
1632	1.6228e+02	3.7663	4.033302	0.000417	4.174856	0.707240	-0.000042
1633	1.6238e+02	3.7589	4.001122	0.000323	3.233467	0.547764	-0.000032
1634	1.6248e+02	3.7457	3.964461	0.000368	3.683697	0.624035	-0.000037
1635	1.6258e+02	3.7363	3.924542	0.000401	4.011136	0.679505	-0.000040
1636	1.6268e+02	3.7290	3.889918	0.000348	3.479047	0.589366	-0.000035
1637	1.6278e+02	3.7175	3.851627	0.000385	3.847417	0.651770	-0.000038
1638	1.6288e+02	3.7052	3.812930	0.000389	3.888347	0.658704	-0.000039
1639	1.6298e+02	3.6977	3.775862	0.000372	3.724627	0.630969	-0.000037
1640	1.6308e+02	3.6884	3.736757	0.000393	3.929276	0.665637	-0.000039
1641	1.6318e+02	3.6771	3.700096	0.000368	3.683697	0.624035	-0.000037
1642	1.6328e+02	3.6685	3.659362	0.000409	4.092996	0.693372	-0.000041
1643	1.6338e+02	3.6565	3.623923	0.000356	3.560907	0.603234	-0.000036
1644	1.6348e+02	3.6491	3.586040	0.000381	3.806487	0.644836	-0.000038
1645	1.6358e+02	3.6382	3.544899	0.000413	4.133926	0.700306	-0.000041
1646	1.6368e+02	3.6261	3.510274	0.000348	3.479047	0.589366	-0.000035
1647	1.6378e+02	3.6176	3.471984	0.000385	3.847417	0.651770	-0.000038
1648	1.6388e+02	3.6082	3.430028	0.000422	4.215786	0.714174	-0.000042
1649	1.6398e+02	3.5952	3.395404	0.000348	3.479047	0.589366	-0.000035
1650	1.6408e+02	3.5882	3.359150	0.000364	3.642767	0.617101	-0.000036
1651	1.6418e+02	3.5772	3.323304	0.000360	3.601837	0.610168	-0.000036
1652	1.6427e+02	3.5693	3.280126	0.000434	4.338576	0.734975	-0.000043
1653	1.6437e+02	3.5571	3.242650	0.000377	3.765557	0.637903	-0.000038
1654	1.6447e+02	3.5497	3.206804	0.000360	3.601837	0.610168	-0.000036
1655	1.6457e+02	3.5373	3.166477	0.000405	4.052066	0.686439	-0.000041
1656	1.6467e+02	3.5294	3.130224	0.000364	3.642767	0.617101	-0.000036
1657	1.6477e+02	3.5199	3.090712	0.000397	3.970206	0.672571	-0.000040
1658	1.6487e+02	3.5084	3.051607	0.000393	3.929276	0.665637	-0.000039
1659	1.6497e+02	3.4985	3.012502	0.000393	3.929276	0.665637	-0.000039
1660	1.6507e+02	3.4872	2.972175	0.000405	4.052066	0.686439	-0.000041
1661	1.6517e+02	3.4791	2.935107	0.000372	3.724627	0.630969	-0.000037
1662	1.6527e+02	3.4701	2.898446	0.000368	3.683697	0.624035	-0.000037
1663	1.6537e+02	3.4597	2.859341	0.000393	3.929276	0.665637	-0.000039
1664	1.6547e+02	3.4498	2.821458	0.000381	3.806487	0.644836	-0.000038
1665	1.6557e+02	3.4389	2.778280	0.000434	4.338576	0.734975	-0.000043
1666	1.6567e+02	3.4265	2.742841	0.000356	3.560907	0.603234	-0.000036
1667	1.6577e+02	3.4209	2.705366	0.000377	3.765557	0.637903	-0.000038
1668	1.6587e+02	3.4103	2.663002	0.000426	4.256716	0.721107	-0.000043
1669	1.6597e+02	3.4003	2.623897	0.000393	3.929276	0.665637	-0.000039
1670	1.6607e+02	3.3880	2.586422	0.000377	3.765557	0.637903	-0.000038
1671	1.6616e+02	3.3813	2.550575	0.000360	3.601837	0.610168	-0.000036
1672	1.6626e+02	3.3685	2.507397	0.000434	4.338576	0.734975	-0.000043
1673	1.6636e+02	3.3570	2.472773	0.000348	3.479047	0.589366	-0.000035
1674	1.6646e+02	3.3511	2.433668	0.000393	3.929276	0.665637	-0.000039
1675	1.6656e+02	3.3385	2.391712	0.000422	4.215786	0.714174	-0.000042
1676	1.6666e+02	3.3311	2.353422	0.000385	3.847417	0.651770	-0.000038
1677	1.6676e+02	3.3178	2.313502	0.000401	4.011136	0.679505	-0.000040
1678	1.6686e+02	3.3075	2.277249	0.000364	3.642767	0.617101	-0.000036
1679	1.6696e+02	3.2978	2.238144	0.000393	3.929276	0.665637	-0.000039
1680	1.6706e+02	3.2887	2.195373	0.000430	4.297646	0.728041	-0.000043
1681	1.6716e+02	3.2818	2.157490	0.000381	3.806487	0.644836	-0.000038
1682	1.6726e+02	3.2677	2.118792	0.000389	3.888347	0.658704	-0.000039
1683	1.6736e+02	3.2600	2.080909	0.000381	3.806487	0.644836	-0.000038
1684	1.6746e+02	3.2504	2.039768	0.000413	4.133926	0.700306	-0.000041
1685	1.6756e+02	3.2390	1.998219	0.000417	4.174856	0.707240	-0.000042
1686	1.6766e+02	3.2289	1.962373	0.000360	3.601837	0.610168	-0.000036
1687	1.6776e+02	3.2187	1.920416	0.000422	4.215786	0.714174	-0.000042
1688	1.6786e+02	3.2116	1.883348	0.000372	3.724627	0.630969	-0.000037
1689	1.6796e+02	3.1993	1.844651	0.000389	3.888347	0.658704	-0.000039
1690	1.6806e+02	3.1904	1.805139	0.000397	3.970206	0.672571	-0.000040
1691	1.6816e+02	3.1779	1.764404	0.000409	4.092996	0.693372	-0.000041
1692	1.6825e+02	3.1705	1.726114	0.000385	3.847417	0.651770	-0.000038
1693	1.6835e+02	3.1578	1.685787	0.000405	4.052066	0.686439	-0.000041
1694	1.6845e+02	3.1484	1.644238	0.000417	4.174856	0.707240	-0.000042
1695	1.6855e+02	3.1387	1.604726	0.000397	3.970206	0.672571	-0.000040
1696	1.6865e+02	3.1307	1.566843	0.000381	3.806487	0.644836	-0.000038
1697	1.6875e+02	3.1198	1.522443	0.000446	4.461366	0.755776	-0.000045
1698	1.6885e+02	3.1101	1.487004	0.000356	3.560907	0.603234	-0.000036
1699	1.6895e+02	3.1052	1.447084	0.000401	4.011136	0.679505	-0.000040
1700	1.6905e+02	3.0918	1.404313	0.000430	4.297646	0.728041	-0.000043
1701	1.6915e+02	3.0804	1.366838	0.000377	3.765557	0.637903	-0.000038
1702	1.6925e+02	3.0695	1.328140	0.000389	3.888347	0.658704	-0.000039
1703	1.6935e+02	3.0629	1.289443	0.000389	3.888347	0.658704	-0.000039
1704	1.6945e+02	3.0492	1.247487	0.000422	4.215786	0.714174	-0.000042
1705	1.6955e+02	3.0414	1.207974	0.000397	3.970206	0.672571	-0.000040
1706	1.6965e+02	3.0319	1.166425	0.000417	4.174856	0.707240	-0.000042
1707	1.6975e+02	3.0184	1.128543	0.000381	3.806487	0.644836	-0.000038
1708	1.6985e+02	3.0099	1.086179	0.000426	4.256716	0.721107	-0.000043
1709	1.6995e+02	3.0029	1.046667	0.000397	3.970206	0.672571	-0.000040
1710	1.7005e+02	2.9930	1.004303	0.000426	4.256716	0.721107	-0.000043
1711	1.7015e+02	2.9796	0.965198	0.000393	3.929276	0.665637	-0.000039
1712	1.7024e+02	2.9691	0.926501	0.000389	3.888347	0.658704	-0.000039
1713	1.7034e+02	2.9618	0.888210	0.000385	3.847417	0.651770	-0.000038
1714	1.7044e+02	2.9514	0.847069	0.000413	4.133926	0.700306	-0.000041
1715	1.7054e+02	2.9405	0.805113	0.000422	4.215786	0.714174	-0.000042
1716	1.7064e+02	2.9346	0.765600	0.000397	3.970206	0.672571	-0.000040
1717	1.7074e+02	2.9206	0.725273	0.000405	4.052066	0.686439	-0.000041
1718	1.7084e+02	2.9087	0.680873	0.000446	4.461366	0.755776	-0.000045
1719	1.7094e+02	2.9006	0.641768	0.000393	3.929276	0.665637	-0.000039
1720	1.7104e+02	2.8910	0.598997	0.000430	4.297646	0.728041	-0.000043
1721	1.7114e+02	2.8811	0.561114	0.000381	3.806487	0.644836	-0.000038
1722	1.7124e+02	2.8709	0.517529	0.000438	4.379506	0.741908	-0.000044
1723	1.7134e+02	2.8642	0.483312	0.000344	3.438117	0.582433	-0.000034
1724	1.7144e+02	2.8507	0.439319	0.000442	4.420436	0.748842	-0.000044
1725	1.7154e+02	2.8428	0.398585	0.000409	4.092996	0.693372	-0.000041
1726	1.7164e+02	2.8321	0.358258	0.000405	4.052066	0.686439	-0.000041
1727	1.7174e+02	2.8189	0.317524	0.000409	4.092996	0.693372	-0.000041
1728	1.7184e+02	2.8131	0.278826	0.000389	3.888347	0.658704	-0.000039
1729	1.7194e+02	2.8001	0.235648	0.000434	4.338576	0.734975	-0.000043
1730	1.7204e+02	2.7946	0.193284	0.000426	4.256716	0.721107	-0.000043
1731	1.7213e+02	2.7828	0.153364	0.000401	4.011136	0.679505	-0.000040
1732	1.7223e+02	2.7700	0.111408	0.000422	4.215786	0.714174	-0.000042
1733	1.7233e+02	2.7631	0.069859	0.000417	4.174856	0.707240	-0.000042
1734	1.7243e+02	2.7526	0.030347	0.000397	3.970206	0.672571	-0.000040
1735	1.7253e+02	2.7422	-0.012831	0.000434	4.338576	0.734975	-0.000043
1736	1.7263e+02	2.7323	-0.054380	0.000417	4.174856	0.707240	-0.000042
1737	1.7273e+02	2.7227	-0.094707	0.000405	4.052066	0.686439	-0.000041
1738	1.7283e+02	2.7102	-0.138293	0.000438	4.379506	0.741908	-0.000044
1739	1.7293e+02	2.7032	-0.176583	0.000385	3.847417	0.651770	-0.000038
1740	1.7303e+02	2.6949	-0.219761	0.000434	4.338576	0.734975	-0.000043
1741	1.7313e+02	2.6815	-0.258866	0.000393	3.929276	0.665637	-0.000039
1742	1.7323e+02	2.6711	-0.300822	0.000422	4.215786	0.714174	-0.000042
1743	1.7333e+02	2.6627	-0.344815	0.000442	4.420436	0.748842	-0.000044
1744	1.7343e+02	2.6556	-0.384328	0.000397	3.970206	0.672571	-0.000040
1745	1.7353e+02	2.6421	-0.425877	0.000417	4.174856	0.707240	-0.000042
1746	1.7363e+02	2.6340	-0.466611	0.000409	4.092996	0.693372	-0.000041
1747	1.7373e+02	2.6211	-0.506938	0.000405	4.052066	0.686439	-0.000041
1748	1.7383e+02	2.6150	-0.547672	0.000409	4.092996	0.693372	-0.000041
1749	1.7393e+02	2.6022	-0.589628	0.000422	4.215786	0.714174	-0.000042
1750	1.7403e+02	2.5913	-0.632807	0.000434	4.338576	0.734975	-0.000043
1751	1.7413e+02	2.5820	-0.676800	0.000442	4.420436	0.748842	-0.000044
1752	1.7422e+02	2.5738	-0.717127	0.000405	4.052066	0.686439	-0.000041
1753	1.7432e+02	2.5634	-0.759898	0.000430	4.297646	0.728041	-0.000043
1754	1.7442e+02	2.5536	-0.799817	0.000401	4.011136	0.679505	-0.000040
1755	1.7452e+02	2.5428	-0.839329	0.000397	3.970206	0.672571	-0.000040
1756	1.7462e+02	2.5340	-0.882915	0.000438	4.379506	0.741908	-0.000044
1757	1.7472e+02	2.5220	-0.926908	0.000442	4.420436	0.748842	-0.000044
1758	1.7482e+02	2.5112	-0.969679	0.000430	4.297646	0.728041	-0.000043
1759	1.7492e+02	2.5048	-1.007562	0.000381	3.806487	0.644836	-0.000038
1760	1.7502e+02	2.4927	-1.048703	0.000413	4.133926	0.700306	-0.000041
1761	1.7512e+02	2.4845	-1.092289	0.000438	4.379506	0.741908	-0.000044
1762	1.7522e+02	2.4722	-1.135467	0.000434	4.338576	0.734975	-0.000043
1763	1.7532e+02	2.4621	-1.177831	0.000426	4.256716	0.721107	-0.000043
1764	1.7542e+02	2.4566	-1.219380	0.000417	4.174856	0.707240	-0.000042
1765	1.7552e+02	2.4450	-1.262966	0.000438	4.379506	0.741908	-0.000044
1766	1.7562e+02	2.4330	-1.305329	0.000426	4.256716	0.721107	-0.000043
1767	1.7572e+02	2.4221	-1.344434	0.000393	3.929276	0.665637	-0.000039
1768	1.7582e+02	2.4133	-1.389649	0.000454	4.543226	0.769643	-0.000045
1769	1.7592e+02	2.4053	-1.430791	0.000413	4.133926	0.700306	-0.000041
1770	1.7602e+02	2.3955	-1.472340	0.000417	4.174856	0.707240	-0.000042
1771	1.7612e+02	2.3827	-1.513481	0.000413	4.133926	0.700306	-0.000041
1772	1.7621e+02	2.3754	-1.559511	0.000463	4.625086	0.783511	-0.000046
1773	1.7631e+02	2.3618	-1.601060	0.000417	4.174856	0.707240	-0.000042
1774	1.7641e+02	2.3538	-1.642201	0.000413	4.133926	0.700306	-0.000041
1775	1.7651e+02	2.3452	-1.687009	0.000450	4.502296	0.762710	-0.000045
1776	1.7661e+02	2.3316	-1.726929	0.000401	4.011136	0.679505	-0.000040
1777	1.7671e+02	2.3231	-1.768478	0.000417	4.174856	0.707240	-0.000042
1778	1.7681e+02	2.3132	-1.815322	0.000471	4.706946	0.797378	-0.000047
1779	1.7691e+02	2.3079	-1.857686	0.000426	4.256716	0.721107	-0.000043
1780	1.7701e+02	2.2943	-1.900457	0.000430	4.297646	0.728041	-0.000043
1781	1.7711e+02	2.2816	-1.941191	0.000409	4.092996	0.693372	-0.000041
1782	1.7721e+02	2.2736	-1.987221	0.000463	4.625086	0.783511	-0.000046
1783	1.7731e+02	2.2638	-2.029584	0.000426	4.256716	0.721107	-0.000043
1784	1.7741e+02	2.2545	-2.071133	0.000417	4.174856	0.707240	-0.000042
1785	1.7751e+02	2.2431	-2.119607	0.000487	4.870666	0.825113	-0.000049
1786	1.7761e+02	2.2344	-2.159119	0.000397	3.970206	0.672571	-0.000040
1787	1.7771e+02	2.2247	-2.202705	0.000438	4.379506	0.741908	-0.000044
1788	1.7781e+02	2.2147	-2.247105	0.000446	4.461366	0.755776	-0.000045
1789	1.7791e+02	2.2034	-2.289876	0.000430	4.297646	0.728041	-0.000043
1790	1.7801e+02	2.1957	-2.328166	0.000385	3.847417	0.651770	-0.000038
1791	1.7810e+02	2.1876	-2.374603	0.000467	4.666016	0.790444	-0.000047
1792	1.7820e+02	2.1746	-2.420633	0.000463	4.625086	0.783511	-0.000046
1793	1.7830e+02	2.1647	-2.461775	0.000413	4.133926	0.700306	-0.000041
1794	1.7840e+02	2.1579	-2.508212	0.000467	4.666016	0.790444	-0.000047
1795	1.7850e+02	2.1463	-2.545280	0.000372	3.724627	0.630969	-0.000037
1796	1.7860e+02	2.1391	-2.592939	0.000479	4.788806	0.811246	-0.000048
1797	1.7870e+02	2.1252	-2.634895	0.000422	4.215786	0.714174	-0.000042
1798	1.7880e+02	2.1158	-2.680925	0.000463	4.625086	0.783511	-0.000046
1799	1.7890e+02	2.1032	-2.720030	0.000393	3.929276	0.665637	-0.000039
1800	1.7900e+02	2.0974	-2.766467	0.000467	4.666016	0.790444	-0.000047
1801	1.7910e+02	2.0856	-2.810053	0.000438	4.379506	0.741908	-0.000044
1802	1.7920e+02	2.0773	-2.852416	0.000426	4.256716	0.721107	-0.000043
1803	1.7930e+02	2.0681	-2.897631	0.000454	4.543226	0.769643	-0.000045
1804	1.7940e+02	2.0544	-2.941217	0.000438	4.379506	0.741908	-0.000044
1805	1.7950e+02	2.0460	-2.983173	0.000422	4.215786	0.714174	-0.000042
1806	1.7960e+02	2.0348	-3.027981	0.000450	4.502296	0.762710	-0.000045
1807	1.7970e+02	2.0258	-3.069530	0.000417	4.174856	0.707240	-0.000042
1808	1.7980e+02	2.0152	-3.117596	0.000483	4.829736	0.818179	-0.000048
1809	1.7990e+02	2.0042	-3.160775	0.000434	4.338576	0.734975	-0.000043
1810	1.8000e+02	1.9952	-3.205175	0.000446	4.461366	0.755776	-0.000045
1811	1.8009e+02	1.9846	-3.249983	0.000450	4.502296	0.762710	-0.000045
1812	1.8019e+02	1.9744	-3.291531	0.000417	4.174856	0.707240	-0.000042
1813	1.8029e+02	1.9647	-3.341227	0.000499	4.993456	0.845914	-0.000050
1814	1.8039e+02	1.9573	-3.381554	0.000405	4.052066	0.686439	-0.000041
1815	1.8049e+02	1.9456	-3.428399	0.000471	4.706946	0.797378	-0.000047
1816	1.8059e+02	1.9349	-3.470762	0.000426	4.256716	0.721107	-0.000043
1817	1.8069e+02	1.9296	-3.515163	0.000446	4.461366	0.755776	-0.000045
1818	1.8079e+02	1.9180	-3.558341	0.000434	4.338576	0.734975	-0.000043
1819	1.8089e+02	1.9061	-3.603556	0.000454	4.543226	0.769643	-0.000045
1820	1.8099e+02	1.8989	-3.645512	0.000422	4.215786	0.714174	-0.000042
1821	1.8109e+02	1.8857	-3.693171	0.000479	4.788806	0.811246	-0.000048
1822	1.8119e+02	1.8783	-3.737572	0.000446	4.461366	0.755776	-0.000045
1823	1.8129e+02	1.8653	-3.783601	0.000463	4.625086	0.783511	-0.000046
1824	1.8139e+02	1.8582	-3.823521	0.000401	4.011136	0.679505	-0.000040
1825	1.8149e+02	1.8487	-3.869958	0.000467	4.666016	0.790444	-0.000047
1826	1.8159e+02	1.8369	-3.913951	0.000442	4.420436	0.748842	-0.000044
1827	1.8169e+02	1.8283	-3.962017	0.000483	4.829736	0.818179	-0.000048
1828	1.8179e+02	1.8174	-4.005196	0.000434	4.338576	0.734975	-0.000043
1829	1.8189e+02	1.8048	-4.048374	0.000434	4.338576	0.734975	-0.000043
1830	1.8199e+02	1.7960	-4.095218	0.000471	4.706946	0.797378	-0.000047
1831	1.8209e+02	1.7862	-4.140026	0.000450	4.502296	0.762710	-0.000045
1832	1.8218e+02	1.7757	-4.181575	0.000417	4.174856	0.707240	-0.000042
1833	1.8228e+02	1.7646	-4.229234	0.000479	4.788806	0.811246	-0.000048
1834	1.8238e+02	1.7587	-4.274449	0.000454	4.543226	0.769643	-0.000045
1835	1.8248e+02	1.7477	-4.320071	0.000458	4.584156	0.776577	-0.000046
1836	1.8258e+02	1.7398	-4.365286	0.000454	4.543226	0.769643	-0.000045
1837	1.8268e+02	1.7262	-4.410909	0.000458	4.584156	0.776577	-0.000046
1838	1.8278e+02	1.7174	-4.454902	0.000442	4.420436	0.748842	-0.000044
1839	1.8288e+02	1.7085	-4.495636	0.000409	4.092996	0.693372	-0.000041
1840	1.8298e+02	1.6993	-4.547776	0.000524	5.239035	0.887517	-0.000052
1841	1.8308e+02	1.6875	-4.592584	0.000450	4.502296	0.762710	-0.000045
1842	1.8318e+02	1.6708	-4.634947	0.000426	4.256716	0.721107	-0.000043
1843	1.8328e+02	1.6682	-4.681384	0.000467	4.666016	0.790444	-0.000047
1844	1.8338e+02	1.6567	-4.724563	0.000434	4.338576	0.734975	-0.000043
1845	1.8348e+02	1.6457	-4.775888	0.000516	5.157175	0.873649	-0.000052
1846	1.8358e+02	1.6370	-4.814993	0.000393	3.929276	0.665637	-0.000039
1847	1.8368e+02	1.6289	-4.863466	0.000487	4.870666	0.825113	-0.000049
1848	1.8378e+02	1.6145	-4.910718	0.000475	4.747876	0.804312	-0.000047
1849	1.8388e+02	1.6093	-4.956748	0.000463	4.625086	0.783511	-0.000046
1850	1.8398e+02	1.5952	-5.000333	0.000438	4.379506	0.741908	-0.000044
1851	1.8407e+02	1.5871	-5.043512	0.000434	4.338576	0.734975	-0.000043
1852	1.8417e+02	1.5785	-5.092800	0.000495	4.952526	0.838981	-0.000050
1853	1.8427e+02	1.5689	-5.135571	0.000430	4.297646	0.728041	-0.000043
1854	1.8437e+02	1.5563	-5.185674	0.000503	5.034386	0.852848	-0.000050
1855	1.8447e+02	1.5474	-5.230075	0.000446	4.461366	0.755776	-0.000045
1856	1.8457e+02	1.5371	-5.277326	0.000475	4.747876	0.804312	-0.000047
1857	1.8467e+02	1.5323	-5.321727	0.000446	4.461366	0.755776	-0.000045
1858	1.8477e+02	1.5201	-5.365720	0.000442	4.420436	0.748842	-0.000044
1859	1.8487e+02	1.5054	-5.413379	0.000479	4.788806	0.811246	-0.000048
1860	1.8497e+02	1.4983	-5.456557	0.000434	4.338576	0.734975	-0.000043
1861	1.8507e+02	1.4884	-5.504624	0.000483	4.829736	0.818179	-0.000048
1862	1.8517e+02	1.4779	-5.553097	0.000487	4.870666	0.825113	-0.000049
1863	1.8527e+02	1.4660	-5.598312	0.000454	4.543226	0.769643	-0.000045
1864	1.8537e+02	1.4569	-5.637825	0.000397	3.970206	0.672571	-0.000040
1865	1.8547e+02	1.4487	-5.687928	0.000503	5.034386	0.852848	-0.000050
1866	1.8557e+02	1.4397	-5.733957	0.000463	4.625086	0.783511	-0.000046
1867	1.8567e+02	1.4287	-5.780394	0.000467	4.666016	0.790444	-0.000047
1868	1.8577e+02	1.4179	-5.830090	0.000499	4.993456	0.845914	-0.000050
1869	1.8587e+02	1.4087	-5.876527	0.000467	4.666016	0.790444	-0.000047
1870	1.8597e+02	1.3997	-5.920113	0.000438	4.379506	0.741908	-0.000044
1871	1.8606e+02	1.3881	-5.966143	0.000463	4.625086	0.783511	-0.000046
1872	1.8616e+02	1.3789	-6.014616	0.000487	4.870666	0.825113	-0.000049
1873	1.8626e+02	1.3697	-6.057795	0.000434	4.338576	0.734975	-0.000043
1874	1.8636e+02	1.3604	-6.105046	0.000475	4.747876	0.804312	-0.000047
1875	1.8646e+02	1.3468	-6.155964	0.000512	5.116245	0.866715	-0.000051
1876	1.8656e+02	1.3392	-6.202401	0.000467	4.666016	0.790444	-0.000047
1877	1.8666e+02	1.3271	-6.248024	0.000458	4.584156	0.776577	-0.000046
1878	1.8676e+02	1.3184	-6.292424	0.000446	4.461366	0.755776	-0.000045
1879	1.8686e+02	1.3110	-6.341713	0.000495	4.952526	0.838981	-0.000050
1880	1.8696e+02	1.2987	-6.388964	0.000475	4.747876	0.804312	-0.000047
1881	1.8706e+02	1.2900	-6.436623	0.000479	4.788806	0.811246	-0.000048
1882	1.8716e+02	1.2788	-6.482653	0.000463	4.625086	0.783511	-0.000046
1883	1.8726e+02	1.2704	-6.529905	0.000475	4.747876	0.804312	-0.000047
1884	1.8736e+02	1.2601	-6.575527	0.000458	4.584156	0.776577	-0.000046
1885	1.8746e+02	1.2487	-6.619520	0.000442	4.420436	0.748842	-0.000044
1886	1.8756e+02	1.2411	-6.664735	0.000454	4.543226	0.769643	-0.000045
1887	1.8766e+02	1.2281	-6.716468	0.000520	5.198105	0.880583	-0.000052
1888	1.8776e+02	1.2199	-6.762090	0.000458	4.584156	0.776577	-0.000046
1889	1.8786e+02	1.2100	-6.808934	0.000471	4.706946	0.797378	-0.000047
1890	1.8796e+02	1.2004	-6.859445	0.000508	5.075315	0.859782	-0.000051
1891	1.8806e+02	1.1919	-6.900586	0.000413	4.133926	0.700306	-0.000041
1892	1.8815e+02	1.1787	-6.949468	0.000491	4.911596	0.832047	-0.000049
1893	1.8825e+02	1.1695	-6.998756	0.000495	4.952526	0.838981	-0.000050
1894	1.8835e+02	1.1613	-7.042749	0.000442	4.420436	0.748842	-0.000044
1895	1.8845e+02	1.1506	-7.095296	0.000528	5.279965	0.894450	-0.000053
1896	1.8855e+02	1.1418	-7.138475	0.000434	4.338576	0.734975	-0.000043
1897	1.8865e+02	1.1308	-7.190207	0.000520	5.198105	0.880583	-0.000052
1898	1.8875e+02	1.1201	-7.237459	0.000475	4.747876	0.804312	-0.000047
1899	1.8885e+02	1.1098	-7.282266	0.000450	4.502296	0.762710	-0.000045
1900	1.8895e+02	1.1003	-7.328296	0.000463	4.625086	0.783511	-0.000046
1901	1.8905e+02	1.0940	-7.375955	0.000479	4.788806	0.811246	-0.000048
1902	1.8915e+02	1.0809	-7.426466	0.000508	5.075315	0.859782	-0.000051
1903	1.8925e+02	1.0706	-7.474125	0.000479	4.788806	0.811246	-0.000048
1904	1.8935e+02	1.0626	-7.521377	0.000475	4.747876	0.804312	-0.000047
1905	1.8945e+02	1.0489	-7.565777	0.000446	4.461366	0.755776	-0.000045
1906	1.8955e+02	1.0426	-7.618731	0.000532	5.320895	0.901384	-0.000053
1907	1.8965e+02	1.0310	-7.666798	0.000483	4.829736	0.818179	-0.000048
1908	1.8975e+02	1.0197	-7.715679	0.000491	4.911596	0.832047	-0.000049
1909	1.8985e+02	1.0095	-7.761301	0.000458	4.584156	0.776577	-0.000046
1910	1.8995e+02	1.0014	-7.810182	0.000491	4.911596	0.832047	-0.000049
1911	1.9004e+02	0.9899	-7.857434	0.000475	4.747876	0.804312	-0.000047
1912	1.9014e+02	0.9821	-7.904279	0.000471	4.706946	0.797378	-0.000047
1913	1.9024e+02	0.9681	-7.953974	0.000499	4.993456	0.845914	-0.000050
1914	1.9034e+02	0.9646	-8.001633	0.000479	4.788806	0.811246	-0.000048
1915	1.9044e+02	0.9512	-8.051329	0.000499	4.993456	0.845914	-0.000050
1916	1.9054e+02	0.9442	-8.096952	0.000458	4.584156	0.776577	-0.000046
1917	1.9064e+02	0.9312	-8.143389	0.000467	4.666016	0.790444	-0.000047
1918	1.9074e+02	0.9219	-8.194714	0.000516	5.157175	0.873649	-0.000052
1919	1.9084e+02	0.9135	-8.242373	0.000479	4.788806	0.811246	-0.000048
1920	1.9094e+02	0.9024	-8.290439	0.000483	4.829736	0.818179	-0.000048
1921	1.9104e+02	0.8916	-8.342579	0.000524	5.239035	0.887517	-0.000052
1922	1.9114e+02	0.8797	-8.386979	0.000446	4.461366	0.755776	-0.000045
1923	1.9124e+02	0.8748	-8.435861	0.000491	4.911596	0.832047	-0.000049
1924	1.9134e+02	0.8582	-8.485964	0.000503	5.034386	0.852848	-0.000050
1925	1.9144e+02	0.8529	-8.531586	0.000458	4.584156	0.776577	-0.000046
1926	1.9154e+02	0.8431	-8.581689	0.000503	5.034386	0.852848	-0.000050
1927	1.9164e+02	0.8306	-8.631792	0.000503	5.034386	0.852848	-0.000050
1928	1.9174e+02	0.8219	-8.681488	0.000499	4.993456	0.845914	-0.000050
1929	1.9184e+02	0.8121	-8.729147	0.000479	4.788806	0.811246	-0.000048
1930	1.9194e+02	0.8021	-8.779250	0.000503	5.034386	0.852848	-0.000050
1931	1.9203e+02	0.7898	-8.824465	0.000454	4.543226	0.769643	-0.000045
1932	1.9213e+02	0.7815	-8.875791	0.000516	5.157175	0.873649	-0.000052
1933	1.9223e+02	0.7724	-8.924672	0.000491	4.911596	0.832047	-0.000049
1934	1.9233e+02	0.7632	-8.970701	0.000463	4.625086	0.783511	-0.000046
1935	1.9243e+02	0.7510	-9.023249	0.000528	5.279965	0.894450	-0.000053
1936	1.9253e+02	0.7413	-9.069686	0.000467	4.666016	0.790444	-0.000047
1937	1.9263e+02	0.7324	-9.119789	0.000503	5.034386	0.852848	-0.000050
1938	1.9273e+02	0.7204	-9.165818	0.000463	4.625086	0.783511	-0.000046
1939	1.9283e+02	0.7156	-9.215107	0.000495	4.952526	0.838981	-0.000050
1940	1.9293e+02	0.7005	-9.267654	0.000528	5.279965	0.894450	-0.000053
1941	1.9303e+02	0.6931	-9.312462	0.000450	4.502296	0.762710	-0.000045
1942	1.9313e+02	0.6821	-9.367453	0.000553	5.525545	0.936053	-0.000055
1943	1.9323e+02	0.6686	-9.415927	0.000487	4.870666	0.825113	-0.000049
1944	1.9333e+02	0.6631	-9.463178	0.000475	4.747876	0.804312	-0.000047
1945	1.9343e+02	0.6503	-9.513689	0.000508	5.075315	0.859782	-0.000051
1946	1.9353e+02	0.6448	-9.558497	0.000450	4.502296	0.762710	-0.000045
1947	1.9363e+02	0.6341	-9.609822	0.000516	5.157175	0.873649	-0.000052
1948	1.9373e+02	0.6233	-9.663184	0.000536	5.361825	0.908318	-0.000054
1949	1.9383e+02	0.6129	-9.712472	0.000495	4.952526	0.838981	-0.000050
1950	1.9393e+02	0.6039	-9.761353	0.000491	4.911596	0.832047	-0.000049
1951	1.9403e+02	0.5919	-9.809420	0.000483	4.829736	0.818179	-0.000048
1952	1.9412e+02	0.5826	-9.857486	0.000483	4.829736	0.818179	-0.000048
1953	1.9422e+02	0.5729	-9.909626	0.000524	5.239035	0.887517	-0.000052
1954	1.9432e+02	0.5612	-9.958507	0.000491	4.911596	0.832047	-0.000049
1955	1.9442e+02	0.5529	-10.006981	0.000487	4.870666	0.825113	-0.000049
1956	1.9452e+02	0.5448	-10.053418	0.000467	4.666016	0.790444	-0.000047
1957	1.9462e+02	0.5323	-10.108409	0.000553	5.525545	0.936053	-0.000055
1958	1.9472e+02	0.5235	-10.160142	0.000520	5.198105	0.880583	-0.000052
1959	1.9482e+02	0.5112	-10.206171	0.000463	4.625086	0.783511	-0.000046
1960	1.9492e+02	0.5038	-10.259126	0.000532	5.320895	0.901384	-0.000053
1961	1.9502e+02	0.4955	-10.309229	0.000503	5.034386	0.852848	-0.000050
1962	1.9512e+02	0.4806	-10.357703	0.000487	4.870666	0.825113	-0.000049
1963	1.9522e+02	0.4763	-10.410657	0.000532	5.320895	0.901384	-0.000053
1964	1.9532e+02	0.4643	-10.457094	0.000467	4.666016	0.790444	-0.000047
1965	1.9542e+02	0.4527	-10.506790	0.000499	4.993456	0.845914	-0.000050
1966	1.9552e+02	0.4419	-10.558930	0.000524	5.239035	0.887517	-0.000052
1967	1.9562e+02	0.4342	-10.605367	0.000467	4.666016	0.790444	-0.000047
1968	1.9572e+02	0.4259	-10.660358	0.000553	5.525545	0.936053	-0.000055
1969	1.9582e+02	0.4129	-10.708425	0.000483	4.829736	0.818179	-0.000048
1970	1.9592e+02	0.4017	-10.759750	0.000516	5.157175	0.873649	-0.000052
1971	1.9601e+02	0.3954	-10.807816	0.000483	4.829736	0.818179	-0.000048
1972	1.9611e+02	0.3838	-10.859549	0.000520	5.198105	0.880583	-0.000052
1973	1.9621e+02	0.3761	-10.910874	0.000516	5.157175	0.873649	-0.000052
1974	1.9631e+02	0.3625	-10.958533	0.000479	4.788806	0.811246	-0.000048
1975	1.9641e+02	0.3548	-11.009043	0.000508	5.075315	0.859782	-0.000051
1976	1.9651e+02	0.3436	-11.060776	0.000520	5.198105	0.880583	-0.000052
1977	1.9661e+02	0.3329	-11.110064	0.000495	4.952526	0.838981	-0.000050
1978	1.9671e+02	0.3237	-11.163426	0.000536	5.361825	0.908318	-0.000054
1979	1.9681e+02	0.3179	-11.213122	0.000499	4.993456	0.845914	-0.000050
1980	1.9691e+02	0.3043	-11.264040	0.000512	5.116245	0.866715	-0.000051
1981	1.9701e+02	0.2952	-11.312514	0.000487	4.870666	0.825113	-0.000049
1982	1.9711e+02	0.2850	-11.366690	0.000544	5.443685	0.922185	-0.000054
1983	1.9721e+02	0.2744	-11.416793	0.000503	5.034386	0.852848	-0.000050
1984	1.9731e+02	0.2652	-11.463230	0.000467	4.666016	0.790444	-0.000047
1985	1.9741e+02	0.2542	-11.517814	0.000548	5.484615	0.929119	-0.000055
1986	1.9751e+02	0.2456	-11.565473	0.000479	4.788806	0.811246	-0.000048
1987	1.9761e+02	0.2361	-11.620057	0.000548	5.484615	0.929119	-0.000055
1988	1.9771e+02	0.2255	-11.670975	0.000512	5.116245	0.866715	-0.000051
1989	1.9781e+02	0.2168	-11.719042	0.000483	4.829736	0.818179	-0.000048
1990	1.9791e+02	0.2022	-11.771181	0.000524	5.239035	0.887517	-0.000052
1991	1.9800e+02	0.1958	-11.819655	0.000487	4.870666	0.825113	-0.000049
1992	1.9810e+02	0.1820	-11.869758	0.000503	5.034386	0.852848	-0.000050
1993	1.9820e+02	0.1754	-11.927194	0.000577	5.771125	0.977655	-0.000058
1994	1.9830e+02	0.1643	-11.973223	0.000463	4.625086	0.783511	-0.000046
1995	1.9840e+02	0.1571	-12.026585	0.000536	5.361825	0.908318	-0.000054
1996	1.9850e+02	0.1447	-12.079540	0.000532	5.320895	0.901384	-0.000053
1997	1.9860e+02	0.1360	-12.128828	0.000495	4.952526	0.838981	-0.000050
1998	1.9870e+02	0.1261	-12.178117	0.000495	4.952526	0.838981	-0.000050
1999	1.9880e+02	0.1118	-12.233515	0.000557	5.566475	0.942986	-0.000056
2000	1.9890e+02	0.1040	-12.284026	0.000508	5.075315	0.859782	-0.000051
2001	1.9900e+02	0.0941	-12.336573	0.000528	5.279965	0.894450	-0.000053
2002	1.9910e+02	0.0853	-12.382603	0.000463	4.625086	0.783511	-0.000046
2003	1.9920e+02	0.0719	-12.438816	0.000565	5.648335	0.956854	-0.000056
2004	1.9930e+02	0.0648	-12.491363	0.000528	5.279965	0.894450	-0.000053
2005	1.9940e+02	0.0574	-12.540651	0.000495	4.952526	0.838981	-0.000050
2006	1.9950e+02	0.0443	-12.593606	0.000532	5.320895	0.901384	-0.000053
2007	1.9960e+02	0.0320	-12.646153	0.000528	5.279965	0.894450	-0.000053
2008	1.9970e+02	0.0276	-12.696256	0.000503	5.034386	0.852848	-0.000050
2009	1.9980e+02	0.0163	-12.745952	0.000499	4.993456	0.845914	-0.000050
2010	1.9990e+02	0.0043	-12.796463	0.000508	5.075315	0.859782	-0.000051
2011	2.0000e+02	-0.0034	-12.849010	0.000508	5.075315	0.859782	-0.000053

PMax (uC/cm2):	3.98e+01
Pr (uC/cm2):	7.20e+00
-Pr (uC/cm2):	0.00e+00
PLoss (uC/cm2):	0.00e+00
C (Max-Eff) (nF):	3.98e-01
K (Eff):	6.74e+02
Vert. (+/-Pr) Shift (uC/cm2):	3.60e+00
Offset (uC/cm2):	2.01e+01

A (Loop Area - uC/cm2·Volts):	-6.49e-02



Hysteresis Version: 5.48.1 - Radiant Technologies, Inc., 1999 - 9/12/24

