»»»»»»»»»»»»»»»»»»»»»»»»»»»»»»»»»»»» Hysteresis ««««««««««««««««««««««««««««««««««««
»»»  Executed Version:	5.48.1
»»»  Vision Version:	5.48.4 (R)
»»»  Vision Compiled:	9/18/24
»»»  Driver Version:	5.47.0
»»»  Windows Version:	Windows 8 or 8.1
»»»  Processor Information:	x86 (AMD or Intel) - 32 Processors
»»»  Tester Name:	PMF21124-494 (100V)
»»»  Tester S/N:	PMF21124-494
»»»  Internal Amp Type:	100V RevK 270k
»»»  Internal Amp S/N:	iAB2-596/K     
»»»  Execution Count:	1
»»»»»»»»»»»»»»»»»»»»»»»»»»»»»»»»»»»»»»»»»»««««««««««««««««««««««««««««««««««««««««««

Stored:	6/30/2025 - 14:8:19
Configured:	06/30/25 10:19:58 AM
Executed:	06/30/25 02:07:47 PM

»»»»»»»»»»»»»»»»»»»»»»»»»»»»»»»»»»» Sample Info ««««««««««««««««««««««««««««««««««««
Sample Name:	
Lot Name:	
Wafer Name:	
Die Row/Column:	0/0
Capacitor Number:	0
Sample Area (cm2):	1.00e-04
Sample Thickness (microns):	1.50e-01

Amplifier:	Internal

»»»»»»»»»»»»»»»»»»»»»»»»»»»»»»»»»»» Tester Info «««««««««««««««««««««««««««««««««««
Tester Name:	PMF21124-494 (100V)
Tester Serial Number:	PMF21124-494
Return Signal Amp. Level:	1.9 [Index: 2]

»»»»»»»»»»»»»»»»»»»»»»»»»»»»»»»» Hysteresis Info ««««««««««««««««««««««««««««««««««
Task Name:	Hyst-1804
Volts:	10.00
Field:	666.67 (kV/cm)
DCBias:	0.00
DCField:	0.00 (kV/cm)
Hysteresis Period (ms):	2.00e+02
Preset:	Enabled
Preset Delay (ms):	1.00e+03
Profile:	Standard Monopolar

»»»»»»»»»»»»»»»»»»»»»»»»»»»»»»»»»»»»»» Data «««««««««««««««««««««««««««««««««««««««
Points:	2011

Valid Data

Point	Time (ms)	Drive Voltage	Measured Polarization (uC/cm2)	Capacitance (uF)	Normalized Capacitance (uF/cm2)	Dielectric Constant	Instantaneous Current (mA)
   1	0.0000e+00	-0.0020	-18.793767	0.000389	3.891612	0.659257	0.000039
   2	9.9500e-02	0.0050	-18.755069	0.000389	3.891612	0.659257	0.000039
   3	1.9900e-01	0.0165	-18.704559	0.000508	5.079578	0.860504	0.000051
   4	2.9850e-01	0.0246	-18.659751	0.000451	4.506077	0.763350	0.000045
   5	3.9800e-01	0.0334	-18.617388	0.000426	4.260291	0.721713	0.000043
   6	4.9750e-01	0.0446	-18.572580	0.000451	4.506077	0.763350	0.000045
   7	5.9700e-01	0.0552	-18.524921	0.000479	4.792827	0.811927	0.000048
   8	6.9650e-01	0.0666	-18.478484	0.000467	4.669934	0.791108	0.000047
   9	7.9600e-01	0.0744	-18.431232	0.000475	4.751863	0.804987	0.000047
  10	8.9550e-01	0.0854	-18.386424	0.000451	4.506077	0.763350	0.000045
  11	9.9500e-01	0.0946	-18.343246	0.000434	4.342220	0.735592	0.000043
  12	1.0945e+00	0.1041	-18.295180	0.000483	4.833792	0.818866	0.000048
  13	1.1940e+00	0.1142	-18.252409	0.000430	4.301255	0.728652	0.000043
  14	1.2935e+00	0.1235	-18.206379	0.000463	4.628970	0.784169	0.000046
  15	1.3930e+00	0.1338	-18.169311	0.000373	3.727755	0.631499	0.000037
  16	1.4925e+00	0.1424	-18.115134	0.000545	5.448257	0.922960	0.000054
  17	1.5920e+00	0.1532	-18.070327	0.000451	4.506077	0.763350	0.000045
  18	1.6915e+00	0.1630	-18.023075	0.000475	4.751863	0.804987	0.000047
  19	1.7910e+00	0.1755	-17.979897	0.000434	4.342220	0.735592	0.000043
  20	1.8905e+00	0.1848	-17.933052	0.000471	4.710899	0.798048	0.000047
  21	1.9900e+00	0.1941	-17.885393	0.000479	4.792827	0.811927	0.000048
  22	2.0895e+00	0.2048	-17.840585	0.000451	4.506077	0.763350	0.000045
  23	2.1890e+00	0.2139	-17.788038	0.000528	5.284399	0.895201	0.000053
  24	2.2885e+00	0.2248	-17.746082	0.000422	4.219327	0.714773	0.000042
  25	2.3880e+00	0.2360	-17.696386	0.000500	4.997649	0.846625	0.000050
  26	2.4875e+00	0.2468	-17.656059	0.000406	4.055469	0.687015	0.000041
  27	2.5870e+00	0.2563	-17.607585	0.000487	4.874756	0.825806	0.000049
  28	2.6865e+00	0.2613	-17.559926	0.000479	4.792827	0.811927	0.000048
  29	2.7860e+00	0.2731	-17.517563	0.000426	4.260291	0.721713	0.000043
  30	2.8855e+00	0.2844	-17.469904	0.000479	4.792827	0.811927	0.000048
  31	2.9850e+00	0.2943	-17.422652	0.000475	4.751863	0.804987	0.000047
  32	3.0845e+00	0.3040	-17.378252	0.000447	4.465113	0.756411	0.000045
  33	3.1840e+00	0.3162	-17.330185	0.000483	4.833792	0.818866	0.000048
  34	3.2835e+00	0.3263	-17.286600	0.000438	4.383184	0.742531	0.000044
  35	3.3830e+00	0.3327	-17.234460	0.000524	5.243435	0.888262	0.000052
  36	3.4825e+00	0.3435	-17.188430	0.000463	4.628970	0.784169	0.000046
  37	3.5820e+00	0.3533	-17.144437	0.000442	4.424148	0.749471	0.000044
  38	3.6815e+00	0.3629	-17.096778	0.000479	4.792827	0.811927	0.000048
  39	3.7810e+00	0.3725	-17.056451	0.000406	4.055469	0.687015	0.000041
  40	3.8805e+00	0.3847	-17.004311	0.000524	5.243435	0.888262	0.000052
  41	3.9800e+00	0.3914	-16.962762	0.000418	4.178362	0.707834	0.000042
  42	4.0795e+00	0.4021	-16.917140	0.000459	4.588006	0.777229	0.000046
  43	4.1790e+00	0.4125	-16.873962	0.000434	4.342220	0.735592	0.000043
  44	4.2785e+00	0.4238	-16.832005	0.000422	4.219327	0.714773	0.000042
  45	4.3780e+00	0.4358	-16.785976	0.000463	4.628970	0.784169	0.000046
  46	4.4775e+00	0.4430	-16.740353	0.000459	4.588006	0.777229	0.000046
  47	4.5770e+00	0.4517	-16.695545	0.000451	4.506077	0.763350	0.000045
  48	4.6765e+00	0.4623	-16.647479	0.000483	4.833792	0.818866	0.000048
  49	4.7760e+00	0.4740	-16.603893	0.000438	4.383184	0.742531	0.000044
  50	4.8755e+00	0.4814	-16.555420	0.000487	4.874756	0.825806	0.000049
  51	4.9750e+00	0.4898	-16.508168	0.000475	4.751863	0.804987	0.000047
  52	5.0745e+00	0.5027	-16.462953	0.000455	4.547041	0.770290	0.000045
  53	5.1740e+00	0.5122	-16.418553	0.000447	4.465113	0.756411	0.000045
  54	5.2735e+00	0.5206	-16.372930	0.000459	4.588006	0.777229	0.000046
  55	5.3730e+00	0.5344	-16.323642	0.000496	4.956685	0.839685	0.000050
  56	5.4725e+00	0.5428	-16.279241	0.000447	4.465113	0.756411	0.000045
  57	5.5720e+00	0.5519	-16.238507	0.000410	4.096434	0.693955	0.000041
  58	5.6715e+00	0.5622	-16.186775	0.000520	5.202471	0.881322	0.000052
  59	5.7710e+00	0.5717	-16.144004	0.000430	4.301255	0.728652	0.000043
  60	5.8705e+00	0.5827	-16.093493	0.000508	5.079578	0.860504	0.000051
  61	5.9700e+00	0.5931	-16.044205	0.000496	4.956685	0.839685	0.000050
  62	6.0695e+00	0.6033	-15.994916	0.000496	4.956685	0.839685	0.000050
  63	6.1690e+00	0.6126	-15.947257	0.000479	4.792827	0.811927	0.000048
  64	6.2685e+00	0.6232	-15.899191	0.000483	4.833792	0.818866	0.000048
  65	6.3680e+00	0.6316	-15.852346	0.000471	4.710899	0.798048	0.000047
  66	6.4675e+00	0.6434	-15.802651	0.000500	4.997649	0.846625	0.000050
  67	6.5670e+00	0.6532	-15.758250	0.000447	4.465113	0.756411	0.000045
  68	6.6665e+00	0.6625	-15.709369	0.000492	4.915720	0.832746	0.000049
  69	6.7660e+00	0.6738	-15.665376	0.000442	4.424148	0.749471	0.000044
  70	6.8655e+00	0.6815	-15.618532	0.000471	4.710899	0.798048	0.000047
  71	6.9650e+00	0.6919	-15.574946	0.000438	4.383184	0.742531	0.000044
  72	7.0645e+00	0.6998	-15.526472	0.000487	4.874756	0.825806	0.000049
  73	7.1640e+00	0.7117	-15.480035	0.000467	4.669934	0.791108	0.000047
  74	7.2635e+00	0.7201	-15.434820	0.000455	4.547041	0.770290	0.000045
  75	7.3630e+00	0.7298	-15.386754	0.000483	4.833792	0.818866	0.000048
  76	7.4625e+00	0.7413	-15.339095	0.000479	4.792827	0.811927	0.000048
  77	7.5620e+00	0.7529	-15.299583	0.000397	3.973541	0.673136	0.000040
  78	7.6615e+00	0.7635	-15.251109	0.000487	4.874756	0.825806	0.000049
  79	7.7610e+00	0.7719	-15.201820	0.000496	4.956685	0.839685	0.000050
  80	7.8605e+00	0.7790	-15.154976	0.000471	4.710899	0.798048	0.000047
  81	7.9600e+00	0.7922	-15.111798	0.000434	4.342220	0.735592	0.000043
  82	8.0595e+00	0.8035	-15.067397	0.000447	4.465113	0.756411	0.000045
  83	8.1590e+00	0.8101	-15.018924	0.000487	4.874756	0.825806	0.000049
  84	8.2585e+00	0.8204	-14.974116	0.000451	4.506077	0.763350	0.000045
  85	8.3580e+00	0.8340	-14.925642	0.000487	4.874756	0.825806	0.000049
  86	8.4575e+00	0.8415	-14.877983	0.000479	4.792827	0.811927	0.000048
  87	8.5570e+00	0.8509	-14.831953	0.000463	4.628970	0.784169	0.000046
  88	8.6565e+00	0.8629	-14.788775	0.000434	4.342220	0.735592	0.000043
  89	8.7560e+00	0.8713	-14.741116	0.000479	4.792827	0.811927	0.000048
  90	8.8555e+00	0.8831	-14.694272	0.000471	4.710899	0.798048	0.000047
  91	8.9550e+00	0.8918	-14.649871	0.000447	4.465113	0.756411	0.000045
  92	9.0545e+00	0.8993	-14.603841	0.000463	4.628970	0.784169	0.000046
  93	9.1540e+00	0.9107	-14.559034	0.000451	4.506077	0.763350	0.000045
  94	9.2535e+00	0.9191	-14.508931	0.000504	5.038613	0.853564	0.000050
  95	9.3530e+00	0.9318	-14.467382	0.000418	4.178362	0.707834	0.000042
  96	9.4525e+00	0.9423	-14.419723	0.000479	4.792827	0.811927	0.000048
  97	9.5520e+00	0.9521	-14.369620	0.000504	5.038613	0.853564	0.000050
  98	9.6515e+00	0.9602	-14.326034	0.000438	4.383184	0.742531	0.000044
  99	9.7510e+00	0.9739	-14.280004	0.000463	4.628970	0.784169	0.000046
 100	9.8505e+00	0.9808	-14.233974	0.000463	4.628970	0.784169	0.000046
 101	9.9500e+00	0.9932	-14.188352	0.000459	4.588006	0.777229	0.000046
 102	1.0050e+01	0.9993	-14.143952	0.000447	4.465113	0.756411	0.000045
 103	1.0149e+01	1.0120	-14.096293	0.000479	4.792827	0.811927	0.000048
 104	1.0248e+01	1.0199	-14.045782	0.000508	5.079578	0.860504	0.000051
 105	1.0348e+01	1.0290	-14.007085	0.000389	3.891612	0.659257	0.000039
 106	1.0447e+01	1.0401	-13.964721	0.000426	4.260291	0.721713	0.000043
 107	1.0547e+01	1.0516	-13.914211	0.000508	5.079578	0.860504	0.000051
 108	1.0646e+01	1.0601	-13.868181	0.000463	4.628970	0.784169	0.000046
 109	1.0746e+01	1.0699	-13.824595	0.000438	4.383184	0.742531	0.000044
 110	1.0845e+01	1.0786	-13.780602	0.000442	4.424148	0.749471	0.000044
 111	1.0945e+01	1.0921	-13.728462	0.000524	5.243435	0.888262	0.000052
 112	1.1044e+01	1.0984	-13.688135	0.000406	4.055469	0.687015	0.000041
 113	1.1144e+01	1.1120	-13.639662	0.000487	4.874756	0.825806	0.000049
 114	1.1243e+01	1.1205	-13.594447	0.000455	4.547041	0.770290	0.000045
 115	1.1343e+01	1.1319	-13.548824	0.000459	4.588006	0.777229	0.000046
 116	1.1443e+01	1.1402	-13.503609	0.000455	4.547041	0.770290	0.000045
 117	1.1542e+01	1.1503	-13.459209	0.000447	4.465113	0.756411	0.000045
 118	1.1642e+01	1.1597	-13.413587	0.000459	4.588006	0.777229	0.000046
 119	1.1741e+01	1.1682	-13.371223	0.000426	4.260291	0.721713	0.000043
 120	1.1841e+01	1.1778	-13.322342	0.000492	4.915720	0.832746	0.000049
 121	1.1940e+01	1.1901	-13.278349	0.000442	4.424148	0.749471	0.000044
 122	1.2040e+01	1.2003	-13.232726	0.000459	4.588006	0.777229	0.000046
 123	1.2139e+01	1.2091	-13.186289	0.000467	4.669934	0.791108	0.000047
 124	1.2239e+01	1.2199	-13.139445	0.000471	4.710899	0.798048	0.000047
 125	1.2338e+01	1.2300	-13.093008	0.000467	4.669934	0.791108	0.000047
 126	1.2438e+01	1.2403	-13.046571	0.000467	4.669934	0.791108	0.000047
 127	1.2537e+01	1.2511	-12.998912	0.000479	4.792827	0.811927	0.000048
 128	1.2636e+01	1.2578	-12.950845	0.000483	4.833792	0.818866	0.000048
 129	1.2736e+01	1.2694	-12.906445	0.000447	4.465113	0.756411	0.000045
 130	1.2835e+01	1.2792	-12.864489	0.000422	4.219327	0.714773	0.000042
 131	1.2935e+01	1.2888	-12.814386	0.000504	5.038613	0.853564	0.000050
 132	1.3034e+01	1.2984	-12.771615	0.000430	4.301255	0.728652	0.000043
 133	1.3134e+01	1.3097	-12.728436	0.000434	4.342220	0.735592	0.000043
 134	1.3233e+01	1.3180	-12.680370	0.000483	4.833792	0.818866	0.000048
 135	1.3333e+01	1.3300	-12.636784	0.000438	4.383184	0.742531	0.000044
 136	1.3432e+01	1.3389	-12.594013	0.000430	4.301255	0.728652	0.000043
 137	1.3532e+01	1.3506	-12.547984	0.000463	4.628970	0.784169	0.000046
 138	1.3632e+01	1.3580	-12.500732	0.000475	4.751863	0.804987	0.000047
 139	1.3731e+01	1.3689	-12.455110	0.000459	4.588006	0.777229	0.000046
 140	1.3831e+01	1.3789	-12.408265	0.000471	4.710899	0.798048	0.000047
 141	1.3930e+01	1.3879	-12.363457	0.000451	4.506077	0.763350	0.000045
 142	1.4030e+01	1.3964	-12.317835	0.000459	4.588006	0.777229	0.000046
 143	1.4129e+01	1.4079	-12.272213	0.000459	4.588006	0.777229	0.000046
 144	1.4229e+01	1.4159	-12.230256	0.000422	4.219327	0.714773	0.000042
 145	1.4328e+01	1.4286	-12.189522	0.000410	4.096434	0.693955	0.000041
 146	1.4428e+01	1.4384	-12.145529	0.000442	4.424148	0.749471	0.000044
 147	1.4527e+01	1.4483	-12.105202	0.000406	4.055469	0.687015	0.000041
 148	1.4627e+01	1.4561	-12.060395	0.000451	4.506077	0.763350	0.000045
 149	1.4726e+01	1.4702	-12.016809	0.000438	4.383184	0.742531	0.000044
 150	1.4825e+01	1.4773	-11.974445	0.000426	4.260291	0.721713	0.000043
 151	1.4925e+01	1.4890	-11.925564	0.000492	4.915720	0.832746	0.000049
 152	1.5024e+01	1.4996	-11.878720	0.000471	4.710899	0.798048	0.000047
 153	1.5124e+01	1.5092	-11.835134	0.000438	4.383184	0.742531	0.000044
 154	1.5223e+01	1.5195	-11.794400	0.000410	4.096434	0.693955	0.000041
 155	1.5323e+01	1.5292	-11.747148	0.000475	4.751863	0.804987	0.000047
 156	1.5422e+01	1.5389	-11.707636	0.000397	3.973541	0.673136	0.000040
 157	1.5522e+01	1.5443	-11.658347	0.000496	4.956685	0.839685	0.000050
 158	1.5621e+01	1.5554	-11.616391	0.000422	4.219327	0.714773	0.000042
 159	1.5721e+01	1.5697	-11.573213	0.000434	4.342220	0.735592	0.000043
 160	1.5820e+01	1.5759	-11.525146	0.000483	4.833792	0.818866	0.000048
 161	1.5920e+01	1.5861	-11.481561	0.000438	4.383184	0.742531	0.000044
 162	1.6020e+01	1.5965	-11.441234	0.000406	4.055469	0.687015	0.000041
 163	1.6119e+01	1.6051	-11.398056	0.000434	4.342220	0.735592	0.000043
 164	1.6218e+01	1.6174	-11.349582	0.000487	4.874756	0.825806	0.000049
 165	1.6318e+01	1.6280	-11.307218	0.000426	4.260291	0.721713	0.000043
 166	1.6418e+01	1.6354	-11.259152	0.000483	4.833792	0.818866	0.000048
 167	1.6517e+01	1.6486	-11.218418	0.000410	4.096434	0.693955	0.000041
 168	1.6616e+01	1.6560	-11.169536	0.000492	4.915720	0.832746	0.000049
 169	1.6716e+01	1.6678	-11.129617	0.000401	4.014505	0.680076	0.000040
 170	1.6816e+01	1.6767	-11.086439	0.000434	4.342220	0.735592	0.000043
 171	1.6915e+01	1.6882	-11.042038	0.000447	4.465113	0.756411	0.000045
 172	1.7015e+01	1.6968	-10.996416	0.000459	4.588006	0.777229	0.000046
 173	1.7114e+01	1.7083	-10.954867	0.000418	4.178362	0.707834	0.000042
 174	1.7213e+01	1.7144	-10.909652	0.000455	4.547041	0.770290	0.000045
 175	1.7313e+01	1.7257	-10.863622	0.000463	4.628970	0.784169	0.000046
 176	1.7413e+01	1.7346	-10.816778	0.000471	4.710899	0.798048	0.000047
 177	1.7512e+01	1.7467	-10.778080	0.000389	3.891612	0.659257	0.000039
 178	1.7611e+01	1.7570	-10.731643	0.000467	4.669934	0.791108	0.000047
 179	1.7711e+01	1.7655	-10.688058	0.000438	4.383184	0.742531	0.000044
 180	1.7811e+01	1.7770	-10.643657	0.000447	4.465113	0.756411	0.000045
 181	1.7910e+01	1.7863	-10.600886	0.000430	4.301255	0.728652	0.000043
 182	1.8009e+01	1.7962	-10.560559	0.000406	4.055469	0.687015	0.000041
 183	1.8109e+01	1.8092	-10.516159	0.000447	4.465113	0.756411	0.000045
 184	1.8209e+01	1.8172	-10.470944	0.000455	4.547041	0.770290	0.000045
 185	1.8308e+01	1.8253	-10.427766	0.000434	4.342220	0.735592	0.000043
 186	1.8407e+01	1.8346	-10.380514	0.000475	4.751863	0.804987	0.000047
 187	1.8507e+01	1.8461	-10.340187	0.000406	4.055469	0.687015	0.000041
 188	1.8607e+01	1.8560	-10.292121	0.000483	4.833792	0.818866	0.000048
 189	1.8706e+01	1.8648	-10.249757	0.000426	4.260291	0.721713	0.000043
 190	1.8805e+01	1.8784	-10.203727	0.000463	4.628970	0.784169	0.000046
 191	1.8905e+01	1.8851	-10.158105	0.000459	4.588006	0.777229	0.000046
 192	1.9005e+01	1.8946	-10.115334	0.000430	4.301255	0.728652	0.000043
 193	1.9104e+01	1.9075	-10.076229	0.000393	3.932576	0.666196	0.000039
 194	1.9203e+01	1.9154	-10.032643	0.000438	4.383184	0.742531	0.000044
 195	1.9303e+01	1.9265	-9.989465	0.000434	4.342220	0.735592	0.000043
 196	1.9402e+01	1.9350	-9.942213	0.000475	4.751863	0.804987	0.000047
 197	1.9502e+01	1.9466	-9.904330	0.000381	3.809683	0.645378	0.000038
 198	1.9602e+01	1.9574	-9.856264	0.000483	4.833792	0.818866	0.000048
 199	1.9701e+01	1.9667	-9.815122	0.000414	4.137398	0.700894	0.000041
 200	1.9800e+01	1.9727	-9.770722	0.000447	4.465113	0.756411	0.000045
 201	1.9900e+01	1.9830	-9.725914	0.000451	4.506077	0.763350	0.000045
 202	2.0000e+01	1.9968	-9.685995	0.000401	4.014505	0.680076	0.000040
 203	2.0099e+01	2.0065	-9.637928	0.000483	4.833792	0.818866	0.000048
 204	2.0198e+01	2.0144	-9.592713	0.000455	4.547041	0.770290	0.000045
 205	2.0298e+01	2.0261	-9.549535	0.000434	4.342220	0.735592	0.000043
 206	2.0398e+01	2.0333	-9.505542	0.000442	4.424148	0.749471	0.000044
 207	2.0497e+01	2.0459	-9.462771	0.000430	4.301255	0.728652	0.000043
 208	2.0596e+01	2.0532	-9.421222	0.000418	4.178362	0.707834	0.000042
 209	2.0696e+01	2.0652	-9.382932	0.000385	3.850648	0.652317	0.000038
 210	2.0796e+01	2.0718	-9.340161	0.000430	4.301255	0.728652	0.000043
 211	2.0895e+01	2.0864	-9.299834	0.000406	4.055469	0.687015	0.000041
 212	2.0994e+01	2.0940	-9.255841	0.000442	4.424148	0.749471	0.000044
 213	2.1094e+01	2.1050	-9.213885	0.000422	4.219327	0.714773	0.000042
 214	2.1194e+01	2.1165	-9.174373	0.000397	3.973541	0.673136	0.000040
 215	2.1293e+01	2.1279	-9.133638	0.000410	4.096434	0.693955	0.000041
 216	2.1392e+01	2.1359	-9.090053	0.000438	4.383184	0.742531	0.000044
 217	2.1492e+01	2.1444	-9.043616	0.000467	4.669934	0.791108	0.000047
 218	2.1591e+01	2.1558	-9.000437	0.000434	4.342220	0.735592	0.000043
 219	2.1691e+01	2.1650	-8.956444	0.000442	4.424148	0.749471	0.000044
 220	2.1791e+01	2.1765	-8.910007	0.000467	4.669934	0.791108	0.000047
 221	2.1890e+01	2.1851	-8.869273	0.000410	4.096434	0.693955	0.000041
 222	2.1989e+01	2.1941	-8.826095	0.000434	4.342220	0.735592	0.000043
 223	2.2089e+01	2.2043	-8.784953	0.000414	4.137398	0.700894	0.000041
 224	2.2189e+01	2.2156	-8.742590	0.000426	4.260291	0.721713	0.000043
 225	2.2288e+01	2.2260	-8.700226	0.000426	4.260291	0.721713	0.000043
 226	2.2387e+01	2.2315	-8.655418	0.000451	4.506077	0.763350	0.000045
 227	2.2487e+01	2.2480	-8.613462	0.000422	4.219327	0.714773	0.000042
 228	2.2587e+01	2.2571	-8.568654	0.000451	4.506077	0.763350	0.000045
 229	2.2686e+01	2.2634	-8.519366	0.000496	4.956685	0.839685	0.000050
 230	2.2785e+01	2.2741	-8.476595	0.000430	4.301255	0.728652	0.000043
 231	2.2885e+01	2.2850	-8.433824	0.000430	4.301255	0.728652	0.000043
 232	2.2985e+01	2.2933	-8.388201	0.000459	4.588006	0.777229	0.000046
 233	2.3084e+01	2.3049	-8.345431	0.000430	4.301255	0.728652	0.000043
 234	2.3183e+01	2.3153	-8.299808	0.000459	4.588006	0.777229	0.000046
 235	2.3283e+01	2.3231	-8.252964	0.000471	4.710899	0.798048	0.000047
 236	2.3383e+01	2.3341	-8.214674	0.000385	3.850648	0.652317	0.000038
 237	2.3482e+01	2.3461	-8.169866	0.000451	4.506077	0.763350	0.000045
 238	2.3581e+01	2.3534	-8.127910	0.000422	4.219327	0.714773	0.000042
 239	2.3681e+01	2.3636	-8.083917	0.000442	4.424148	0.749471	0.000044
 240	2.3780e+01	2.3756	-8.043590	0.000406	4.055469	0.687015	0.000041
 241	2.3880e+01	2.3818	-7.997967	0.000459	4.588006	0.777229	0.000046
 242	2.3980e+01	2.3923	-7.953160	0.000451	4.506077	0.763350	0.000045
 243	2.4079e+01	2.4026	-7.913240	0.000401	4.014505	0.680076	0.000040
 244	2.4178e+01	2.4136	-7.874543	0.000389	3.891612	0.659257	0.000039
 245	2.4278e+01	2.4246	-7.828105	0.000467	4.669934	0.791108	0.000047
 246	2.4378e+01	2.4343	-7.788593	0.000397	3.973541	0.673136	0.000040
 247	2.4477e+01	2.4465	-7.747452	0.000414	4.137398	0.700894	0.000041
 248	2.4576e+01	2.4537	-7.702644	0.000451	4.506077	0.763350	0.000045
 249	2.4676e+01	2.4638	-7.660688	0.000422	4.219327	0.714773	0.000042
 250	2.4776e+01	2.4751	-7.617102	0.000438	4.383184	0.742531	0.000044
 251	2.4875e+01	2.4832	-7.576775	0.000406	4.055469	0.687015	0.000041
 252	2.4974e+01	2.4960	-7.534412	0.000426	4.260291	0.721713	0.000043
 253	2.5074e+01	2.5020	-7.492048	0.000426	4.260291	0.721713	0.000043
 254	2.5174e+01	2.5130	-7.451721	0.000406	4.055469	0.687015	0.000041
 255	2.5273e+01	2.5231	-7.406099	0.000459	4.588006	0.777229	0.000046
 256	2.5372e+01	2.5330	-7.363328	0.000430	4.301255	0.728652	0.000043
 257	2.5472e+01	2.5401	-7.323408	0.000401	4.014505	0.680076	0.000040
 258	2.5572e+01	2.5510	-7.282266	0.000414	4.137398	0.700894	0.000041
 259	2.5671e+01	2.5646	-7.242347	0.000401	4.014505	0.680076	0.000040
 260	2.5770e+01	2.5716	-7.196317	0.000463	4.628970	0.784169	0.000046
 261	2.5870e+01	2.5822	-7.157212	0.000393	3.932576	0.666196	0.000039
 262	2.5970e+01	2.5920	-7.118107	0.000393	3.932576	0.666196	0.000039
 263	2.6069e+01	2.6041	-7.071263	0.000471	4.710899	0.798048	0.000047
 264	2.6169e+01	2.6126	-7.032973	0.000385	3.850648	0.652317	0.000038
 265	2.6268e+01	2.6223	-6.986943	0.000463	4.628970	0.784169	0.000046
 266	2.6367e+01	2.6345	-6.941728	0.000455	4.547041	0.770290	0.000045
 267	2.6467e+01	2.6456	-6.903438	0.000385	3.850648	0.652317	0.000038
 268	2.6567e+01	2.6511	-6.862704	0.000410	4.096434	0.693955	0.000041
 269	2.6666e+01	2.6629	-6.819525	0.000434	4.342220	0.735592	0.000043
 270	2.6765e+01	2.6742	-6.783272	0.000365	3.645826	0.617620	0.000036
 271	2.6865e+01	2.6846	-6.739686	0.000438	4.383184	0.742531	0.000044
 272	2.6965e+01	2.6927	-6.697323	0.000426	4.260291	0.721713	0.000043
 273	2.7064e+01	2.7009	-6.657810	0.000397	3.973541	0.673136	0.000040
 274	2.7163e+01	2.7097	-6.614632	0.000434	4.342220	0.735592	0.000043
 275	2.7263e+01	2.7219	-6.571046	0.000438	4.383184	0.742531	0.000044
 276	2.7363e+01	2.7337	-6.529497	0.000418	4.178362	0.707834	0.000042
 277	2.7462e+01	2.7407	-6.487134	0.000426	4.260291	0.721713	0.000043
 278	2.7561e+01	2.7522	-6.448844	0.000385	3.850648	0.652317	0.000038
 279	2.7661e+01	2.7615	-6.405258	0.000438	4.383184	0.742531	0.000044
 280	2.7761e+01	2.7707	-6.367782	0.000377	3.768719	0.638438	0.000038
 281	2.7860e+01	2.7822	-6.322160	0.000459	4.588006	0.777229	0.000046
 282	2.7959e+01	2.7914	-6.283463	0.000389	3.891612	0.659257	0.000039
 283	2.8059e+01	2.8016	-6.239470	0.000442	4.424148	0.749471	0.000044
 284	2.8159e+01	2.8149	-6.199143	0.000406	4.055469	0.687015	0.000041
 285	2.8258e+01	2.8235	-6.158816	0.000406	4.055469	0.687015	0.000041
 286	2.8358e+01	2.8331	-6.120118	0.000389	3.891612	0.659257	0.000039
 287	2.8457e+01	2.8430	-6.077755	0.000426	4.260291	0.721713	0.000043
 288	2.8556e+01	2.8495	-6.036206	0.000418	4.178362	0.707834	0.000042
 289	2.8656e+01	2.8600	-5.993842	0.000426	4.260291	0.721713	0.000043
 290	2.8756e+01	2.8695	-5.955552	0.000385	3.850648	0.652317	0.000038
 291	2.8855e+01	2.8812	-5.914410	0.000414	4.137398	0.700894	0.000041
 292	2.8954e+01	2.8918	-5.872861	0.000418	4.178362	0.707834	0.000042
 293	2.9054e+01	2.9046	-5.827646	0.000455	4.547041	0.770290	0.000045
 294	2.9154e+01	2.9117	-5.786912	0.000410	4.096434	0.693955	0.000041
 295	2.9253e+01	2.9224	-5.740475	0.000467	4.669934	0.791108	0.000047
 296	2.9352e+01	2.9319	-5.700148	0.000406	4.055469	0.687015	0.000041
 297	2.9452e+01	2.9395	-5.659006	0.000414	4.137398	0.700894	0.000041
 298	2.9552e+01	2.9517	-5.617457	0.000418	4.178362	0.707834	0.000042
 299	2.9651e+01	2.9581	-5.574279	0.000434	4.342220	0.735592	0.000043
 300	2.9750e+01	2.9710	-5.536804	0.000377	3.768719	0.638438	0.000038
 301	2.9850e+01	2.9813	-5.496884	0.000401	4.014505	0.680076	0.000040
 302	2.9950e+01	2.9897	-5.459409	0.000377	3.768719	0.638438	0.000038
 303	3.0049e+01	2.9993	-5.414601	0.000451	4.506077	0.763350	0.000045
 304	3.0148e+01	3.0096	-5.375496	0.000393	3.932576	0.666196	0.000039
 305	3.0248e+01	3.0181	-5.338428	0.000373	3.727755	0.631499	0.000037
 306	3.0348e+01	3.0330	-5.292805	0.000459	4.588006	0.777229	0.000046
 307	3.0447e+01	3.0398	-5.253293	0.000397	3.973541	0.673136	0.000040
 308	3.0547e+01	3.0523	-5.215003	0.000385	3.850648	0.652317	0.000038
 309	3.0646e+01	3.0617	-5.171417	0.000438	4.383184	0.742531	0.000044
 310	3.0745e+01	3.0714	-5.132312	0.000393	3.932576	0.666196	0.000039
 311	3.0845e+01	3.0803	-5.092800	0.000397	3.973541	0.673136	0.000040
 312	3.0945e+01	3.0918	-5.057361	0.000356	3.563897	0.603741	0.000036
 313	3.1044e+01	3.1016	-5.016627	0.000410	4.096434	0.693955	0.000041
 314	3.1143e+01	3.1100	-4.977115	0.000397	3.973541	0.673136	0.000040
 315	3.1243e+01	3.1216	-4.942898	0.000344	3.441004	0.582922	0.000034
 316	3.1343e+01	3.1327	-4.904608	0.000385	3.850648	0.652317	0.000038
 317	3.1442e+01	3.1396	-4.863466	0.000414	4.137398	0.700894	0.000041
 318	3.1541e+01	3.1496	-4.825584	0.000381	3.809683	0.645378	0.000038
 319	3.1641e+01	3.1563	-4.785664	0.000401	4.014505	0.680076	0.000040
 320	3.1741e+01	3.1705	-4.746966	0.000389	3.891612	0.659257	0.000039
 321	3.1840e+01	3.1802	-4.702973	0.000442	4.424148	0.749471	0.000044
 322	3.1939e+01	3.1908	-4.663461	0.000397	3.973541	0.673136	0.000040
 323	3.2039e+01	3.2000	-4.626393	0.000373	3.727755	0.631499	0.000037
 324	3.2139e+01	3.2097	-4.587288	0.000393	3.932576	0.666196	0.000039
 325	3.2238e+01	3.2200	-4.548998	0.000385	3.850648	0.652317	0.000038
 326	3.2337e+01	3.2317	-4.504190	0.000451	4.506077	0.763350	0.000045
 327	3.2437e+01	3.2366	-4.466715	0.000377	3.768719	0.638438	0.000038
 328	3.2536e+01	3.2514	-4.430461	0.000365	3.645826	0.617620	0.000036
 329	3.2636e+01	3.2607	-4.390542	0.000401	4.014505	0.680076	0.000040
 330	3.2736e+01	3.2685	-4.348993	0.000418	4.178362	0.707834	0.000042
 331	3.2835e+01	3.2821	-4.308258	0.000410	4.096434	0.693955	0.000041
 332	3.2934e+01	3.2903	-4.271598	0.000369	3.686790	0.624559	0.000037
 333	3.3034e+01	3.3004	-4.234122	0.000377	3.768719	0.638438	0.000038
 334	3.3133e+01	3.3082	-4.190536	0.000438	4.383184	0.742531	0.000044
 335	3.3233e+01	3.3197	-4.154690	0.000360	3.604862	0.610680	0.000036
 336	3.3333e+01	3.3292	-4.113549	0.000414	4.137398	0.700894	0.000041
 337	3.3432e+01	3.3427	-4.072407	0.000414	4.137398	0.700894	0.000041
 338	3.3532e+01	3.3489	-4.035339	0.000373	3.727755	0.631499	0.000037
 339	3.3631e+01	3.3590	-3.997863	0.000377	3.768719	0.638438	0.000038
 340	3.3730e+01	3.3685	-3.955093	0.000430	4.301255	0.728652	0.000043
 341	3.3830e+01	3.3804	-3.918024	0.000373	3.727755	0.631499	0.000037
 342	3.3929e+01	3.3862	-3.880549	0.000377	3.768719	0.638438	0.000038
 343	3.4029e+01	3.3976	-3.838593	0.000422	4.219327	0.714773	0.000042
 344	3.4129e+01	3.4102	-3.801524	0.000373	3.727755	0.631499	0.000037
 345	3.4228e+01	3.4163	-3.759975	0.000418	4.178362	0.707834	0.000042
 346	3.4328e+01	3.4296	-3.723722	0.000365	3.645826	0.617620	0.000036
 347	3.4427e+01	3.4402	-3.684210	0.000397	3.973541	0.673136	0.000040
 348	3.4526e+01	3.4478	-3.647956	0.000365	3.645826	0.617620	0.000036
 349	3.4626e+01	3.4573	-3.608851	0.000393	3.932576	0.666196	0.000039
 350	3.4725e+01	3.4695	-3.574227	0.000348	3.481969	0.589861	0.000035
 351	3.4825e+01	3.4786	-3.531864	0.000426	4.260291	0.721713	0.000043
 352	3.4925e+01	3.4875	-3.494388	0.000377	3.768719	0.638438	0.000038
 353	3.5024e+01	3.4992	-3.453246	0.000414	4.137398	0.700894	0.000041
 354	3.5123e+01	3.5079	-3.417808	0.000356	3.563897	0.603741	0.000036
 355	3.5223e+01	3.5191	-3.373815	0.000442	4.424148	0.749471	0.000044
 356	3.5322e+01	3.5281	-3.331858	0.000422	4.219327	0.714773	0.000042
 357	3.5422e+01	3.5390	-3.293976	0.000381	3.809683	0.645378	0.000038
 358	3.5522e+01	3.5476	-3.255685	0.000385	3.850648	0.652317	0.000038
 359	3.5621e+01	3.5566	-3.216580	0.000393	3.932576	0.666196	0.000039
 360	3.5721e+01	3.5666	-3.179512	0.000373	3.727755	0.631499	0.000037
 361	3.5820e+01	3.5748	-3.142851	0.000369	3.686790	0.624559	0.000037
 362	3.5919e+01	3.5879	-3.102932	0.000401	4.014505	0.680076	0.000040
 363	3.6019e+01	3.5979	-3.066678	0.000365	3.645826	0.617620	0.000036
 364	3.6118e+01	3.6080	-3.029203	0.000377	3.768719	0.638438	0.000038
 365	3.6218e+01	3.6179	-2.987654	0.000418	4.178362	0.707834	0.000042
 366	3.6318e+01	3.6275	-2.952622	0.000352	3.522933	0.596801	0.000035
 367	3.6417e+01	3.6385	-2.914332	0.000385	3.850648	0.652317	0.000038
 368	3.6517e+01	3.6459	-2.874005	0.000406	4.055469	0.687015	0.000041
 369	3.6616e+01	3.6591	-2.832456	0.000418	4.178362	0.707834	0.000042
 370	3.6715e+01	3.6679	-2.793352	0.000393	3.932576	0.666196	0.000039
 371	3.6815e+01	3.6761	-2.754654	0.000389	3.891612	0.659257	0.000039
 372	3.6914e+01	3.6886	-2.717178	0.000377	3.768719	0.638438	0.000038
 373	3.7014e+01	3.6999	-2.678888	0.000385	3.850648	0.652317	0.000038
 374	3.7114e+01	3.7103	-2.640191	0.000389	3.891612	0.659257	0.000039
 375	3.7213e+01	3.7167	-2.603123	0.000373	3.727755	0.631499	0.000037
 376	3.7313e+01	3.7265	-2.561166	0.000422	4.219327	0.714773	0.000042
 377	3.7412e+01	3.7379	-2.535504	0.000258	2.580753	0.437191	0.000026
 378	3.7511e+01	3.7475	-2.495991	0.000397	3.973541	0.673136	0.000040
 379	3.7611e+01	3.7581	-2.457294	0.000389	3.891612	0.659257	0.000039
 380	3.7711e+01	3.7668	-2.424299	0.000332	3.318111	0.562103	0.000033
 381	3.7810e+01	3.7744	-2.387638	0.000369	3.686790	0.624559	0.000037
 382	3.7910e+01	3.7857	-2.353829	0.000340	3.400040	0.575982	0.000034
 383	3.8009e+01	3.7959	-2.313095	0.000410	4.096434	0.693955	0.000041
 384	3.8108e+01	3.8065	-2.276841	0.000365	3.645826	0.617620	0.000036
 385	3.8208e+01	3.8161	-2.237329	0.000397	3.973541	0.673136	0.000040
 386	3.8307e+01	3.8268	-2.198631	0.000389	3.891612	0.659257	0.000039
 387	3.8407e+01	3.8364	-2.160749	0.000381	3.809683	0.645378	0.000038
 388	3.8507e+01	3.8464	-2.122458	0.000385	3.850648	0.652317	0.000038
 389	3.8606e+01	3.8576	-2.084983	0.000377	3.768719	0.638438	0.000038
 390	3.8706e+01	3.8660	-2.047507	0.000377	3.768719	0.638438	0.000038
 391	3.8805e+01	3.8787	-2.010847	0.000369	3.686790	0.624559	0.000037
 392	3.8904e+01	3.8847	-1.971334	0.000397	3.973541	0.673136	0.000040
 393	3.9004e+01	3.8946	-1.936710	0.000348	3.481969	0.589861	0.000035
 394	3.9103e+01	3.9063	-1.898013	0.000389	3.891612	0.659257	0.000039
 395	3.9203e+01	3.9146	-1.859315	0.000389	3.891612	0.659257	0.000039
 396	3.9303e+01	3.9259	-1.816137	0.000434	4.342220	0.735592	0.000043
 397	3.9402e+01	3.9351	-1.774180	0.000422	4.219327	0.714773	0.000042
 398	3.9502e+01	3.9471	-1.737520	0.000369	3.686790	0.624559	0.000037
 399	3.9601e+01	3.9558	-1.698822	0.000389	3.891612	0.659257	0.000039
 400	3.9700e+01	3.9661	-1.656458	0.000426	4.260291	0.721713	0.000043
 401	3.9800e+01	3.9748	-1.616539	0.000401	4.014505	0.680076	0.000040
 402	3.9900e+01	3.9833	-1.577434	0.000393	3.932576	0.666196	0.000039
 403	3.9999e+01	3.9968	-1.541181	0.000365	3.645826	0.617620	0.000036
 404	4.0099e+01	4.0080	-1.506964	0.000344	3.441004	0.582922	0.000034
 405	4.0198e+01	4.0186	-1.467452	0.000397	3.973541	0.673136	0.000040
 406	4.0297e+01	4.0250	-1.433235	0.000344	3.441004	0.582922	0.000034
 407	4.0397e+01	4.0348	-1.391686	0.000418	4.178362	0.707834	0.000042
 408	4.0496e+01	4.0438	-1.360320	0.000315	3.154254	0.534345	0.000032
 409	4.0596e+01	4.0553	-1.317957	0.000426	4.260291	0.721713	0.000043
 410	4.0696e+01	4.0658	-1.281703	0.000365	3.645826	0.617620	0.000036
 411	4.0795e+01	4.0719	-1.245857	0.000360	3.604862	0.610680	0.000036
 412	4.0895e+01	4.0874	-1.209604	0.000365	3.645826	0.617620	0.000036
 413	4.0994e+01	4.0981	-1.171721	0.000381	3.809683	0.645378	0.000038
 414	4.1093e+01	4.1060	-1.129765	0.000422	4.219327	0.714773	0.000042
 415	4.1193e+01	4.1152	-1.097585	0.000324	3.236183	0.548224	0.000032
 416	4.1292e+01	4.1254	-1.058480	0.000393	3.932576	0.666196	0.000039
 417	4.1392e+01	4.1327	-1.020597	0.000381	3.809683	0.645378	0.000038
 418	4.1492e+01	4.1456	-0.982307	0.000385	3.850648	0.652317	0.000038
 419	4.1591e+01	4.1563	-0.946868	0.000356	3.563897	0.603741	0.000036
 420	4.1691e+01	4.1657	-0.908578	0.000385	3.850648	0.652317	0.000038
 421	4.1790e+01	4.1750	-0.873546	0.000352	3.522933	0.596801	0.000035
 422	4.1889e+01	4.1817	-0.840551	0.000332	3.318111	0.562103	0.000033
 423	4.1989e+01	4.1979	-0.800224	0.000406	4.055469	0.687015	0.000041
 424	4.2089e+01	4.2062	-0.759898	0.000406	4.055469	0.687015	0.000041
 425	4.2188e+01	4.2123	-0.723644	0.000365	3.645826	0.617620	0.000036
 426	4.2288e+01	4.2237	-0.691464	0.000324	3.236183	0.548224	0.000032
 427	4.2387e+01	4.2355	-0.649508	0.000422	4.219327	0.714773	0.000042
 428	4.2486e+01	4.2457	-0.614476	0.000352	3.522933	0.596801	0.000035
 429	4.2586e+01	4.2559	-0.576186	0.000385	3.850648	0.652317	0.000038
 430	4.2685e+01	4.2669	-0.543191	0.000332	3.318111	0.562103	0.000033
 431	4.2785e+01	4.2727	-0.505308	0.000381	3.809683	0.645378	0.000038
 432	4.2885e+01	4.2858	-0.469870	0.000356	3.563897	0.603741	0.000036
 433	4.2984e+01	4.2928	-0.429543	0.000406	4.055469	0.687015	0.000041
 434	4.3084e+01	4.3058	-0.390438	0.000393	3.932576	0.666196	0.000039
 435	4.3183e+01	4.3150	-0.354999	0.000356	3.563897	0.603741	0.000036
 436	4.3282e+01	4.3230	-0.318746	0.000365	3.645826	0.617620	0.000036
 437	4.3382e+01	4.3335	-0.282899	0.000360	3.604862	0.610680	0.000036
 438	4.3481e+01	4.3441	-0.246239	0.000369	3.686790	0.624559	0.000037
 439	4.3581e+01	4.3539	-0.207948	0.000385	3.850648	0.652317	0.000038
 440	4.3681e+01	4.3637	-0.173324	0.000348	3.481969	0.589861	0.000035
 441	4.3780e+01	4.3766	-0.138700	0.000348	3.481969	0.589861	0.000035
 442	4.3880e+01	4.3862	-0.101225	0.000377	3.768719	0.638438	0.000038
 443	4.3979e+01	4.3919	-0.068637	0.000328	3.277147	0.555164	0.000033
 444	4.4078e+01	4.4019	-0.027903	0.000410	4.096434	0.693955	0.000041
 445	4.4178e+01	4.4128	0.007536	0.000356	3.563897	0.603741	0.000036
 446	4.4278e+01	4.4247	0.041753	0.000344	3.441004	0.582922	0.000034
 447	4.4377e+01	4.4341	0.077191	0.000356	3.563897	0.603741	0.000036
 448	4.4477e+01	4.4405	0.113852	0.000369	3.686790	0.624559	0.000037
 449	4.4576e+01	4.4521	0.152550	0.000389	3.891612	0.659257	0.000039
 450	4.4675e+01	4.4662	0.187989	0.000356	3.563897	0.603741	0.000036
 451	4.4775e+01	4.4733	0.219354	0.000315	3.154254	0.534345	0.000032
 452	4.4874e+01	4.4808	0.259681	0.000406	4.055469	0.687015	0.000041
 453	4.4974e+01	4.4930	0.295934	0.000365	3.645826	0.617620	0.000036
 454	4.5074e+01	4.5021	0.329744	0.000340	3.400040	0.575982	0.000034
 455	4.5173e+01	4.5157	0.364368	0.000348	3.481969	0.589861	0.000035
 456	4.5273e+01	4.5216	0.403473	0.000393	3.932576	0.666196	0.000039
 457	4.5372e+01	4.5316	0.436060	0.000328	3.277147	0.555164	0.000033
 458	4.5471e+01	4.5403	0.473128	0.000373	3.727755	0.631499	0.000037
 459	4.5571e+01	4.5559	0.512233	0.000393	3.932576	0.666196	0.000039
 460	4.5670e+01	4.5655	0.546857	0.000348	3.481969	0.589861	0.000035
 461	4.5770e+01	4.5733	0.586370	0.000397	3.973541	0.673136	0.000040
 462	4.5870e+01	4.5850	0.623030	0.000369	3.686790	0.624559	0.000037
 463	4.5969e+01	4.5927	0.662135	0.000393	3.932576	0.666196	0.000039
 464	4.6069e+01	4.6050	0.699203	0.000373	3.727755	0.631499	0.000037
 465	4.6168e+01	4.6128	0.734235	0.000352	3.522933	0.596801	0.000035
 466	4.6267e+01	4.6250	0.771710	0.000377	3.768719	0.638438	0.000038
 467	4.6367e+01	4.6328	0.808371	0.000369	3.686790	0.624559	0.000037
 468	4.6467e+01	4.6411	0.840551	0.000324	3.236183	0.548224	0.000032
 469	4.6566e+01	4.6543	0.874768	0.000344	3.441004	0.582922	0.000034
 470	4.6666e+01	4.6624	0.912651	0.000381	3.809683	0.645378	0.000038
 471	4.6765e+01	4.6737	0.944831	0.000324	3.236183	0.548224	0.000032
 472	4.6864e+01	4.6857	0.982307	0.000377	3.768719	0.638438	0.000038
 473	4.6964e+01	4.6928	1.018560	0.000365	3.645826	0.617620	0.000036
 474	4.7063e+01	4.7017	1.054814	0.000365	3.645826	0.617620	0.000036
 475	4.7163e+01	4.7137	1.091067	0.000365	3.645826	0.617620	0.000036
 476	4.7263e+01	4.7225	1.124876	0.000340	3.400040	0.575982	0.000034
 477	4.7362e+01	4.7317	1.158686	0.000340	3.400040	0.575982	0.000034
 478	4.7462e+01	4.7433	1.196161	0.000377	3.768719	0.638438	0.000038
 479	4.7561e+01	4.7517	1.230786	0.000348	3.481969	0.589861	0.000035
 480	4.7660e+01	4.7623	1.262151	0.000315	3.154254	0.534345	0.000032
 481	4.7760e+01	4.7716	1.293924	0.000320	3.195218	0.541285	0.000032
 482	4.7859e+01	4.7816	1.327326	0.000336	3.359076	0.569043	0.000034
 483	4.7959e+01	4.7895	1.362357	0.000352	3.522933	0.596801	0.000035
 484	4.8059e+01	4.8000	1.395352	0.000332	3.318111	0.562103	0.000033
 485	4.8158e+01	4.8122	1.426717	0.000315	3.154254	0.534345	0.000032
 486	4.8258e+01	4.8200	1.467044	0.000406	4.055469	0.687015	0.000041
 487	4.8357e+01	4.8291	1.498410	0.000315	3.154254	0.534345	0.000032
 488	4.8456e+01	4.8421	1.533034	0.000348	3.481969	0.589861	0.000035
 489	4.8556e+01	4.8534	1.567658	0.000348	3.481969	0.589861	0.000035
 490	4.8656e+01	4.8626	1.604319	0.000369	3.686790	0.624559	0.000037
 491	4.8755e+01	4.8717	1.634055	0.000299	2.990396	0.506587	0.000030
 492	4.8855e+01	4.8815	1.669901	0.000360	3.604862	0.610680	0.000036
 493	4.8954e+01	4.8882	1.706154	0.000365	3.645826	0.617620	0.000036
 494	4.9053e+01	4.9012	1.739556	0.000336	3.359076	0.569043	0.000034
 495	4.9153e+01	4.9117	1.774588	0.000352	3.522933	0.596801	0.000035
 496	4.9252e+01	4.9220	1.810027	0.000356	3.563897	0.603741	0.000036
 497	4.9352e+01	4.9268	1.843429	0.000336	3.359076	0.569043	0.000034
 498	4.9452e+01	4.9386	1.878868	0.000356	3.563897	0.603741	0.000036
 499	4.9551e+01	4.9502	1.911862	0.000332	3.318111	0.562103	0.000033
 500	4.9651e+01	4.9584	1.950560	0.000389	3.891612	0.659257	0.000039
 501	4.9750e+01	4.9712	1.981110	0.000307	3.072325	0.520466	0.000031
 502	4.9849e+01	4.9809	2.015327	0.000344	3.441004	0.582922	0.000034
 503	4.9949e+01	4.9934	2.051581	0.000365	3.645826	0.617620	0.000036
 504	5.0048e+01	5.0005	2.083353	0.000320	3.195218	0.541285	0.000032
 505	5.0148e+01	5.0118	2.116348	0.000332	3.318111	0.562103	0.000033
 506	5.0248e+01	5.0213	2.152194	0.000360	3.604862	0.610680	0.000036
 507	5.0347e+01	5.0291	2.186818	0.000348	3.481969	0.589861	0.000035
 508	5.0447e+01	5.0397	2.222665	0.000360	3.604862	0.610680	0.000036
 509	5.0546e+01	5.0500	2.256881	0.000344	3.441004	0.582922	0.000034
 510	5.0645e+01	5.0630	2.286617	0.000299	2.990396	0.506587	0.000030
 511	5.0745e+01	5.0707	2.322871	0.000365	3.645826	0.617620	0.000036
 512	5.0844e+01	5.0790	2.354236	0.000315	3.154254	0.534345	0.000032
 513	5.0944e+01	5.0907	2.390490	0.000365	3.645826	0.617620	0.000036
 514	5.1044e+01	5.0997	2.423485	0.000332	3.318111	0.562103	0.000033
 515	5.1143e+01	5.1107	2.456479	0.000332	3.318111	0.562103	0.000033
 516	5.1242e+01	5.1217	2.487845	0.000315	3.154254	0.534345	0.000032
 517	5.1342e+01	5.1301	2.524098	0.000365	3.645826	0.617620	0.000036
 518	5.1441e+01	5.1396	2.555463	0.000315	3.154254	0.534345	0.000032
 519	5.1541e+01	5.1488	2.592124	0.000369	3.686790	0.624559	0.000037
 520	5.1641e+01	5.1585	2.626341	0.000344	3.441004	0.582922	0.000034
 521	5.1740e+01	5.1705	2.660965	0.000348	3.481969	0.589861	0.000035
 522	5.1840e+01	5.1789	2.698848	0.000381	3.809683	0.645378	0.000038
 523	5.1939e+01	5.1891	2.729806	0.000311	3.113289	0.527406	0.000031
 524	5.2038e+01	5.1985	2.767689	0.000381	3.809683	0.645378	0.000038
 525	5.2138e+01	5.2090	2.801498	0.000340	3.400040	0.575982	0.000034
 526	5.2237e+01	5.2180	2.837345	0.000360	3.604862	0.610680	0.000036
 527	5.2337e+01	5.2271	2.869932	0.000328	3.277147	0.555164	0.000033
 528	5.2437e+01	5.2410	2.900890	0.000311	3.113289	0.527406	0.000031
 529	5.2536e+01	5.2511	2.933885	0.000332	3.318111	0.562103	0.000033
 530	5.2636e+01	5.2589	2.969324	0.000356	3.563897	0.603741	0.000036
 531	5.2735e+01	5.2704	3.002318	0.000332	3.318111	0.562103	0.000033
 532	5.2834e+01	5.2799	3.034091	0.000320	3.195218	0.541285	0.000032
 533	5.2934e+01	5.2889	3.068308	0.000344	3.441004	0.582922	0.000034
 534	5.3033e+01	5.2999	3.104154	0.000360	3.604862	0.610680	0.000036
 535	5.3133e+01	5.3115	3.135112	0.000311	3.113289	0.527406	0.000031
 536	5.3233e+01	5.3186	3.171773	0.000369	3.686790	0.624559	0.000037
 537	5.3332e+01	5.3299	3.207619	0.000360	3.604862	0.610680	0.000036
 538	5.3431e+01	5.3367	3.239392	0.000320	3.195218	0.541285	0.000032
 539	5.3531e+01	5.3441	3.273201	0.000340	3.400040	0.575982	0.000034
 540	5.3630e+01	5.3580	3.306603	0.000336	3.359076	0.569043	0.000034
 541	5.3730e+01	5.3699	3.342857	0.000365	3.645826	0.617620	0.000036
 542	5.3830e+01	5.3803	3.372185	0.000295	2.949432	0.499647	0.000029
 543	5.3929e+01	5.3896	3.404365	0.000324	3.236183	0.548224	0.000032
 544	5.4029e+01	5.3982	3.438582	0.000344	3.441004	0.582922	0.000034
 545	5.4128e+01	5.4074	3.468318	0.000299	2.990396	0.506587	0.000030
 546	5.4227e+01	5.4209	3.499276	0.000311	3.113289	0.527406	0.000031
 547	5.4327e+01	5.4293	3.527383	0.000283	2.826539	0.478829	0.000028
 548	5.4426e+01	5.4399	3.562414	0.000352	3.522933	0.596801	0.000035
 549	5.4526e+01	5.4468	3.592150	0.000299	2.990396	0.506587	0.000030
 550	5.4626e+01	5.4575	3.625552	0.000336	3.359076	0.569043	0.000034
 551	5.4725e+01	5.4672	3.659362	0.000340	3.400040	0.575982	0.000034
 552	5.4825e+01	5.4765	3.698059	0.000389	3.891612	0.659257	0.000039
 553	5.4924e+01	5.4890	3.729832	0.000320	3.195218	0.541285	0.000032
 554	5.5023e+01	5.5000	3.766493	0.000369	3.686790	0.624559	0.000037
 555	5.5123e+01	5.5053	3.795414	0.000291	2.908468	0.492708	0.000029
 556	5.5222e+01	5.5202	3.832482	0.000373	3.727755	0.631499	0.000037
 557	5.5322e+01	5.5299	3.866292	0.000340	3.400040	0.575982	0.000034
 558	5.5422e+01	5.5386	3.895213	0.000291	2.908468	0.492708	0.000029
 559	5.5521e+01	5.5466	3.927393	0.000324	3.236183	0.548224	0.000032
 560	5.5620e+01	5.5576	3.960795	0.000336	3.359076	0.569043	0.000034
 561	5.5720e+01	5.5663	3.992975	0.000324	3.236183	0.548224	0.000032
 562	5.5819e+01	5.5787	4.026377	0.000336	3.359076	0.569043	0.000034
 563	5.5919e+01	5.5877	4.062224	0.000360	3.604862	0.610680	0.000036
 564	5.6019e+01	5.5979	4.099699	0.000377	3.768719	0.638438	0.000038
 565	5.6118e+01	5.6063	4.134323	0.000348	3.481969	0.589861	0.000035
 566	5.6218e+01	5.6175	4.168947	0.000348	3.481969	0.589861	0.000035
 567	5.6317e+01	5.6289	4.206016	0.000373	3.727755	0.631499	0.000037
 568	5.6416e+01	5.6393	4.237788	0.000320	3.195218	0.541285	0.000032
 569	5.6516e+01	5.6475	4.279337	0.000418	4.178362	0.707834	0.000042
 570	5.6615e+01	5.6563	4.308666	0.000295	2.949432	0.499647	0.000029
 571	5.6715e+01	5.6658	4.340031	0.000315	3.154254	0.534345	0.000032
 572	5.6815e+01	5.6779	4.377099	0.000373	3.727755	0.631499	0.000037
 573	5.6914e+01	5.6878	4.404391	0.000274	2.744610	0.464950	0.000027
 574	5.7014e+01	5.6979	4.443089	0.000389	3.891612	0.659257	0.000039
 575	5.7113e+01	5.7050	4.472418	0.000295	2.949432	0.499647	0.000029
 576	5.7212e+01	5.7183	4.506634	0.000344	3.441004	0.582922	0.000034
 577	5.7312e+01	5.7259	4.539222	0.000328	3.277147	0.555164	0.000033
 578	5.7411e+01	5.7363	4.570587	0.000315	3.154254	0.534345	0.000032
 579	5.7511e+01	5.7476	4.604804	0.000344	3.441004	0.582922	0.000034
 580	5.7611e+01	5.7556	4.635355	0.000307	3.072325	0.520466	0.000031
 581	5.7710e+01	5.7693	4.667942	0.000328	3.277147	0.555164	0.000033
 582	5.7809e+01	5.7764	4.700937	0.000332	3.318111	0.562103	0.000033
 583	5.7909e+01	5.7869	4.733117	0.000324	3.236183	0.548224	0.000032
 584	5.8008e+01	5.7961	4.768556	0.000356	3.563897	0.603741	0.000036
 585	5.8108e+01	5.8062	4.799106	0.000307	3.072325	0.520466	0.000031
 586	5.8208e+01	5.8169	4.835767	0.000369	3.686790	0.624559	0.000037
 587	5.8307e+01	5.8270	4.863466	0.000279	2.785575	0.471889	0.000028
 588	5.8407e+01	5.8367	4.897683	0.000344	3.441004	0.582922	0.000034
 589	5.8506e+01	5.8480	4.932307	0.000348	3.481969	0.589861	0.000035
 590	5.8605e+01	5.8567	4.963265	0.000311	3.113289	0.527406	0.000031
 591	5.8705e+01	5.8657	4.995445	0.000324	3.236183	0.548224	0.000032
 592	5.8804e+01	5.8755	5.030069	0.000348	3.481969	0.589861	0.000035
 593	5.8904e+01	5.8871	5.060620	0.000307	3.072325	0.520466	0.000031
 594	5.9004e+01	5.8997	5.091986	0.000315	3.154254	0.534345	0.000032
 595	5.9103e+01	5.9046	5.124166	0.000324	3.236183	0.548224	0.000032
 596	5.9203e+01	5.9162	5.156753	0.000328	3.277147	0.555164	0.000033
 597	5.9302e+01	5.9274	5.188933	0.000324	3.236183	0.548224	0.000032
 598	5.9401e+01	5.9337	5.225594	0.000369	3.686790	0.624559	0.000037
 599	5.9501e+01	5.9459	5.259403	0.000340	3.400040	0.575982	0.000034
 600	5.9600e+01	5.9557	5.289954	0.000307	3.072325	0.520466	0.000031
 601	5.9700e+01	5.9643	5.324171	0.000344	3.441004	0.582922	0.000034
 602	5.9800e+01	5.9747	5.360832	0.000369	3.686790	0.624559	0.000037
 603	5.9899e+01	5.9869	5.391790	0.000311	3.113289	0.527406	0.000031
 604	5.9998e+01	5.9972	5.422748	0.000311	3.113289	0.527406	0.000031
 605	6.0098e+01	6.0081	5.452484	0.000299	2.990396	0.506587	0.000030
 606	6.0197e+01	6.0145	5.485478	0.000332	3.318111	0.562103	0.000033
 607	6.0297e+01	6.0268	5.517251	0.000320	3.195218	0.541285	0.000032
 608	6.0397e+01	6.0336	5.548209	0.000311	3.113289	0.527406	0.000031
 609	6.0496e+01	6.0439	5.578760	0.000307	3.072325	0.520466	0.000031
 610	6.0596e+01	6.0564	5.610125	0.000315	3.154254	0.534345	0.000032
 611	6.0695e+01	6.0656	5.644749	0.000348	3.481969	0.589861	0.000035
 612	6.0794e+01	6.0754	5.675300	0.000307	3.072325	0.520466	0.000031
 613	6.0894e+01	6.0836	5.709110	0.000340	3.400040	0.575982	0.000034
 614	6.0993e+01	6.0934	5.742104	0.000332	3.318111	0.562103	0.000033
 615	6.1093e+01	6.1028	5.771840	0.000299	2.990396	0.506587	0.000030
 616	6.1193e+01	6.1138	5.806464	0.000348	3.481969	0.589861	0.000035
 617	6.1292e+01	6.1242	5.837015	0.000307	3.072325	0.520466	0.000031
 618	6.1392e+01	6.1356	5.865529	0.000287	2.867503	0.485768	0.000029
 619	6.1491e+01	6.1416	5.903005	0.000377	3.768719	0.638438	0.000038
 620	6.1590e+01	6.1552	5.935999	0.000332	3.318111	0.562103	0.000033
 621	6.1690e+01	6.1646	5.964513	0.000287	2.867503	0.485768	0.000029
 622	6.1789e+01	6.1752	5.997101	0.000328	3.277147	0.555164	0.000033
 623	6.1889e+01	6.1855	6.029281	0.000324	3.236183	0.548224	0.000032
 624	6.1989e+01	6.1959	6.060239	0.000311	3.113289	0.527406	0.000031
 625	6.2088e+01	6.2032	6.095270	0.000352	3.522933	0.596801	0.000035
 626	6.2188e+01	6.2143	6.126228	0.000311	3.113289	0.527406	0.000031
 627	6.2287e+01	6.2261	6.156372	0.000303	3.031361	0.513526	0.000030
 628	6.2386e+01	6.2331	6.192625	0.000365	3.645826	0.617620	0.000036
 629	6.2486e+01	6.2478	6.223991	0.000315	3.154254	0.534345	0.000032
 630	6.2586e+01	6.2536	6.259429	0.000356	3.563897	0.603741	0.000036
 631	6.2685e+01	6.2640	6.296090	0.000369	3.686790	0.624559	0.000037
 632	6.2785e+01	6.2754	6.326641	0.000307	3.072325	0.520466	0.000031
 633	6.2884e+01	6.2871	6.357192	0.000307	3.072325	0.520466	0.000031
 634	6.2983e+01	6.2945	6.390186	0.000332	3.318111	0.562103	0.000033
 635	6.3083e+01	6.3030	6.418700	0.000287	2.867503	0.485768	0.000029
 636	6.3182e+01	6.3146	6.447622	0.000291	2.908468	0.492708	0.000029
 637	6.3282e+01	6.3262	6.479802	0.000324	3.236183	0.548224	0.000032
 638	6.3382e+01	6.3360	6.512389	0.000328	3.277147	0.555164	0.000033
 639	6.3481e+01	6.3442	6.541718	0.000295	2.949432	0.499647	0.000029
 640	6.3581e+01	6.3548	6.573083	0.000315	3.154254	0.534345	0.000032
 641	6.3680e+01	6.3661	6.610151	0.000373	3.727755	0.631499	0.000037
 642	6.3779e+01	6.3756	6.634999	0.000250	2.498824	0.423312	0.000025
 643	6.3879e+01	6.3856	6.672882	0.000381	3.809683	0.645378	0.000038
 644	6.3978e+01	6.3917	6.706691	0.000340	3.400040	0.575982	0.000034
 645	6.4078e+01	6.4031	6.735613	0.000291	2.908468	0.492708	0.000029
 646	6.4177e+01	6.4110	6.764127	0.000287	2.867503	0.485768	0.000029
 647	6.4277e+01	6.4211	6.794677	0.000307	3.072325	0.520466	0.000031
 648	6.4376e+01	6.4332	6.823191	0.000287	2.867503	0.485768	0.000029
 649	6.4476e+01	6.4448	6.854557	0.000315	3.154254	0.534345	0.000032
 650	6.4576e+01	6.4532	6.878183	0.000238	2.375931	0.402494	0.000024
 651	6.4675e+01	6.4642	6.913214	0.000352	3.522933	0.596801	0.000035
 652	6.4775e+01	6.4748	6.941728	0.000287	2.867503	0.485768	0.000029
 653	6.4874e+01	6.4849	6.969835	0.000283	2.826539	0.478829	0.000028
 654	6.4974e+01	6.4929	7.004866	0.000352	3.522933	0.596801	0.000035
 655	6.5073e+01	6.5037	7.035010	0.000303	3.031361	0.513526	0.000030
 656	6.5172e+01	6.5133	7.063931	0.000291	2.908468	0.492708	0.000029
 657	6.5272e+01	6.5249	7.096518	0.000328	3.277147	0.555164	0.000033
 658	6.5371e+01	6.5332	7.125847	0.000295	2.949432	0.499647	0.000029
 659	6.5471e+01	6.5434	7.159656	0.000340	3.400040	0.575982	0.000034
 660	6.5570e+01	6.5517	7.186134	0.000266	2.662682	0.451071	0.000027
 661	6.5670e+01	6.5612	7.219943	0.000340	3.400040	0.575982	0.000034
 662	6.5769e+01	6.5734	7.251308	0.000315	3.154254	0.534345	0.000032
 663	6.5869e+01	6.5845	7.279822	0.000287	2.867503	0.485768	0.000029
 664	6.5969e+01	6.5919	7.309966	0.000303	3.031361	0.513526	0.000030
 665	6.6068e+01	6.6047	7.340924	0.000311	3.113289	0.527406	0.000031
 666	6.6168e+01	6.6152	7.375141	0.000344	3.441004	0.582922	0.000034
 667	6.6267e+01	6.6232	7.404877	0.000299	2.990396	0.506587	0.000030
 668	6.6367e+01	6.6309	7.433391	0.000287	2.867503	0.485768	0.000029
 669	6.6466e+01	6.6451	7.466793	0.000336	3.359076	0.569043	0.000034
 670	6.6566e+01	6.6508	7.496936	0.000303	3.031361	0.513526	0.000030
 671	6.6665e+01	6.6599	7.529116	0.000324	3.236183	0.548224	0.000032
 672	6.6764e+01	6.6737	7.557223	0.000283	2.826539	0.478829	0.000028
 673	6.6864e+01	6.6805	7.586144	0.000291	2.908468	0.492708	0.000029
 674	6.6963e+01	6.6918	7.620361	0.000344	3.441004	0.582922	0.000034
 675	6.7063e+01	6.7025	7.648875	0.000287	2.867503	0.485768	0.000029
 676	6.7162e+01	6.7107	7.679018	0.000303	3.031361	0.513526	0.000030
 677	6.7262e+01	6.7223	7.709161	0.000303	3.031361	0.513526	0.000030
 678	6.7362e+01	6.7302	7.739305	0.000303	3.031361	0.513526	0.000030
 679	6.7461e+01	6.7452	7.773929	0.000348	3.481969	0.589861	0.000035
 680	6.7561e+01	6.7554	7.804072	0.000303	3.031361	0.513526	0.000030
 681	6.7660e+01	6.7625	7.834216	0.000303	3.031361	0.513526	0.000030
 682	6.7760e+01	6.7724	7.863952	0.000299	2.990396	0.506587	0.000030
 683	6.7859e+01	6.7832	7.894910	0.000311	3.113289	0.527406	0.000031
 684	6.7959e+01	6.7953	7.921387	0.000266	2.662682	0.451071	0.000027
 685	6.8058e+01	6.8005	7.953974	0.000328	3.277147	0.555164	0.000033
 686	6.8157e+01	6.8083	7.983710	0.000299	2.990396	0.506587	0.000030
 687	6.8257e+01	6.8192	8.013446	0.000299	2.990396	0.506587	0.000030
 688	6.8356e+01	6.8324	8.043590	0.000303	3.031361	0.513526	0.000030
 689	6.8456e+01	6.8433	8.075770	0.000324	3.236183	0.548224	0.000032
 690	6.8555e+01	6.8501	8.104284	0.000287	2.867503	0.485768	0.000029
 691	6.8655e+01	6.8638	8.138093	0.000340	3.400040	0.575982	0.000034
 692	6.8754e+01	6.8722	8.169051	0.000311	3.113289	0.527406	0.000031
 693	6.8854e+01	6.8800	8.197973	0.000291	2.908468	0.492708	0.000029
 694	6.8954e+01	6.8936	8.231782	0.000340	3.400040	0.575982	0.000034
 695	6.9053e+01	6.9002	8.261925	0.000303	3.031361	0.513526	0.000030
 696	6.9153e+01	6.9117	8.292883	0.000311	3.113289	0.527406	0.000031
 697	6.9252e+01	6.9215	8.319768	0.000270	2.703646	0.458010	0.000027
 698	6.9352e+01	6.9319	8.350319	0.000307	3.072325	0.520466	0.000031
 699	6.9451e+01	6.9415	8.379647	0.000295	2.949432	0.499647	0.000029
 700	6.9550e+01	6.9482	8.411420	0.000320	3.195218	0.541285	0.000032
 701	6.9650e+01	6.9599	8.443193	0.000320	3.195218	0.541285	0.000032
 702	6.9749e+01	6.9691	8.473743	0.000307	3.072325	0.520466	0.000031
 703	6.9849e+01	6.9822	8.501443	0.000279	2.785575	0.471889	0.000028
 704	6.9948e+01	6.9901	8.532401	0.000311	3.113289	0.527406	0.000031
 705	7.0048e+01	6.9999	8.564581	0.000324	3.236183	0.548224	0.000032
 706	7.0147e+01	7.0070	8.593502	0.000291	2.908468	0.492708	0.000029
 707	7.0247e+01	7.0200	8.627719	0.000344	3.441004	0.582922	0.000034
 708	7.0347e+01	7.0280	8.657455	0.000299	2.990396	0.506587	0.000030
 709	7.0446e+01	7.0400	8.689635	0.000324	3.236183	0.548224	0.000032
 710	7.0546e+01	7.0486	8.717334	0.000279	2.785575	0.471889	0.000028
 711	7.0645e+01	7.0580	8.745848	0.000287	2.867503	0.485768	0.000029
 712	7.0745e+01	7.0701	8.774362	0.000287	2.867503	0.485768	0.000029
 713	7.0844e+01	7.0792	8.803691	0.000295	2.949432	0.499647	0.000029
 714	7.0944e+01	7.0889	8.830983	0.000274	2.744610	0.464950	0.000027
 715	7.1043e+01	7.1004	8.855831	0.000250	2.498824	0.423312	0.000025
 716	7.1142e+01	7.1114	8.884752	0.000291	2.908468	0.492708	0.000029
 717	7.1242e+01	7.1180	8.918154	0.000336	3.359076	0.569043	0.000034
 718	7.1341e+01	7.1262	8.948297	0.000303	3.031361	0.513526	0.000030
 719	7.1441e+01	7.1390	8.979663	0.000315	3.154254	0.534345	0.000032
 720	7.1540e+01	7.1497	9.010214	0.000307	3.072325	0.520466	0.000031
 721	7.1640e+01	7.1610	9.038320	0.000283	2.826539	0.478829	0.000028
 722	7.1740e+01	7.1685	9.072537	0.000344	3.441004	0.582922	0.000034
 723	7.1839e+01	7.1815	9.102680	0.000303	3.031361	0.513526	0.000030
 724	7.1939e+01	7.1896	9.132416	0.000299	2.990396	0.506587	0.000030
 725	7.2038e+01	7.1981	9.160523	0.000283	2.826539	0.478829	0.000028
 726	7.2138e+01	7.2088	9.193925	0.000336	3.359076	0.569043	0.000034
 727	7.2237e+01	7.2169	9.222032	0.000283	2.826539	0.478829	0.000028
 728	7.2337e+01	7.2282	9.248509	0.000266	2.662682	0.451071	0.000027
 729	7.2436e+01	7.2395	9.281504	0.000332	3.318111	0.562103	0.000033
 730	7.2535e+01	7.2478	9.312462	0.000311	3.113289	0.527406	0.000031
 731	7.2635e+01	7.2585	9.347086	0.000348	3.481969	0.589861	0.000035
 732	7.2734e+01	7.2698	9.380488	0.000336	3.359076	0.569043	0.000034
 733	7.2834e+01	7.2783	9.410224	0.000299	2.990396	0.506587	0.000030
 734	7.2933e+01	7.2892	9.442811	0.000328	3.277147	0.555164	0.000033
 735	7.3033e+01	7.2998	9.477843	0.000352	3.522933	0.596801	0.000035
 736	7.3132e+01	7.3089	9.508801	0.000311	3.113289	0.527406	0.000031
 737	7.3232e+01	7.3197	9.539759	0.000311	3.113289	0.527406	0.000031
 738	7.3332e+01	7.3266	9.570717	0.000311	3.113289	0.527406	0.000031
 739	7.3431e+01	7.3425	9.602490	0.000320	3.195218	0.541285	0.000032
 740	7.3531e+01	7.3476	9.635077	0.000328	3.277147	0.555164	0.000033
 741	7.3630e+01	7.3565	9.663998	0.000291	2.908468	0.492708	0.000029
 742	7.3730e+01	7.3675	9.689661	0.000258	2.580753	0.437191	0.000026
 743	7.3829e+01	7.3801	9.723063	0.000336	3.359076	0.569043	0.000034
 744	7.3928e+01	7.3879	9.753614	0.000307	3.072325	0.520466	0.000031
 745	7.4028e+01	7.3977	9.783757	0.000303	3.031361	0.513526	0.000030
 746	7.4127e+01	7.4055	9.814715	0.000311	3.113289	0.527406	0.000031
 747	7.4227e+01	7.4183	9.848117	0.000336	3.359076	0.569043	0.000034
 748	7.4326e+01	7.4308	9.875002	0.000270	2.703646	0.458010	0.000027
 749	7.4426e+01	7.4390	9.904738	0.000299	2.990396	0.506587	0.000030
 750	7.4525e+01	7.4451	9.932844	0.000283	2.826539	0.478829	0.000028
 751	7.4625e+01	7.4577	9.965025	0.000324	3.236183	0.548224	0.000032
 752	7.4725e+01	7.4680	9.994353	0.000295	2.949432	0.499647	0.000029
 753	7.4824e+01	7.4749	10.028163	0.000340	3.400040	0.575982	0.000034
 754	7.4924e+01	7.4857	10.054640	0.000266	2.662682	0.451071	0.000027
 755	7.5023e+01	7.4976	10.084376	0.000299	2.990396	0.506587	0.000030
 756	7.5123e+01	7.5070	10.120222	0.000360	3.604862	0.610680	0.000036
 757	7.5222e+01	7.5183	10.147921	0.000279	2.785575	0.471889	0.000028
 758	7.5322e+01	7.5278	10.177657	0.000299	2.990396	0.506587	0.000030
 759	7.5421e+01	7.5394	10.207393	0.000299	2.990396	0.506587	0.000030
 760	7.5520e+01	7.5478	10.237129	0.000299	2.990396	0.506587	0.000030
 761	7.5620e+01	7.5576	10.268495	0.000315	3.154254	0.534345	0.000032
 762	7.5719e+01	7.5667	10.297416	0.000291	2.908468	0.492708	0.000029
 763	7.5819e+01	7.5753	10.330411	0.000332	3.318111	0.562103	0.000033
 764	7.5918e+01	7.5879	10.359332	0.000291	2.908468	0.492708	0.000029
 765	7.6018e+01	7.5955	10.389068	0.000299	2.990396	0.506587	0.000030
 766	7.6118e+01	7.6077	10.420026	0.000311	3.113289	0.527406	0.000031
 767	7.6217e+01	7.6180	10.452206	0.000324	3.236183	0.548224	0.000032
 768	7.6317e+01	7.6254	10.486016	0.000340	3.400040	0.575982	0.000034
 769	7.6416e+01	7.6364	10.513308	0.000274	2.744610	0.464950	0.000027
 770	7.6516e+01	7.6446	10.541414	0.000283	2.826539	0.478829	0.000028
 771	7.6615e+01	7.6578	10.575224	0.000340	3.400040	0.575982	0.000034
 772	7.6715e+01	7.6697	10.608626	0.000336	3.359076	0.569043	0.000034
 773	7.6814e+01	7.6778	10.634288	0.000258	2.580753	0.437191	0.000026
 774	7.6913e+01	7.6884	10.664432	0.000303	3.031361	0.513526	0.000030
 775	7.7013e+01	7.6984	10.695797	0.000315	3.154254	0.534345	0.000032
 776	7.7112e+01	7.7056	10.727162	0.000315	3.154254	0.534345	0.000032
 777	7.7212e+01	7.7151	10.751603	0.000246	2.457860	0.416373	0.000025
 778	7.7311e+01	7.7233	10.787449	0.000360	3.604862	0.610680	0.000036
 779	7.7411e+01	7.7364	10.814741	0.000274	2.744610	0.464950	0.000027
 780	7.7510e+01	7.7444	10.843255	0.000287	2.867503	0.485768	0.000029
 781	7.7610e+01	7.7566	10.878287	0.000352	3.522933	0.596801	0.000035
 782	7.7710e+01	7.7665	10.909245	0.000311	3.113289	0.527406	0.000031
 783	7.7809e+01	7.7760	10.937759	0.000287	2.867503	0.485768	0.000029
 784	7.7909e+01	7.7842	10.966272	0.000287	2.867503	0.485768	0.000029
 785	7.8008e+01	7.7954	10.999267	0.000332	3.318111	0.562103	0.000033
 786	7.8108e+01	7.8063	11.029411	0.000303	3.031361	0.513526	0.000030
 787	7.8207e+01	7.8197	11.060776	0.000315	3.154254	0.534345	0.000032
 788	7.8306e+01	7.8260	11.092956	0.000324	3.236183	0.548224	0.000032
 789	7.8406e+01	7.8365	11.119841	0.000270	2.703646	0.458010	0.000027
 790	7.8505e+01	7.8450	11.152021	0.000324	3.236183	0.548224	0.000032
 791	7.8605e+01	7.8540	11.179720	0.000279	2.785575	0.471889	0.000028
 792	7.8704e+01	7.8652	11.213529	0.000340	3.400040	0.575982	0.000034
 793	7.8804e+01	7.8768	11.243265	0.000299	2.990396	0.506587	0.000030
 794	7.8903e+01	7.8870	11.272594	0.000295	2.949432	0.499647	0.000029
 795	7.9003e+01	7.8966	11.304774	0.000324	3.236183	0.548224	0.000032
 796	7.9103e+01	7.9053	11.338584	0.000340	3.400040	0.575982	0.000034
 797	7.9202e+01	7.9165	11.370356	0.000320	3.195218	0.541285	0.000032
 798	7.9302e+01	7.9266	11.402944	0.000328	3.277147	0.555164	0.000033
 799	7.9401e+01	7.9368	11.433494	0.000307	3.072325	0.520466	0.000031
 800	7.9501e+01	7.9432	11.465267	0.000320	3.195218	0.541285	0.000032
 801	7.9600e+01	7.9572	11.493374	0.000283	2.826539	0.478829	0.000028
 802	7.9700e+01	7.9649	11.528813	0.000356	3.563897	0.603741	0.000036
 803	7.9799e+01	7.9748	11.556512	0.000279	2.785575	0.471889	0.000028
 804	7.9898e+01	7.9850	11.581767	0.000254	2.539789	0.430252	0.000025
 805	7.9998e+01	7.9942	11.615577	0.000340	3.400040	0.575982	0.000034
 806	8.0097e+01	8.0042	11.644091	0.000287	2.867503	0.485768	0.000029
 807	8.0197e+01	8.0154	11.674234	0.000303	3.031361	0.513526	0.000030
 808	8.0296e+01	8.0249	11.707229	0.000332	3.318111	0.562103	0.000033
 809	8.0396e+01	8.0335	11.738187	0.000311	3.113289	0.527406	0.000031
 810	8.0496e+01	8.0453	11.771589	0.000336	3.359076	0.569043	0.000034
 811	8.0595e+01	8.0533	11.800917	0.000295	2.949432	0.499647	0.000029
 812	8.0695e+01	8.0643	11.832690	0.000320	3.195218	0.541285	0.000032
 813	8.0794e+01	8.0752	11.863241	0.000307	3.072325	0.520466	0.000031
 814	8.0894e+01	8.0862	11.890125	0.000270	2.703646	0.458010	0.000027
 815	8.0993e+01	8.0940	11.920269	0.000303	3.031361	0.513526	0.000030
 816	8.1093e+01	8.1043	11.948375	0.000283	2.826539	0.478829	0.000028
 817	8.1192e+01	8.1121	11.976075	0.000279	2.785575	0.471889	0.000028
 818	8.1291e+01	8.1248	12.007440	0.000315	3.154254	0.534345	0.000032
 819	8.1391e+01	8.1363	12.035139	0.000279	2.785575	0.471889	0.000028
 820	8.1490e+01	8.1466	12.065283	0.000303	3.031361	0.513526	0.000030
 821	8.1590e+01	8.1552	12.092982	0.000279	2.785575	0.471889	0.000028
 822	8.1689e+01	8.1632	12.129235	0.000365	3.645826	0.617620	0.000036
 823	8.1789e+01	8.1739	12.158157	0.000291	2.908468	0.492708	0.000029
 824	8.1888e+01	8.1846	12.188707	0.000307	3.072325	0.520466	0.000031
 825	8.1988e+01	8.1918	12.216407	0.000279	2.785575	0.471889	0.000028
 826	8.2088e+01	8.2058	12.247772	0.000315	3.154254	0.534345	0.000032
 827	8.2187e+01	8.2125	12.280767	0.000332	3.318111	0.562103	0.000033
 828	8.2287e+01	8.2246	12.307652	0.000270	2.703646	0.458010	0.000027
 829	8.2386e+01	8.2373	12.336166	0.000287	2.867503	0.485768	0.000029
 830	8.2486e+01	8.2455	12.370382	0.000344	3.441004	0.582922	0.000034
 831	8.2585e+01	8.2511	12.396860	0.000266	2.662682	0.451071	0.000027
 832	8.2684e+01	8.2645	12.432706	0.000360	3.604862	0.610680	0.000036
 833	8.2784e+01	8.2745	12.464071	0.000315	3.154254	0.534345	0.000032
 834	8.2883e+01	8.2795	12.490548	0.000266	2.662682	0.451071	0.000027
 835	8.2983e+01	8.2944	12.525580	0.000352	3.522933	0.596801	0.000035
 836	8.3082e+01	8.3018	12.556538	0.000311	3.113289	0.527406	0.000031
 837	8.3182e+01	8.3155	12.587496	0.000311	3.113289	0.527406	0.000031
 838	8.3281e+01	8.3237	12.614788	0.000274	2.744610	0.464950	0.000027
 839	8.3381e+01	8.3336	12.646561	0.000320	3.195218	0.541285	0.000032
 840	8.3481e+01	8.3442	12.677519	0.000311	3.113289	0.527406	0.000031
 841	8.3580e+01	8.3554	12.708884	0.000315	3.154254	0.534345	0.000032
 842	8.3680e+01	8.3633	12.736583	0.000279	2.785575	0.471889	0.000028
 843	8.3779e+01	8.3716	12.767134	0.000307	3.072325	0.520466	0.000031
 844	8.3879e+01	8.3813	12.803387	0.000365	3.645826	0.617620	0.000036
 845	8.3978e+01	8.3936	12.833938	0.000307	3.072325	0.520466	0.000031
 846	8.4078e+01	8.4003	12.863674	0.000299	2.990396	0.506587	0.000030
 847	8.4177e+01	8.4144	12.898706	0.000352	3.522933	0.596801	0.000035
 848	8.4276e+01	8.4232	12.927220	0.000287	2.867503	0.485768	0.000029
 849	8.4376e+01	8.4319	12.957770	0.000307	3.072325	0.520466	0.000031
 850	8.4475e+01	8.4435	12.985877	0.000283	2.826539	0.478829	0.000028
 851	8.4575e+01	8.4528	13.017650	0.000320	3.195218	0.541285	0.000032
 852	8.4674e+01	8.4621	13.047793	0.000303	3.031361	0.513526	0.000030
 853	8.4774e+01	8.4720	13.077936	0.000303	3.031361	0.513526	0.000030
 854	8.4874e+01	8.4818	13.110524	0.000328	3.277147	0.555164	0.000033
 855	8.4973e+01	8.4944	13.143111	0.000328	3.277147	0.555164	0.000033
 856	8.5073e+01	8.5049	13.173254	0.000303	3.031361	0.513526	0.000030
 857	8.5172e+01	8.5107	13.208693	0.000356	3.563897	0.603741	0.000036
 858	8.5272e+01	8.5245	13.240059	0.000315	3.154254	0.534345	0.000032
 859	8.5371e+01	8.5320	13.270202	0.000303	3.031361	0.513526	0.000030
 860	8.5471e+01	8.5456	13.301975	0.000320	3.195218	0.541285	0.000032
 861	8.5570e+01	8.5535	13.334969	0.000332	3.318111	0.562103	0.000033
 862	8.5669e+01	8.5600	13.366742	0.000320	3.195218	0.541285	0.000032
 863	8.5769e+01	8.5719	13.397293	0.000307	3.072325	0.520466	0.000031
 864	8.5868e+01	8.5815	13.429880	0.000328	3.277147	0.555164	0.000033
 865	8.5968e+01	8.5894	13.458394	0.000287	2.867503	0.485768	0.000029
 866	8.6067e+01	8.6021	13.492204	0.000340	3.400040	0.575982	0.000034
 867	8.6167e+01	8.6134	13.523976	0.000320	3.195218	0.541285	0.000032
 868	8.6266e+01	8.6223	13.552898	0.000291	2.908468	0.492708	0.000029
 869	8.6366e+01	8.6352	13.588337	0.000356	3.563897	0.603741	0.000036
 870	8.6466e+01	8.6435	13.620517	0.000324	3.236183	0.548224	0.000032
 871	8.6565e+01	8.6515	13.650660	0.000303	3.031361	0.513526	0.000030
 872	8.6665e+01	8.6608	13.686099	0.000356	3.563897	0.603741	0.000036
 873	8.6764e+01	8.6694	13.718686	0.000328	3.277147	0.555164	0.000033
 874	8.6864e+01	8.6816	13.750866	0.000324	3.236183	0.548224	0.000032
 875	8.6963e+01	8.6938	13.783861	0.000332	3.318111	0.562103	0.000033
 876	8.7063e+01	8.7000	13.814412	0.000307	3.072325	0.520466	0.000031
 877	8.7162e+01	8.7103	13.848628	0.000344	3.441004	0.582922	0.000034
 878	8.7261e+01	8.7206	13.879179	0.000307	3.072325	0.520466	0.000031
 879	8.7361e+01	8.7311	13.912581	0.000336	3.359076	0.569043	0.000034
 880	8.7460e+01	8.7412	13.940280	0.000279	2.785575	0.471889	0.000028
 881	8.7560e+01	8.7509	13.973683	0.000336	3.359076	0.569043	0.000034
 882	8.7659e+01	8.7610	13.997308	0.000238	2.375931	0.402494	0.000024
 883	8.7759e+01	8.7730	14.029488	0.000324	3.236183	0.548224	0.000032
 884	8.7859e+01	8.7821	14.065335	0.000360	3.604862	0.610680	0.000036
 885	8.7958e+01	8.7910	14.098329	0.000332	3.318111	0.562103	0.000033
 886	8.8058e+01	8.7988	14.133768	0.000356	3.563897	0.603741	0.000036
 887	8.8157e+01	8.8116	14.167170	0.000336	3.359076	0.569043	0.000034
 888	8.8257e+01	8.8215	14.199350	0.000324	3.236183	0.548224	0.000032
 889	8.8356e+01	8.8285	14.233160	0.000340	3.400040	0.575982	0.000034
 890	8.8456e+01	8.8402	14.265747	0.000328	3.277147	0.555164	0.000033
 891	8.8555e+01	8.8510	14.299149	0.000336	3.359076	0.569043	0.000034
 892	8.8654e+01	8.8630	14.331329	0.000324	3.236183	0.548224	0.000032
 893	8.8754e+01	8.8686	14.365546	0.000344	3.441004	0.582922	0.000034
 894	8.8853e+01	8.8791	14.399763	0.000344	3.441004	0.582922	0.000034
 895	8.8953e+01	8.8919	14.431128	0.000315	3.154254	0.534345	0.000032
 896	8.9052e+01	8.8988	14.471455	0.000406	4.055469	0.687015	0.000041
 897	8.9152e+01	8.9103	14.503635	0.000324	3.236183	0.548224	0.000032
 898	8.9251e+01	8.9209	14.541518	0.000381	3.809683	0.645378	0.000038
 899	8.9351e+01	8.9275	14.575328	0.000340	3.400040	0.575982	0.000034
 900	8.9451e+01	8.9387	14.614025	0.000389	3.891612	0.659257	0.000039
 901	8.9550e+01	8.9510	14.651908	0.000381	3.809683	0.645378	0.000038
 902	8.9650e+01	8.9616	14.686125	0.000344	3.441004	0.582922	0.000034
 903	8.9749e+01	8.9687	14.722786	0.000369	3.686790	0.624559	0.000037
 904	8.9849e+01	8.9811	14.756595	0.000340	3.400040	0.575982	0.000034
 905	8.9948e+01	8.9917	14.796107	0.000397	3.973541	0.673136	0.000040
 906	9.0047e+01	8.9977	14.828287	0.000324	3.236183	0.548224	0.000032
 907	9.0147e+01	9.0064	14.861689	0.000336	3.359076	0.569043	0.000034
 908	9.0246e+01	9.0192	14.895906	0.000344	3.441004	0.582922	0.000034
 909	9.0346e+01	9.0308	14.934196	0.000385	3.850648	0.652317	0.000038
 910	9.0445e+01	9.0387	14.970857	0.000369	3.686790	0.624559	0.000037
 911	9.0545e+01	9.0485	15.003037	0.000324	3.236183	0.548224	0.000032
 912	9.0644e+01	9.0586	15.037661	0.000348	3.481969	0.589861	0.000035
 913	9.0744e+01	9.0698	15.074322	0.000369	3.686790	0.624559	0.000037
 914	9.0844e+01	9.0788	15.108946	0.000348	3.481969	0.589861	0.000035
 915	9.0943e+01	9.0888	15.143978	0.000352	3.522933	0.596801	0.000035
 916	9.1043e+01	9.0961	15.180231	0.000365	3.645826	0.617620	0.000036
 917	9.1142e+01	9.1092	15.220965	0.000410	4.096434	0.693955	0.000041
 918	9.1242e+01	9.1181	15.255590	0.000348	3.481969	0.589861	0.000035
 919	9.1341e+01	9.1274	15.289806	0.000344	3.441004	0.582922	0.000034
 920	9.1441e+01	9.1394	15.323616	0.000340	3.400040	0.575982	0.000034
 921	9.1540e+01	9.1488	15.362313	0.000389	3.891612	0.659257	0.000039
 922	9.1639e+01	9.1574	15.397752	0.000356	3.563897	0.603741	0.000036
 923	9.1739e+01	9.1651	15.433598	0.000360	3.604862	0.610680	0.000036
 924	9.1838e+01	9.1763	15.471888	0.000385	3.850648	0.652317	0.000038
 925	9.1938e+01	9.1904	15.510993	0.000393	3.932576	0.666196	0.000039
 926	9.2037e+01	9.1992	15.544395	0.000336	3.359076	0.569043	0.000034
 927	9.2137e+01	9.2090	15.585130	0.000410	4.096434	0.693955	0.000041
 928	9.2237e+01	9.2170	15.616902	0.000320	3.195218	0.541285	0.000032
 929	9.2336e+01	9.2256	15.655600	0.000389	3.891612	0.659257	0.000039
 930	9.2436e+01	9.2384	15.693075	0.000377	3.768719	0.638438	0.000038
 931	9.2535e+01	9.2462	15.728922	0.000360	3.604862	0.610680	0.000036
 932	9.2635e+01	9.2571	15.767212	0.000385	3.850648	0.652317	0.000038
 933	9.2734e+01	9.2663	15.804280	0.000373	3.727755	0.631499	0.000037
 934	9.2834e+01	9.2785	15.844200	0.000401	4.014505	0.680076	0.000040
 935	9.2933e+01	9.2853	15.882490	0.000385	3.850648	0.652317	0.000038
 936	9.3032e+01	9.2985	15.922817	0.000406	4.055469	0.687015	0.000041
 937	9.3132e+01	9.3073	15.958255	0.000356	3.563897	0.603741	0.000036
 938	9.3231e+01	9.3164	15.996546	0.000385	3.850648	0.652317	0.000038
 939	9.3331e+01	9.3262	16.031577	0.000352	3.522933	0.596801	0.000035
 940	9.3430e+01	9.3353	16.070275	0.000389	3.891612	0.659257	0.000039
 941	9.3530e+01	9.3462	16.111416	0.000414	4.137398	0.700894	0.000041
 942	9.3629e+01	9.3579	16.149299	0.000381	3.809683	0.645378	0.000038
 943	9.3729e+01	9.3680	16.185145	0.000360	3.604862	0.610680	0.000036
 944	9.3829e+01	9.3768	16.220584	0.000356	3.563897	0.603741	0.000036
 945	9.3928e+01	9.3874	16.259282	0.000389	3.891612	0.659257	0.000039
 946	9.4028e+01	9.3980	16.295535	0.000365	3.645826	0.617620	0.000036
 947	9.4127e+01	9.4071	16.334233	0.000389	3.891612	0.659257	0.000039
 948	9.4227e+01	9.4167	16.371708	0.000377	3.768719	0.638438	0.000038
 949	9.4326e+01	9.4276	16.412442	0.000410	4.096434	0.693955	0.000041
 950	9.4425e+01	9.4371	16.447067	0.000348	3.481969	0.589861	0.000035
 951	9.4525e+01	9.4474	16.488615	0.000418	4.178362	0.707834	0.000042
 952	9.4624e+01	9.4580	16.526906	0.000385	3.850648	0.652317	0.000038
 953	9.4724e+01	9.4659	16.562752	0.000360	3.604862	0.610680	0.000036
 954	9.4823e+01	9.4788	16.605115	0.000426	4.260291	0.721713	0.000043
 955	9.4923e+01	9.4843	16.637703	0.000328	3.277147	0.555164	0.000033
 956	9.5022e+01	9.4971	16.680474	0.000430	4.301255	0.728652	0.000043
 957	9.5122e+01	9.5062	16.719579	0.000393	3.932576	0.666196	0.000039
 958	9.5222e+01	9.5190	16.760313	0.000410	4.096434	0.693955	0.000041
 959	9.5321e+01	9.5300	16.800233	0.000401	4.014505	0.680076	0.000040
 960	9.5421e+01	9.5374	16.840152	0.000401	4.014505	0.680076	0.000040
 961	9.5520e+01	9.5459	16.874369	0.000344	3.441004	0.582922	0.000034
 962	9.5620e+01	9.5591	16.917547	0.000434	4.342220	0.735592	0.000043
 963	9.5719e+01	9.5681	16.957059	0.000397	3.973541	0.673136	0.000040
 964	9.5819e+01	9.5760	17.007163	0.000504	5.038613	0.853564	0.000050
 965	9.5918e+01	9.5872	17.041787	0.000348	3.481969	0.589861	0.000035
 966	9.6017e+01	9.5966	17.088224	0.000467	4.669934	0.791108	0.000047
 967	9.6117e+01	9.6073	17.127736	0.000397	3.973541	0.673136	0.000040
 968	9.6216e+01	9.6184	17.169692	0.000422	4.219327	0.714773	0.000042
 969	9.6316e+01	9.6260	17.210834	0.000414	4.137398	0.700894	0.000041
 970	9.6415e+01	9.6363	17.253605	0.000430	4.301255	0.728652	0.000043
 971	9.6515e+01	9.6461	17.294746	0.000414	4.137398	0.700894	0.000041
 972	9.6615e+01	9.6571	17.334666	0.000401	4.014505	0.680076	0.000040
 973	9.6714e+01	9.6662	17.377437	0.000430	4.301255	0.728652	0.000043
 974	9.6814e+01	9.6755	17.421023	0.000438	4.383184	0.742531	0.000044
 975	9.6913e+01	9.6862	17.466238	0.000455	4.547041	0.770290	0.000045
 976	9.7013e+01	9.6943	17.509009	0.000430	4.301255	0.728652	0.000043
 977	9.7112e+01	9.7048	17.552594	0.000438	4.383184	0.742531	0.000044
 978	9.7212e+01	9.7132	17.597402	0.000451	4.506077	0.763350	0.000045
 979	9.7311e+01	9.7260	17.638951	0.000418	4.178362	0.707834	0.000042
 980	9.7410e+01	9.7366	17.680907	0.000422	4.219327	0.714773	0.000042
 981	9.7510e+01	9.7461	17.723271	0.000426	4.260291	0.721713	0.000043
 982	9.7609e+01	9.7541	17.765227	0.000422	4.219327	0.714773	0.000042
 983	9.7709e+01	9.7663	17.803110	0.000381	3.809683	0.645378	0.000038
 984	9.7808e+01	9.7749	17.843437	0.000406	4.055469	0.687015	0.000041
 985	9.7908e+01	9.7844	17.889467	0.000463	4.628970	0.784169	0.000046
 986	9.8007e+01	9.7929	17.928979	0.000397	3.973541	0.673136	0.000040
 987	9.8107e+01	9.8055	17.969713	0.000410	4.096434	0.693955	0.000041
 988	9.8207e+01	9.8163	18.010855	0.000414	4.137398	0.700894	0.000041
 989	9.8306e+01	9.8267	18.049552	0.000389	3.891612	0.659257	0.000039
 990	9.8406e+01	9.8342	18.095174	0.000459	4.588006	0.777229	0.000046
 991	9.8505e+01	9.8457	18.136316	0.000414	4.137398	0.700894	0.000041
 992	9.8605e+01	9.8537	18.180309	0.000442	4.424148	0.749471	0.000044
 993	9.8704e+01	9.8647	18.219007	0.000389	3.891612	0.659257	0.000039
 994	9.8803e+01	9.8768	18.266258	0.000475	4.751863	0.804987	0.000047
 995	9.8903e+01	9.8866	18.305363	0.000393	3.932576	0.666196	0.000039
 996	9.9002e+01	9.8920	18.352208	0.000471	4.710899	0.798048	0.000047
 997	9.9102e+01	9.9072	18.393757	0.000418	4.178362	0.707834	0.000042
 998	9.9201e+01	9.9170	18.433676	0.000401	4.014505	0.680076	0.000040
 999	9.9301e+01	9.9249	18.475632	0.000422	4.219327	0.714773	0.000042
1000	9.9400e+01	9.9354	18.521662	0.000463	4.628970	0.784169	0.000046
1001	9.9500e+01	9.9457	18.564840	0.000434	4.342220	0.735592	0.000043
1002	9.9600e+01	9.9532	18.606797	0.000422	4.219327	0.714773	0.000042
1003	9.9699e+01	9.9619	18.650790	0.000442	4.424148	0.749471	0.000044
1004	9.9799e+01	9.9763	18.694375	0.000438	4.383184	0.742531	0.000044
1005	9.9898e+01	9.9841	18.739998	0.000459	4.588006	0.777229	0.000046
1006	9.9998e+01	9.9902	18.787657	0.000479	4.792827	0.811927	0.000048
1007	1.0010e+02	9.9854	18.793360	-0.000057	-0.573501	-0.097154	0.000006
1008	1.0020e+02	9.9732	18.792952	0.000004	0.040964	0.006940	-0.000000
1009	1.0030e+02	9.9658	18.793767	-0.000008	-0.081929	-0.013879	0.000001
1010	1.0040e+02	9.9539	18.792138	0.000016	0.163857	0.027758	-0.000002
1011	1.0050e+02	9.9442	18.791323	0.000008	0.081929	0.013879	-0.000001
1012	1.0059e+02	9.9342	18.790508	0.000008	0.081929	0.013879	-0.000001
1013	1.0069e+02	9.9255	18.788879	0.000016	0.163857	0.027758	-0.000002
1014	1.0079e+02	9.9155	18.786435	0.000025	0.245786	0.041637	-0.000002
1015	1.0089e+02	9.9049	18.780732	0.000057	0.573501	0.097154	-0.000006
1016	1.0099e+02	9.8956	18.775844	0.000049	0.491572	0.083275	-0.000005
1017	1.0109e+02	9.8866	18.774215	0.000016	0.163857	0.027758	-0.000002
1018	1.0119e+02	9.8730	18.765660	0.000086	0.860251	0.145730	-0.000009
1019	1.0129e+02	9.8634	18.761180	0.000045	0.450608	0.076335	-0.000005
1020	1.0139e+02	9.8548	18.754255	0.000070	0.696394	0.117972	-0.000007
1021	1.0149e+02	9.8481	18.748959	0.000053	0.532536	0.090214	-0.000005
1022	1.0159e+02	9.8358	18.741220	0.000078	0.778322	0.131851	-0.000008
1023	1.0169e+02	9.8254	18.737554	0.000037	0.368679	0.062456	-0.000004
1024	1.0179e+02	9.8145	18.730629	0.000070	0.696394	0.117972	-0.000007
1025	1.0189e+02	9.8048	18.724519	0.000061	0.614465	0.104093	-0.000006
1026	1.0199e+02	9.7974	18.718001	0.000066	0.655429	0.111033	-0.000007
1027	1.0209e+02	9.7868	18.711076	0.000070	0.696394	0.117972	-0.000007
1028	1.0219e+02	9.7770	18.703744	0.000074	0.737358	0.124912	-0.000007
1029	1.0229e+02	9.7628	18.701300	0.000025	0.245786	0.041637	-0.000002
1030	1.0239e+02	9.7536	18.691931	0.000094	0.942180	0.159610	-0.000009
1031	1.0248e+02	9.7449	18.684599	0.000074	0.737358	0.124912	-0.000007
1032	1.0258e+02	9.7382	18.674416	0.000102	1.024108	0.173489	-0.000010
1033	1.0268e+02	9.7280	18.669935	0.000045	0.450608	0.076335	-0.000005
1034	1.0278e+02	9.7159	18.654863	0.000152	1.515680	0.256763	-0.000015
1035	1.0288e+02	9.7052	18.649568	0.000053	0.532536	0.090214	-0.000005
1036	1.0298e+02	9.6964	18.638162	0.000115	1.147001	0.194307	-0.000011
1037	1.0308e+02	9.6832	18.630423	0.000078	0.778322	0.131851	-0.000008
1038	1.0318e+02	9.6759	18.623090	0.000074	0.737358	0.124912	-0.000007
1039	1.0328e+02	9.6631	18.610463	0.000127	1.269894	0.215126	-0.000013
1040	1.0338e+02	9.6566	18.605167	0.000053	0.532536	0.090214	-0.000005
1041	1.0348e+02	9.6469	18.590910	0.000143	1.433752	0.242884	-0.000014
1042	1.0358e+02	9.6362	18.580319	0.000107	1.065073	0.180428	-0.000011
1043	1.0368e+02	9.6244	18.566877	0.000135	1.351823	0.229005	-0.000014
1044	1.0378e+02	9.6169	18.554657	0.000123	1.228930	0.208186	-0.000012
1045	1.0388e+02	9.6063	18.548547	0.000061	0.614465	0.104093	-0.000006
1046	1.0398e+02	9.5972	18.532660	0.000160	1.597609	0.270642	-0.000016
1047	1.0408e+02	9.5861	18.519218	0.000135	1.351823	0.229005	-0.000014
1048	1.0418e+02	9.5782	18.503739	0.000156	1.556645	0.263703	-0.000016
1049	1.0428e+02	9.5640	18.492741	0.000111	1.106037	0.187368	-0.000011
1050	1.0438e+02	9.5582	18.482150	0.000107	1.065073	0.180428	-0.000011
1051	1.0447e+02	9.5468	18.464634	0.000176	1.761466	0.298400	-0.000018
1052	1.0457e+02	9.5362	18.454858	0.000098	0.983144	0.166549	-0.000010
1053	1.0467e+02	9.5286	18.441823	0.000131	1.310859	0.222065	-0.000013
1054	1.0477e+02	9.5162	18.429195	0.000127	1.269894	0.215126	-0.000013
1055	1.0487e+02	9.5078	18.419827	0.000094	0.942180	0.159610	-0.000009
1056	1.0497e+02	9.4985	18.410050	0.000098	0.983144	0.166549	-0.000010
1057	1.0507e+02	9.4873	18.396608	0.000135	1.351823	0.229005	-0.000014
1058	1.0517e+02	9.4765	18.383980	0.000127	1.269894	0.215126	-0.000013
1059	1.0527e+02	9.4643	18.369316	0.000147	1.474716	0.249824	-0.000015
1060	1.0537e+02	9.4576	18.354652	0.000147	1.474716	0.249824	-0.000015
1061	1.0547e+02	9.4470	18.341617	0.000131	1.310859	0.222065	-0.000013
1062	1.0557e+02	9.4379	18.331026	0.000107	1.065073	0.180428	-0.000011
1063	1.0567e+02	9.4277	18.317176	0.000139	1.392787	0.235945	-0.000014
1064	1.0577e+02	9.4183	18.306993	0.000102	1.024108	0.173489	-0.000010
1065	1.0587e+02	9.4058	18.293958	0.000131	1.310859	0.222065	-0.000013
1066	1.0597e+02	9.3953	18.282959	0.000111	1.106037	0.187368	-0.000011
1067	1.0607e+02	9.3865	18.269110	0.000139	1.392787	0.235945	-0.000014
1068	1.0617e+02	9.3774	18.258519	0.000107	1.065073	0.180428	-0.000011
1069	1.0627e+02	9.3665	18.242632	0.000160	1.597609	0.270642	-0.000016
1070	1.0637e+02	9.3590	18.231227	0.000115	1.147001	0.194307	-0.000011
1071	1.0647e+02	9.3498	18.219007	0.000123	1.228930	0.208186	-0.000012
1072	1.0656e+02	9.3417	18.200676	0.000184	1.843395	0.312280	-0.000018
1073	1.0666e+02	9.3273	18.183568	0.000172	1.720502	0.291461	-0.000017
1074	1.0676e+02	9.3204	18.170533	0.000131	1.310859	0.222065	-0.000013
1075	1.0686e+02	9.3053	18.155054	0.000156	1.556645	0.263703	-0.000016
1076	1.0696e+02	9.2964	18.141612	0.000135	1.351823	0.229005	-0.000014
1077	1.0706e+02	9.2863	18.127355	0.000143	1.433752	0.242884	-0.000014
1078	1.0716e+02	9.2765	18.107395	0.000201	2.007252	0.340038	-0.000020
1079	1.0726e+02	9.2681	18.097211	0.000102	1.024108	0.173489	-0.000010
1080	1.0736e+02	9.2590	18.080918	0.000164	1.638573	0.277582	-0.000016
1081	1.0746e+02	9.2489	18.062587	0.000184	1.843395	0.312280	-0.000018
1082	1.0756e+02	9.2383	18.047515	0.000152	1.515680	0.256763	-0.000015
1083	1.0766e+02	9.2294	18.030000	0.000176	1.761466	0.298400	-0.000018
1084	1.0776e+02	9.2200	18.015335	0.000147	1.474716	0.249824	-0.000015
1085	1.0786e+02	9.2078	17.991709	0.000238	2.375931	0.402494	-0.000024
1086	1.0796e+02	9.1992	17.977452	0.000143	1.433752	0.242884	-0.000014
1087	1.0806e+02	9.1881	17.959122	0.000184	1.843395	0.312280	-0.000018
1088	1.0816e+02	9.1785	17.944050	0.000152	1.515680	0.256763	-0.000015
1089	1.0826e+02	9.1664	17.925313	0.000188	1.884359	0.319219	-0.000019
1090	1.0836e+02	9.1592	17.910241	0.000152	1.515680	0.256763	-0.000015
1091	1.0845e+02	9.1505	17.893540	0.000168	1.679538	0.284521	-0.000017
1092	1.0855e+02	9.1361	17.878468	0.000152	1.515680	0.256763	-0.000015
1093	1.0865e+02	9.1268	17.858101	0.000205	2.048217	0.346977	-0.000020
1094	1.0875e+02	9.1193	17.840993	0.000172	1.720502	0.291461	-0.000017
1095	1.0885e+02	9.1104	17.824699	0.000164	1.638573	0.277582	-0.000016
1096	1.0895e+02	9.1010	17.803925	0.000209	2.089181	0.353917	-0.000021
1097	1.0905e+02	9.0882	17.786816	0.000172	1.720502	0.291461	-0.000017
1098	1.0915e+02	9.0763	17.771745	0.000152	1.515680	0.256763	-0.000015
1099	1.0925e+02	9.0689	17.754636	0.000172	1.720502	0.291461	-0.000017
1100	1.0935e+02	9.0601	17.738342	0.000164	1.638573	0.277582	-0.000016
1101	1.0945e+02	9.0504	17.717975	0.000205	2.048217	0.346977	-0.000020
1102	1.0955e+02	9.0381	17.702496	0.000156	1.556645	0.263703	-0.000016
1103	1.0965e+02	9.0297	17.680907	0.000217	2.171110	0.367796	-0.000022
1104	1.0975e+02	9.0211	17.659725	0.000213	2.130145	0.360856	-0.000021
1105	1.0985e+02	9.0079	17.649134	0.000107	1.065073	0.180428	-0.000011
1106	1.0995e+02	9.0015	17.629175	0.000201	2.007252	0.340038	-0.000020
1107	1.1005e+02	8.9907	17.613696	0.000156	1.556645	0.263703	-0.000016
1108	1.1015e+02	8.9800	17.587626	0.000262	2.621717	0.444131	-0.000026
1109	1.1025e+02	8.9698	17.572554	0.000152	1.515680	0.256763	-0.000015
1110	1.1035e+02	8.9609	17.551372	0.000213	2.130145	0.360856	-0.000021
1111	1.1044e+02	8.9481	17.531005	0.000205	2.048217	0.346977	-0.000020
1112	1.1054e+02	8.9404	17.510231	0.000209	2.089181	0.353917	-0.000021
1113	1.1064e+02	8.9311	17.493122	0.000172	1.720502	0.291461	-0.000017
1114	1.1074e+02	8.9185	17.473977	0.000193	1.925324	0.326159	-0.000019
1115	1.1084e+02	8.9117	17.456461	0.000176	1.761466	0.298400	-0.000018
1116	1.1094e+02	8.9017	17.434872	0.000217	2.171110	0.367796	-0.000022
1117	1.1104e+02	8.8917	17.416134	0.000188	1.884359	0.319219	-0.000019
1118	1.1114e+02	8.8808	17.396989	0.000193	1.925324	0.326159	-0.000019
1119	1.1124e+02	8.8693	17.373771	0.000233	2.334967	0.395554	-0.000023
1120	1.1134e+02	8.8623	17.358292	0.000156	1.556645	0.263703	-0.000016
1121	1.1144e+02	8.8503	17.339147	0.000193	1.925324	0.326159	-0.000019
1122	1.1154e+02	8.8379	17.317150	0.000221	2.212074	0.374735	-0.000022
1123	1.1164e+02	8.8326	17.297190	0.000201	2.007252	0.340038	-0.000020
1124	1.1174e+02	8.8190	17.278453	0.000188	1.884359	0.319219	-0.000019
1125	1.1184e+02	8.8117	17.254419	0.000242	2.416896	0.409433	-0.000024
1126	1.1194e+02	8.8015	17.238126	0.000164	1.638573	0.277582	-0.000016
1127	1.1204e+02	8.7920	17.218166	0.000201	2.007252	0.340038	-0.000020
1128	1.1214e+02	8.7842	17.194947	0.000233	2.334967	0.395554	-0.000023
1129	1.1224e+02	8.7720	17.176210	0.000188	1.884359	0.319219	-0.000019
1130	1.1234e+02	8.7614	17.158694	0.000176	1.761466	0.298400	-0.000018
1131	1.1244e+02	8.7512	17.141178	0.000176	1.761466	0.298400	-0.000018
1132	1.1253e+02	8.7443	17.124885	0.000164	1.638573	0.277582	-0.000016
1133	1.1263e+02	8.7317	17.104517	0.000205	2.048217	0.346977	-0.000020
1134	1.1273e+02	8.7187	17.087002	0.000176	1.761466	0.298400	-0.000018
1135	1.1283e+02	8.7121	17.066227	0.000209	2.089181	0.353917	-0.000021
1136	1.1293e+02	8.7003	17.043416	0.000229	2.294003	0.388615	-0.000023
1137	1.1303e+02	8.6926	17.025900	0.000176	1.761466	0.298400	-0.000018
1138	1.1313e+02	8.6829	16.999423	0.000266	2.662682	0.451071	-0.000027
1139	1.1323e+02	8.6706	16.976612	0.000229	2.294003	0.388615	-0.000023
1140	1.1333e+02	8.6621	16.956245	0.000205	2.048217	0.346977	-0.000020
1141	1.1343e+02	8.6526	16.934656	0.000217	2.171110	0.367796	-0.000022
1142	1.1353e+02	8.6420	16.916325	0.000184	1.843395	0.312280	-0.000018
1143	1.1363e+02	8.6324	16.895551	0.000209	2.089181	0.353917	-0.000021
1144	1.1373e+02	8.6190	16.876813	0.000188	1.884359	0.319219	-0.000019
1145	1.1383e+02	8.6121	16.854002	0.000229	2.294003	0.388615	-0.000023
1146	1.1393e+02	8.6013	16.831191	0.000229	2.294003	0.388615	-0.000023
1147	1.1403e+02	8.5913	16.813267	0.000180	1.802431	0.305340	-0.000018
1148	1.1413e+02	8.5808	16.785161	0.000283	2.826539	0.478829	-0.000028
1149	1.1423e+02	8.5714	16.763572	0.000217	2.171110	0.367796	-0.000022
1150	1.1433e+02	8.5614	16.738724	0.000250	2.498824	0.423312	-0.000025
1151	1.1442e+02	8.5541	16.716320	0.000225	2.253038	0.381675	-0.000023
1152	1.1452e+02	8.5430	16.692287	0.000242	2.416896	0.409433	-0.000024
1153	1.1462e+02	8.5327	16.669883	0.000225	2.253038	0.381675	-0.000023
1154	1.1472e+02	8.5223	16.641776	0.000283	2.826539	0.478829	-0.000028
1155	1.1482e+02	8.5165	16.621409	0.000205	2.048217	0.346977	-0.000020
1156	1.1492e+02	8.5034	16.596969	0.000246	2.457860	0.416373	-0.000025
1157	1.1502e+02	8.4942	16.577416	0.000197	1.966288	0.333098	-0.000020
1158	1.1512e+02	8.4839	16.552568	0.000250	2.498824	0.423312	-0.000025
1159	1.1522e+02	8.4731	16.534238	0.000184	1.843395	0.312280	-0.000018
1160	1.1532e+02	8.4644	16.507353	0.000270	2.703646	0.458010	-0.000027
1161	1.1542e+02	8.4504	16.484135	0.000233	2.334967	0.395554	-0.000023
1162	1.1552e+02	8.4434	16.466212	0.000180	1.802431	0.305340	-0.000018
1163	1.1562e+02	8.4326	16.442178	0.000242	2.416896	0.409433	-0.000024
1164	1.1572e+02	8.4255	16.418145	0.000242	2.416896	0.409433	-0.000024
1165	1.1582e+02	8.4131	16.395741	0.000225	2.253038	0.381675	-0.000023
1166	1.1592e+02	8.4019	16.370893	0.000250	2.498824	0.423312	-0.000025
1167	1.1602e+02	8.3913	16.349712	0.000213	2.130145	0.360856	-0.000021
1168	1.1612e+02	8.3808	16.326900	0.000229	2.294003	0.388615	-0.000023
1169	1.1622e+02	8.3723	16.301645	0.000254	2.539789	0.430252	-0.000025
1170	1.1632e+02	8.3621	16.279241	0.000225	2.253038	0.381675	-0.000023
1171	1.1642e+02	8.3553	16.255208	0.000242	2.416896	0.409433	-0.000024
1172	1.1651e+02	8.3427	16.233212	0.000221	2.212074	0.374735	-0.000022
1173	1.1661e+02	8.3313	16.209178	0.000242	2.416896	0.409433	-0.000024
1174	1.1671e+02	8.3228	16.185960	0.000233	2.334967	0.395554	-0.000023
1175	1.1681e+02	8.3154	16.162334	0.000238	2.375931	0.402494	-0.000024
1176	1.1691e+02	8.3057	16.137079	0.000254	2.539789	0.430252	-0.000025
1177	1.1701e+02	8.2943	16.113453	0.000238	2.375931	0.402494	-0.000024
1178	1.1711e+02	8.2853	16.094715	0.000188	1.884359	0.319219	-0.000019
1179	1.1721e+02	8.2744	16.069053	0.000258	2.580753	0.437191	-0.000026
1180	1.1731e+02	8.2620	16.045019	0.000242	2.416896	0.409433	-0.000024
1181	1.1741e+02	8.2540	16.022616	0.000225	2.253038	0.381675	-0.000023
1182	1.1751e+02	8.2426	15.996953	0.000258	2.580753	0.437191	-0.000026
1183	1.1761e+02	8.2336	15.975771	0.000213	2.130145	0.360856	-0.000021
1184	1.1771e+02	8.2255	15.950109	0.000258	2.580753	0.437191	-0.000026
1185	1.1781e+02	8.2164	15.923631	0.000266	2.662682	0.451071	-0.000027
1186	1.1791e+02	8.2034	15.898783	0.000250	2.498824	0.423312	-0.000025
1187	1.1801e+02	8.1934	15.869862	0.000291	2.908468	0.492708	-0.000029
1188	1.1811e+02	8.1858	15.851939	0.000180	1.802431	0.305340	-0.000018
1189	1.1821e+02	8.1745	15.832387	0.000197	1.966288	0.333098	-0.000020
1190	1.1831e+02	8.1626	15.804687	0.000279	2.785575	0.471889	-0.000028
1191	1.1841e+02	8.1539	15.783506	0.000213	2.130145	0.360856	-0.000021
1192	1.1850e+02	8.1432	15.759880	0.000238	2.375931	0.402494	-0.000024
1193	1.1860e+02	8.1348	15.735846	0.000242	2.416896	0.409433	-0.000024
1194	1.1870e+02	8.1243	15.713850	0.000221	2.212074	0.374735	-0.000022
1195	1.1880e+02	8.1153	15.686558	0.000274	2.744610	0.464950	-0.000027
1196	1.1890e+02	8.1068	15.665784	0.000209	2.089181	0.353917	-0.000021
1197	1.1900e+02	8.0929	15.639306	0.000266	2.662682	0.451071	-0.000027
1198	1.1910e+02	8.0878	15.616902	0.000225	2.253038	0.381675	-0.000023
1199	1.1920e+02	8.0756	15.587574	0.000295	2.949432	0.499647	-0.000029
1200	1.1930e+02	8.0668	15.566392	0.000213	2.130145	0.360856	-0.000021
1201	1.1940e+02	8.0533	15.539100	0.000274	2.744610	0.464950	-0.000027
1202	1.1950e+02	8.0465	15.512623	0.000266	2.662682	0.451071	-0.000027
1203	1.1960e+02	8.0352	15.489404	0.000233	2.334967	0.395554	-0.000023
1204	1.1970e+02	8.0251	15.465778	0.000238	2.375931	0.402494	-0.000024
1205	1.1980e+02	8.0118	15.441338	0.000246	2.457860	0.416373	-0.000025
1206	1.1990e+02	8.0036	15.416083	0.000254	2.539789	0.430252	-0.000025
1207	1.2000e+02	7.9951	15.391235	0.000250	2.498824	0.423312	-0.000025
1208	1.2010e+02	7.9841	15.370868	0.000205	2.048217	0.346977	-0.000020
1209	1.2020e+02	7.9733	15.343576	0.000274	2.744610	0.464950	-0.000027
1210	1.2030e+02	7.9667	15.321172	0.000225	2.253038	0.381675	-0.000023
1211	1.2039e+02	7.9556	15.298768	0.000225	2.253038	0.381675	-0.000023
1212	1.2049e+02	7.9464	15.271069	0.000279	2.785575	0.471889	-0.000028
1213	1.2059e+02	7.9353	15.245406	0.000258	2.580753	0.437191	-0.000026
1214	1.2069e+02	7.9256	15.218114	0.000274	2.744610	0.464950	-0.000027
1215	1.2079e+02	7.9157	15.189193	0.000291	2.908468	0.492708	-0.000029
1216	1.2089e+02	7.9073	15.164345	0.000250	2.498824	0.423312	-0.000025
1217	1.2099e+02	7.8931	15.138682	0.000258	2.580753	0.437191	-0.000026
1218	1.2109e+02	7.8859	15.110168	0.000287	2.867503	0.485768	-0.000029
1219	1.2119e+02	7.8750	15.083284	0.000270	2.703646	0.458010	-0.000027
1220	1.2129e+02	7.8687	15.059658	0.000238	2.375931	0.402494	-0.000024
1221	1.2139e+02	7.8568	15.033588	0.000262	2.621717	0.444131	-0.000026
1222	1.2149e+02	7.8461	15.009147	0.000246	2.457860	0.416373	-0.000025
1223	1.2159e+02	7.8356	14.987558	0.000217	2.171110	0.367796	-0.000022
1224	1.2169e+02	7.8260	14.961081	0.000266	2.662682	0.451071	-0.000027
1225	1.2179e+02	7.8152	14.937048	0.000242	2.416896	0.409433	-0.000024
1226	1.2189e+02	7.8060	14.910978	0.000262	2.621717	0.444131	-0.000026
1227	1.2199e+02	7.7984	14.884093	0.000270	2.703646	0.458010	-0.000027
1228	1.2209e+02	7.7859	14.860875	0.000233	2.334967	0.395554	-0.000023
1229	1.2219e+02	7.7759	14.832361	0.000287	2.867503	0.485768	-0.000029
1230	1.2229e+02	7.7657	14.808327	0.000242	2.416896	0.409433	-0.000024
1231	1.2239e+02	7.7579	14.785109	0.000233	2.334967	0.395554	-0.000023
1232	1.2248e+02	7.7456	14.756595	0.000287	2.867503	0.485768	-0.000029
1233	1.2258e+02	7.7332	14.733784	0.000229	2.294003	0.388615	-0.000023
1234	1.2268e+02	7.7267	14.714231	0.000197	1.966288	0.333098	-0.000020
1235	1.2278e+02	7.7131	14.692235	0.000221	2.212074	0.374735	-0.000022
1236	1.2288e+02	7.7045	14.667387	0.000250	2.498824	0.423312	-0.000025
1237	1.2298e+02	7.6971	14.641724	0.000258	2.580753	0.437191	-0.000026
1238	1.2308e+02	7.6847	14.616876	0.000250	2.498824	0.423312	-0.000025
1239	1.2318e+02	7.6765	14.594065	0.000229	2.294003	0.388615	-0.000023
1240	1.2328e+02	7.6678	14.572069	0.000221	2.212074	0.374735	-0.000022
1241	1.2338e+02	7.6575	14.543147	0.000291	2.908468	0.492708	-0.000029
1242	1.2348e+02	7.6474	14.518300	0.000250	2.498824	0.423312	-0.000025
1243	1.2358e+02	7.6373	14.492230	0.000262	2.621717	0.444131	-0.000026
1244	1.2368e+02	7.6235	14.470640	0.000217	2.171110	0.367796	-0.000022
1245	1.2378e+02	7.6181	14.444163	0.000266	2.662682	0.451071	-0.000027
1246	1.2388e+02	7.6060	14.418093	0.000262	2.621717	0.444131	-0.000026
1247	1.2398e+02	7.5974	14.392431	0.000258	2.580753	0.437191	-0.000026
1248	1.2408e+02	7.5887	14.366361	0.000262	2.621717	0.444131	-0.000026
1249	1.2418e+02	7.5774	14.341513	0.000250	2.498824	0.423312	-0.000025
1250	1.2428e+02	7.5665	14.315850	0.000258	2.580753	0.437191	-0.000026
1251	1.2438e+02	7.5584	14.284485	0.000315	3.154254	0.534345	-0.000032
1252	1.2447e+02	7.5472	14.265747	0.000188	1.884359	0.319219	-0.000019
1253	1.2457e+02	7.5382	14.236011	0.000299	2.990396	0.506587	-0.000030
1254	1.2467e+02	7.5240	14.212385	0.000238	2.375931	0.402494	-0.000024
1255	1.2477e+02	7.5178	14.185908	0.000266	2.662682	0.451071	-0.000027
1256	1.2487e+02	7.5090	14.156987	0.000291	2.908468	0.492708	-0.000029
1257	1.2497e+02	7.4978	14.135805	0.000213	2.130145	0.360856	-0.000021
1258	1.2507e+02	7.4897	14.108513	0.000274	2.744610	0.464950	-0.000027
1259	1.2517e+02	7.4792	14.081628	0.000270	2.703646	0.458010	-0.000027
1260	1.2527e+02	7.4692	14.053522	0.000283	2.826539	0.478829	-0.000028
1261	1.2537e+02	7.4587	14.029488	0.000242	2.416896	0.409433	-0.000024
1262	1.2547e+02	7.4482	14.002197	0.000274	2.744610	0.464950	-0.000027
1263	1.2557e+02	7.4384	13.978571	0.000238	2.375931	0.402494	-0.000024
1264	1.2567e+02	7.4259	13.950871	0.000279	2.785575	0.471889	-0.000028
1265	1.2577e+02	7.4187	13.927246	0.000238	2.375931	0.402494	-0.000024
1266	1.2587e+02	7.4090	13.899546	0.000279	2.785575	0.471889	-0.000028
1267	1.2597e+02	7.3967	13.872662	0.000270	2.703646	0.458010	-0.000027
1268	1.2607e+02	7.3878	13.846999	0.000258	2.580753	0.437191	-0.000026
1269	1.2617e+02	7.3768	13.823373	0.000238	2.375931	0.402494	-0.000024
1270	1.2627e+02	7.3669	13.796896	0.000266	2.662682	0.451071	-0.000027
1271	1.2636e+02	7.3600	13.771233	0.000258	2.580753	0.437191	-0.000026
1272	1.2646e+02	7.3476	13.742719	0.000287	2.867503	0.485768	-0.000029
1273	1.2656e+02	7.3389	13.716649	0.000262	2.621717	0.444131	-0.000026
1274	1.2666e+02	7.3259	13.687728	0.000291	2.908468	0.492708	-0.000029
1275	1.2676e+02	7.3193	13.661251	0.000266	2.662682	0.451071	-0.000027
1276	1.2686e+02	7.3082	13.634774	0.000266	2.662682	0.451071	-0.000027
1277	1.2696e+02	7.2964	13.610740	0.000242	2.416896	0.409433	-0.000024
1278	1.2706e+02	7.2910	13.584670	0.000262	2.621717	0.444131	-0.000026
1279	1.2716e+02	7.2794	13.556971	0.000279	2.785575	0.471889	-0.000028
1280	1.2726e+02	7.2672	13.530494	0.000266	2.662682	0.451071	-0.000027
1281	1.2736e+02	7.2588	13.502795	0.000279	2.785575	0.471889	-0.000028
1282	1.2746e+02	7.2515	13.474281	0.000287	2.867503	0.485768	-0.000029
1283	1.2756e+02	7.2398	13.448618	0.000258	2.580753	0.437191	-0.000026
1284	1.2766e+02	7.2301	13.424177	0.000246	2.457860	0.416373	-0.000025
1285	1.2776e+02	7.2204	13.398108	0.000262	2.621717	0.444131	-0.000026
1286	1.2786e+02	7.2121	13.371223	0.000270	2.703646	0.458010	-0.000027
1287	1.2796e+02	7.2015	13.343524	0.000279	2.785575	0.471889	-0.000028
1288	1.2806e+02	7.1922	13.320712	0.000229	2.294003	0.388615	-0.000023
1289	1.2816e+02	7.1800	13.290976	0.000299	2.990396	0.506587	-0.000030
1290	1.2826e+02	7.1697	13.262870	0.000283	2.826539	0.478829	-0.000028
1291	1.2835e+02	7.1600	13.233541	0.000295	2.949432	0.499647	-0.000029
1292	1.2845e+02	7.1499	13.209101	0.000246	2.457860	0.416373	-0.000025
1293	1.2855e+02	7.1395	13.180587	0.000287	2.867503	0.485768	-0.000029
1294	1.2865e+02	7.1276	13.156146	0.000246	2.457860	0.416373	-0.000025
1295	1.2875e+02	7.1221	13.130483	0.000258	2.580753	0.437191	-0.000026
1296	1.2885e+02	7.1114	13.104414	0.000262	2.621717	0.444131	-0.000026
1297	1.2895e+02	7.0980	13.075085	0.000295	2.949432	0.499647	-0.000029
1298	1.2905e+02	7.0901	13.052274	0.000229	2.294003	0.388615	-0.000023
1299	1.2915e+02	7.0802	13.029055	0.000233	2.334967	0.395554	-0.000023
1300	1.2925e+02	7.0708	13.002171	0.000270	2.703646	0.458010	-0.000027
1301	1.2935e+02	7.0568	12.974879	0.000274	2.744610	0.464950	-0.000027
1302	1.2945e+02	7.0499	12.949623	0.000254	2.539789	0.430252	-0.000025
1303	1.2955e+02	7.0452	12.924775	0.000250	2.498824	0.423312	-0.000025
1304	1.2965e+02	7.0300	12.897891	0.000270	2.703646	0.458010	-0.000027
1305	1.2975e+02	7.0218	12.870192	0.000279	2.785575	0.471889	-0.000028
1306	1.2985e+02	7.0091	12.839234	0.000311	3.113289	0.527406	-0.000031
1307	1.2995e+02	7.0004	12.809498	0.000299	2.990396	0.506587	-0.000030
1308	1.3005e+02	6.9910	12.785057	0.000246	2.457860	0.416373	-0.000025
1309	1.3015e+02	6.9807	12.758580	0.000266	2.662682	0.451071	-0.000027
1310	1.3025e+02	6.9715	12.733732	0.000250	2.498824	0.423312	-0.000025
1311	1.3034e+02	6.9592	12.702366	0.000315	3.154254	0.534345	-0.000032
1312	1.3044e+02	6.9494	12.677519	0.000250	2.498824	0.423312	-0.000025
1313	1.3054e+02	6.9434	12.649819	0.000279	2.785575	0.471889	-0.000028
1314	1.3064e+02	6.9324	12.622935	0.000270	2.703646	0.458010	-0.000027
1315	1.3074e+02	6.9199	12.594828	0.000283	2.826539	0.478829	-0.000028
1316	1.3084e+02	6.9108	12.563463	0.000315	3.154254	0.534345	-0.000032
1317	1.3094e+02	6.8983	12.536578	0.000270	2.703646	0.458010	-0.000027
1318	1.3104e+02	6.8890	12.502361	0.000344	3.441004	0.582922	-0.000034
1319	1.3114e+02	6.8801	12.477106	0.000254	2.539789	0.430252	-0.000025
1320	1.3124e+02	6.8691	12.447370	0.000299	2.990396	0.506587	-0.000030
1321	1.3134e+02	6.8618	12.415597	0.000320	3.195218	0.541285	-0.000032
1322	1.3144e+02	6.8523	12.387491	0.000283	2.826539	0.478829	-0.000028
1323	1.3154e+02	6.8426	12.360606	0.000270	2.703646	0.458010	-0.000027
1324	1.3164e+02	6.8307	12.331685	0.000291	2.908468	0.492708	-0.000029
1325	1.3174e+02	6.8196	12.304800	0.000270	2.703646	0.458010	-0.000027
1326	1.3184e+02	6.8084	12.276693	0.000283	2.826539	0.478829	-0.000028
1327	1.3194e+02	6.8015	12.250216	0.000266	2.662682	0.451071	-0.000027
1328	1.3204e+02	6.7931	12.218444	0.000320	3.195218	0.541285	-0.000032
1329	1.3214e+02	6.7794	12.191152	0.000274	2.744610	0.464950	-0.000027
1330	1.3224e+02	6.7733	12.165082	0.000262	2.621717	0.444131	-0.000026
1331	1.3234e+02	6.7627	12.133716	0.000315	3.154254	0.534345	-0.000032
1332	1.3243e+02	6.7522	12.107239	0.000266	2.662682	0.451071	-0.000027
1333	1.3253e+02	6.7414	12.080762	0.000266	2.662682	0.451071	-0.000027
1334	1.3263e+02	6.7331	12.054284	0.000266	2.662682	0.451071	-0.000027
1335	1.3273e+02	6.7237	12.021290	0.000332	3.318111	0.562103	-0.000033
1336	1.3283e+02	6.7083	11.997664	0.000238	2.375931	0.402494	-0.000024
1337	1.3293e+02	6.6982	11.966298	0.000315	3.154254	0.534345	-0.000032
1338	1.3303e+02	6.6908	11.938599	0.000279	2.785575	0.471889	-0.000028
1339	1.3313e+02	6.6843	11.903568	0.000352	3.522933	0.596801	-0.000035
1340	1.3323e+02	6.6712	11.882386	0.000213	2.130145	0.360856	-0.000021
1341	1.3333e+02	6.6640	11.855909	0.000266	2.662682	0.451071	-0.000027
1342	1.3343e+02	6.6518	11.821692	0.000344	3.441004	0.582922	-0.000034
1343	1.3353e+02	6.6415	11.796844	0.000250	2.498824	0.423312	-0.000025
1344	1.3363e+02	6.6310	11.766701	0.000303	3.031361	0.513526	-0.000030
1345	1.3373e+02	6.6227	11.739409	0.000274	2.744610	0.464950	-0.000027
1346	1.3383e+02	6.6134	11.708451	0.000311	3.113289	0.527406	-0.000031
1347	1.3393e+02	6.6042	11.682381	0.000262	2.621717	0.444131	-0.000026
1348	1.3403e+02	6.5939	11.656311	0.000262	2.621717	0.444131	-0.000026
1349	1.3413e+02	6.5819	11.624538	0.000320	3.195218	0.541285	-0.000032
1350	1.3423e+02	6.5731	11.597653	0.000270	2.703646	0.458010	-0.000027
1351	1.3432e+02	6.5617	11.568325	0.000295	2.949432	0.499647	-0.000029
1352	1.3442e+02	6.5539	11.538996	0.000295	2.949432	0.499647	-0.000029
1353	1.3452e+02	6.5426	11.510482	0.000287	2.867503	0.485768	-0.000029
1354	1.3462e+02	6.5316	11.477895	0.000328	3.277147	0.555164	-0.000033
1355	1.3472e+02	6.5224	11.451010	0.000270	2.703646	0.458010	-0.000027
1356	1.3482e+02	6.5124	11.422904	0.000283	2.826539	0.478829	-0.000028
1357	1.3492e+02	6.5040	11.394390	0.000287	2.867503	0.485768	-0.000029
1358	1.3502e+02	6.4924	11.365061	0.000295	2.949432	0.499647	-0.000029
1359	1.3512e+02	6.4824	11.339398	0.000258	2.580753	0.437191	-0.000026
1360	1.3522e+02	6.4706	11.308848	0.000307	3.072325	0.520466	-0.000031
1361	1.3532e+02	6.4602	11.281556	0.000274	2.744610	0.464950	-0.000027
1362	1.3542e+02	6.4527	11.253856	0.000279	2.785575	0.471889	-0.000028
1363	1.3552e+02	6.4433	11.224935	0.000291	2.908468	0.492708	-0.000029
1364	1.3562e+02	6.4336	11.195199	0.000299	2.990396	0.506587	-0.000030
1365	1.3572e+02	6.4245	11.167500	0.000279	2.785575	0.471889	-0.000028
1366	1.3582e+02	6.4130	11.138578	0.000291	2.908468	0.492708	-0.000029
1367	1.3592e+02	6.4039	11.112101	0.000266	2.662682	0.451071	-0.000027
1368	1.3602e+02	6.3917	11.082772	0.000295	2.949432	0.499647	-0.000029
1369	1.3612e+02	6.3830	11.051000	0.000320	3.195218	0.541285	-0.000032
1370	1.3622e+02	6.3737	11.020042	0.000311	3.113289	0.527406	-0.000031
1371	1.3631e+02	6.3631	10.991935	0.000283	2.826539	0.478829	-0.000028
1372	1.3641e+02	6.3528	10.962606	0.000295	2.949432	0.499647	-0.000029
1373	1.3651e+02	6.3428	10.934500	0.000283	2.826539	0.478829	-0.000028
1374	1.3661e+02	6.3331	10.906393	0.000283	2.826539	0.478829	-0.000028
1375	1.3671e+02	6.3242	10.879916	0.000266	2.662682	0.451071	-0.000027
1376	1.3681e+02	6.3127	10.848958	0.000311	3.113289	0.527406	-0.000031
1377	1.3691e+02	6.3046	10.819629	0.000295	2.949432	0.499647	-0.000029
1378	1.3701e+02	6.2954	10.791523	0.000283	2.826539	0.478829	-0.000028
1379	1.3711e+02	6.2865	10.761379	0.000303	3.031361	0.513526	-0.000030
1380	1.3721e+02	6.2745	10.732865	0.000287	2.867503	0.485768	-0.000029
1381	1.3731e+02	6.2649	10.704759	0.000283	2.826539	0.478829	-0.000028
1382	1.3741e+02	6.2565	10.668912	0.000360	3.604862	0.610680	-0.000036
1383	1.3751e+02	6.2465	10.638769	0.000303	3.031361	0.513526	-0.000030
1384	1.3761e+02	6.2331	10.606589	0.000324	3.236183	0.548224	-0.000032
1385	1.3771e+02	6.2261	10.578075	0.000287	2.867503	0.485768	-0.000029
1386	1.3781e+02	6.2147	10.547117	0.000311	3.113289	0.527406	-0.000031
1387	1.3791e+02	6.2029	10.514530	0.000328	3.277147	0.555164	-0.000033
1388	1.3801e+02	6.1962	10.490496	0.000242	2.416896	0.409433	-0.000024
1389	1.3811e+02	6.1843	10.458316	0.000324	3.236183	0.548224	-0.000032
1390	1.3821e+02	6.1744	10.431432	0.000270	2.703646	0.458010	-0.000027
1391	1.3831e+02	6.1642	10.402510	0.000291	2.908468	0.492708	-0.000029
1392	1.3840e+02	6.1530	10.370738	0.000320	3.195218	0.541285	-0.000032
1393	1.3850e+02	6.1439	10.343446	0.000274	2.744610	0.464950	-0.000027
1394	1.3860e+02	6.1340	10.316561	0.000270	2.703646	0.458010	-0.000027
1395	1.3870e+02	6.1260	10.287232	0.000295	2.949432	0.499647	-0.000029
1396	1.3880e+02	6.1160	10.254238	0.000332	3.318111	0.562103	-0.000033
1397	1.3890e+02	6.1047	10.226946	0.000274	2.744610	0.464950	-0.000027
1398	1.3900e+02	6.0938	10.196395	0.000307	3.072325	0.520466	-0.000031
1399	1.3910e+02	6.0822	10.165437	0.000311	3.113289	0.527406	-0.000031
1400	1.3920e+02	6.0751	10.138960	0.000266	2.662682	0.451071	-0.000027
1401	1.3930e+02	6.0654	10.113297	0.000258	2.580753	0.437191	-0.000026
1402	1.3940e+02	6.0547	10.085191	0.000283	2.826539	0.478829	-0.000028
1403	1.3950e+02	6.0468	10.055047	0.000303	3.031361	0.513526	-0.000030
1404	1.3960e+02	6.0361	10.028163	0.000270	2.703646	0.458010	-0.000027
1405	1.3970e+02	6.0262	10.001685	0.000266	2.662682	0.451071	-0.000027
1406	1.3980e+02	6.0165	9.971542	0.000303	3.031361	0.513526	-0.000030
1407	1.3990e+02	6.0033	9.942213	0.000295	2.949432	0.499647	-0.000029
1408	1.4000e+02	5.9975	9.915329	0.000270	2.703646	0.458010	-0.000027
1409	1.4010e+02	5.9824	9.882741	0.000328	3.277147	0.555164	-0.000033
1410	1.4020e+02	5.9756	9.857486	0.000254	2.539789	0.430252	-0.000025
1411	1.4029e+02	5.9676	9.826121	0.000315	3.154254	0.534345	-0.000032
1412	1.4039e+02	5.9578	9.797607	0.000287	2.867503	0.485768	-0.000029
1413	1.4049e+02	5.9464	9.770722	0.000270	2.703646	0.458010	-0.000027
1414	1.4059e+02	5.9396	9.736913	0.000340	3.400040	0.575982	-0.000034
1415	1.4069e+02	5.9277	9.705547	0.000315	3.154254	0.534345	-0.000032
1416	1.4079e+02	5.9133	9.677441	0.000283	2.826539	0.478829	-0.000028
1417	1.4089e+02	5.9046	9.651371	0.000262	2.621717	0.444131	-0.000026
1418	1.4099e+02	5.8958	9.616339	0.000352	3.522933	0.596801	-0.000035
1419	1.4109e+02	5.8858	9.588233	0.000283	2.826539	0.478829	-0.000028
1420	1.4119e+02	5.8790	9.559311	0.000291	2.908468	0.492708	-0.000029
1421	1.4129e+02	5.8666	9.525909	0.000336	3.359076	0.569043	-0.000034
1422	1.4139e+02	5.8561	9.495359	0.000307	3.072325	0.520466	-0.000031
1423	1.4149e+02	5.8477	9.466030	0.000295	2.949432	0.499647	-0.000029
1424	1.4159e+02	5.8337	9.440775	0.000254	2.539789	0.430252	-0.000025
1425	1.4169e+02	5.8231	9.408595	0.000324	3.236183	0.548224	-0.000032
1426	1.4179e+02	5.8150	9.376007	0.000328	3.277147	0.555164	-0.000033
1427	1.4189e+02	5.8083	9.347493	0.000287	2.867503	0.485768	-0.000029
1428	1.4199e+02	5.7966	9.317757	0.000299	2.990396	0.506587	-0.000030
1429	1.4209e+02	5.7862	9.285984	0.000320	3.195218	0.541285	-0.000032
1430	1.4219e+02	5.7778	9.255841	0.000303	3.031361	0.513526	-0.000030
1431	1.4228e+02	5.7677	9.224883	0.000311	3.113289	0.527406	-0.000031
1432	1.4238e+02	5.7582	9.194740	0.000303	3.031361	0.513526	-0.000030
1433	1.4248e+02	5.7497	9.167040	0.000279	2.785575	0.471889	-0.000028
1434	1.4258e+02	5.7381	9.136082	0.000311	3.113289	0.527406	-0.000031
1435	1.4268e+02	5.7287	9.109605	0.000266	2.662682	0.451071	-0.000027
1436	1.4278e+02	5.7194	9.078647	0.000311	3.113289	0.527406	-0.000031
1437	1.4288e+02	5.7080	9.049726	0.000291	2.908468	0.492708	-0.000029
1438	1.4298e+02	5.6966	9.015509	0.000344	3.441004	0.582922	-0.000034
1439	1.4308e+02	5.6860	8.986180	0.000295	2.949432	0.499647	-0.000029
1440	1.4318e+02	5.6779	8.958074	0.000283	2.826539	0.478829	-0.000028
1441	1.4328e+02	5.6686	8.926301	0.000320	3.195218	0.541285	-0.000032
1442	1.4338e+02	5.6577	8.894121	0.000324	3.236183	0.548224	-0.000032
1443	1.4348e+02	5.6472	8.866014	0.000283	2.826539	0.478829	-0.000028
1444	1.4358e+02	5.6397	8.835056	0.000311	3.113289	0.527406	-0.000031
1445	1.4368e+02	5.6278	8.802469	0.000328	3.277147	0.555164	-0.000033
1446	1.4378e+02	5.6167	8.771918	0.000307	3.072325	0.520466	-0.000031
1447	1.4388e+02	5.6077	8.737294	0.000348	3.481969	0.589861	-0.000035
1448	1.4398e+02	5.5975	8.707151	0.000303	3.031361	0.513526	-0.000030
1449	1.4408e+02	5.5849	8.677822	0.000295	2.949432	0.499647	-0.000029
1450	1.4418e+02	5.5776	8.646864	0.000311	3.113289	0.527406	-0.000031
1451	1.4428e+02	5.5685	8.618757	0.000283	2.826539	0.478829	-0.000028
1452	1.4437e+02	5.5585	8.586577	0.000324	3.236183	0.548224	-0.000032
1453	1.4447e+02	5.5518	8.555212	0.000315	3.154254	0.534345	-0.000032
1454	1.4457e+02	5.5381	8.522217	0.000332	3.318111	0.562103	-0.000033
1455	1.4467e+02	5.5297	8.495333	0.000270	2.703646	0.458010	-0.000027
1456	1.4477e+02	5.5177	8.462338	0.000332	3.318111	0.562103	-0.000033
1457	1.4487e+02	5.5074	8.433824	0.000287	2.867503	0.485768	-0.000029
1458	1.4497e+02	5.4989	8.402458	0.000315	3.154254	0.534345	-0.000032
1459	1.4507e+02	5.4870	8.370686	0.000320	3.195218	0.541285	-0.000032
1460	1.4517e+02	5.4774	8.340542	0.000303	3.031361	0.513526	-0.000030
1461	1.4527e+02	5.4691	8.307955	0.000328	3.277147	0.555164	-0.000033
1462	1.4537e+02	5.4569	8.273738	0.000344	3.441004	0.582922	-0.000034
1463	1.4547e+02	5.4475	8.243188	0.000307	3.072325	0.520466	-0.000031
1464	1.4557e+02	5.4388	8.215081	0.000283	2.826539	0.478829	-0.000028
1465	1.4567e+02	5.4248	8.186160	0.000291	2.908468	0.492708	-0.000029
1466	1.4577e+02	5.4199	8.156424	0.000299	2.990396	0.506587	-0.000030
1467	1.4587e+02	5.4101	8.129539	0.000270	2.703646	0.458010	-0.000027
1468	1.4597e+02	5.3994	8.099396	0.000303	3.031361	0.513526	-0.000030
1469	1.4607e+02	5.3883	8.068030	0.000315	3.154254	0.534345	-0.000032
1470	1.4617e+02	5.3790	8.038702	0.000295	2.949432	0.499647	-0.000029
1471	1.4626e+02	5.3698	8.009373	0.000295	2.949432	0.499647	-0.000029
1472	1.4636e+02	5.3564	7.976786	0.000328	3.277147	0.555164	-0.000033
1473	1.4646e+02	5.3487	7.943383	0.000336	3.359076	0.569043	-0.000034
1474	1.4656e+02	5.3381	7.911611	0.000320	3.195218	0.541285	-0.000032
1475	1.4666e+02	5.3313	7.881875	0.000299	2.990396	0.506587	-0.000030
1476	1.4676e+02	5.3176	7.847658	0.000344	3.441004	0.582922	-0.000034
1477	1.4686e+02	5.3066	7.817922	0.000299	2.990396	0.506587	-0.000030
1478	1.4696e+02	5.2990	7.786149	0.000320	3.195218	0.541285	-0.000032
1479	1.4706e+02	5.2868	7.753969	0.000324	3.236183	0.548224	-0.000032
1480	1.4716e+02	5.2788	7.723418	0.000307	3.072325	0.520466	-0.000031
1481	1.4726e+02	5.2679	7.692460	0.000311	3.113289	0.527406	-0.000031
1482	1.4736e+02	5.2608	7.662317	0.000303	3.031361	0.513526	-0.000030
1483	1.4746e+02	5.2514	7.630137	0.000324	3.236183	0.548224	-0.000032
1484	1.4756e+02	5.2374	7.594698	0.000356	3.563897	0.603741	-0.000036
1485	1.4766e+02	5.2299	7.560074	0.000348	3.481969	0.589861	-0.000035
1486	1.4776e+02	5.2195	7.525043	0.000352	3.522933	0.596801	-0.000035
1487	1.4786e+02	5.2091	7.491233	0.000340	3.400040	0.575982	-0.000034
1488	1.4796e+02	5.2007	7.459053	0.000324	3.236183	0.548224	-0.000032
1489	1.4806e+02	5.1883	7.422800	0.000365	3.645826	0.617620	-0.000036
1490	1.4816e+02	5.1797	7.393878	0.000291	2.908468	0.492708	-0.000029
1491	1.4825e+02	5.1690	7.360476	0.000336	3.359076	0.569043	-0.000034
1492	1.4835e+02	5.1643	7.331962	0.000287	2.867503	0.485768	-0.000029
1493	1.4845e+02	5.1519	7.297745	0.000344	3.441004	0.582922	-0.000034
1494	1.4855e+02	5.1409	7.265565	0.000324	3.236183	0.548224	-0.000032
1495	1.4865e+02	5.1299	7.236237	0.000295	2.949432	0.499647	-0.000029
1496	1.4875e+02	5.1200	7.202020	0.000344	3.441004	0.582922	-0.000034
1497	1.4885e+02	5.1102	7.167803	0.000344	3.441004	0.582922	-0.000034
1498	1.4895e+02	5.0996	7.138882	0.000291	2.908468	0.492708	-0.000029
1499	1.4905e+02	5.0918	7.106294	0.000328	3.277147	0.555164	-0.000033
1500	1.4915e+02	5.0830	7.068819	0.000377	3.768719	0.638438	-0.000038
1501	1.4925e+02	5.0677	7.037046	0.000320	3.195218	0.541285	-0.000032
1502	1.4935e+02	5.0610	7.006088	0.000311	3.113289	0.527406	-0.000031
1503	1.4945e+02	5.0510	6.975130	0.000311	3.113289	0.527406	-0.000031
1504	1.4955e+02	5.0401	6.943765	0.000315	3.154254	0.534345	-0.000032
1505	1.4965e+02	5.0280	6.910363	0.000336	3.359076	0.569043	-0.000034
1506	1.4975e+02	5.0187	6.881034	0.000295	2.949432	0.499647	-0.000029
1507	1.4985e+02	5.0098	6.843966	0.000373	3.727755	0.631499	-0.000037
1508	1.4995e+02	5.0010	6.812193	0.000320	3.195218	0.541285	-0.000032
1509	1.5005e+02	4.9912	6.777976	0.000344	3.441004	0.582922	-0.000034
1510	1.5015e+02	4.9819	6.745389	0.000328	3.277147	0.555164	-0.000033
1511	1.5025e+02	4.9692	6.711172	0.000344	3.441004	0.582922	-0.000034
1512	1.5034e+02	4.9625	6.680214	0.000311	3.113289	0.527406	-0.000031
1513	1.5044e+02	4.9488	6.648034	0.000324	3.236183	0.548224	-0.000032
1514	1.5054e+02	4.9403	6.618705	0.000295	2.949432	0.499647	-0.000029
1515	1.5064e+02	4.9352	6.585711	0.000332	3.318111	0.562103	-0.000033
1516	1.5074e+02	4.9229	6.549457	0.000365	3.645826	0.617620	-0.000036
1517	1.5084e+02	4.9120	6.516462	0.000332	3.318111	0.562103	-0.000033
1518	1.5094e+02	4.9029	6.485912	0.000307	3.072325	0.520466	-0.000031
1519	1.5104e+02	4.8936	6.450880	0.000352	3.522933	0.596801	-0.000035
1520	1.5114e+02	4.8840	6.419515	0.000315	3.154254	0.534345	-0.000032
1521	1.5124e+02	4.8733	6.384891	0.000348	3.481969	0.589861	-0.000035
1522	1.5134e+02	4.8623	6.349859	0.000352	3.522933	0.596801	-0.000035
1523	1.5144e+02	4.8497	6.316865	0.000332	3.318111	0.562103	-0.000033
1524	1.5154e+02	4.8415	6.284277	0.000328	3.277147	0.555164	-0.000033
1525	1.5164e+02	4.8292	6.250875	0.000336	3.359076	0.569043	-0.000034
1526	1.5174e+02	4.8196	6.223176	0.000279	2.785575	0.471889	-0.000028
1527	1.5184e+02	4.8083	6.189774	0.000336	3.359076	0.569043	-0.000034
1528	1.5194e+02	4.8046	6.157594	0.000324	3.236183	0.548224	-0.000032
1529	1.5204e+02	4.7908	6.125006	0.000328	3.277147	0.555164	-0.000033
1530	1.5214e+02	4.7829	6.089975	0.000352	3.522933	0.596801	-0.000035
1531	1.5224e+02	4.7752	6.053721	0.000365	3.645826	0.617620	-0.000036
1532	1.5233e+02	4.7656	6.024800	0.000291	2.908468	0.492708	-0.000029
1533	1.5243e+02	4.7515	5.992213	0.000328	3.277147	0.555164	-0.000033
1534	1.5253e+02	4.7404	5.957181	0.000352	3.522933	0.596801	-0.000035
1535	1.5263e+02	4.7329	5.921335	0.000360	3.604862	0.610680	-0.000036
1536	1.5273e+02	4.7218	5.891599	0.000299	2.990396	0.506587	-0.000030
1537	1.5283e+02	4.7124	5.856568	0.000352	3.522933	0.596801	-0.000035
1538	1.5293e+02	4.7050	5.824795	0.000320	3.195218	0.541285	-0.000032
1539	1.5303e+02	4.6954	5.792615	0.000324	3.236183	0.548224	-0.000032
1540	1.5313e+02	4.6799	5.759620	0.000332	3.318111	0.562103	-0.000033
1541	1.5323e+02	4.6738	5.724589	0.000352	3.522933	0.596801	-0.000035
1542	1.5333e+02	4.6636	5.689964	0.000348	3.481969	0.589861	-0.000035
1543	1.5343e+02	4.6530	5.661858	0.000283	2.826539	0.478829	-0.000028
1544	1.5353e+02	4.6424	5.624382	0.000377	3.768719	0.638438	-0.000038
1545	1.5363e+02	4.6317	5.593017	0.000315	3.154254	0.534345	-0.000032
1546	1.5373e+02	4.6243	5.558800	0.000344	3.441004	0.582922	-0.000034
1547	1.5383e+02	4.6102	5.524583	0.000344	3.441004	0.582922	-0.000034
1548	1.5393e+02	4.6017	5.491996	0.000328	3.277147	0.555164	-0.000033
1549	1.5403e+02	4.5902	5.457779	0.000344	3.441004	0.582922	-0.000034
1550	1.5413e+02	4.5820	5.419082	0.000389	3.891612	0.659257	-0.000039
1551	1.5422e+02	4.5730	5.382828	0.000365	3.645826	0.617620	-0.000036
1552	1.5432e+02	4.5633	5.346167	0.000369	3.686790	0.624559	-0.000037
1553	1.5442e+02	4.5535	5.311951	0.000344	3.441004	0.582922	-0.000034
1554	1.5452e+02	4.5415	5.273253	0.000389	3.891612	0.659257	-0.000039
1555	1.5462e+02	4.5335	5.240258	0.000332	3.318111	0.562103	-0.000033
1556	1.5472e+02	4.5239	5.205634	0.000348	3.481969	0.589861	-0.000035
1557	1.5482e+02	4.5141	5.178342	0.000274	2.744610	0.464950	-0.000027
1558	1.5492e+02	4.5058	5.143311	0.000352	3.522933	0.596801	-0.000035
1559	1.5502e+02	4.4940	5.112353	0.000311	3.113289	0.527406	-0.000031
1560	1.5512e+02	4.4817	5.078951	0.000336	3.359076	0.569043	-0.000034
1561	1.5522e+02	4.4714	5.045549	0.000336	3.359076	0.569043	-0.000034
1562	1.5532e+02	4.4634	5.009702	0.000360	3.604862	0.610680	-0.000036
1563	1.5542e+02	4.4528	4.973042	0.000369	3.686790	0.624559	-0.000037
1564	1.5552e+02	4.4433	4.938010	0.000352	3.522933	0.596801	-0.000035
1565	1.5562e+02	4.4337	4.902979	0.000352	3.522933	0.596801	-0.000035
1566	1.5572e+02	4.4225	4.872428	0.000307	3.072325	0.520466	-0.000031
1567	1.5582e+02	4.4166	4.839026	0.000336	3.359076	0.569043	-0.000034
1568	1.5592e+02	4.4037	4.810105	0.000291	2.908468	0.492708	-0.000029
1569	1.5602e+02	4.3943	4.772629	0.000377	3.768719	0.638438	-0.000038
1570	1.5612e+02	4.3792	4.746559	0.000262	2.621717	0.444131	-0.000026
1571	1.5622e+02	4.3737	4.715601	0.000311	3.113289	0.527406	-0.000031
1572	1.5631e+02	4.3629	4.679348	0.000365	3.645826	0.617620	-0.000036
1573	1.5641e+02	4.3523	4.647167	0.000324	3.236183	0.548224	-0.000032
1574	1.5651e+02	4.3446	4.612543	0.000348	3.481969	0.589861	-0.000035
1575	1.5661e+02	4.3320	4.579141	0.000336	3.359076	0.569043	-0.000034
1576	1.5671e+02	4.3240	4.541666	0.000377	3.768719	0.638438	-0.000038
1577	1.5681e+02	4.3139	4.511930	0.000299	2.990396	0.506587	-0.000030
1578	1.5691e+02	4.3039	4.476084	0.000360	3.604862	0.610680	-0.000036
1579	1.5701e+02	4.2939	4.443089	0.000332	3.318111	0.562103	-0.000033
1580	1.5711e+02	4.2834	4.410909	0.000324	3.236183	0.548224	-0.000032
1581	1.5721e+02	4.2744	4.377507	0.000336	3.359076	0.569043	-0.000034
1582	1.5731e+02	4.2649	4.339624	0.000381	3.809683	0.645378	-0.000038
1583	1.5741e+02	4.2551	4.309888	0.000299	2.990396	0.506587	-0.000030
1584	1.5751e+02	4.2459	4.272005	0.000381	3.809683	0.645378	-0.000038
1585	1.5761e+02	4.2332	4.234529	0.000377	3.768719	0.638438	-0.000038
1586	1.5771e+02	4.2245	4.200313	0.000344	3.441004	0.582922	-0.000034
1587	1.5781e+02	4.2133	4.164874	0.000356	3.563897	0.603741	-0.000036
1588	1.5791e+02	4.2063	4.130250	0.000348	3.481969	0.589861	-0.000035
1589	1.5801e+02	4.1935	4.095626	0.000348	3.481969	0.589861	-0.000035
1590	1.5811e+02	4.1833	4.064260	0.000315	3.154254	0.534345	-0.000032
1591	1.5821e+02	4.1766	4.032080	0.000324	3.236183	0.548224	-0.000032
1592	1.5830e+02	4.1637	3.995827	0.000365	3.645826	0.617620	-0.000036
1593	1.5840e+02	4.1522	3.962832	0.000332	3.318111	0.562103	-0.000033
1594	1.5850e+02	4.1415	3.925764	0.000373	3.727755	0.631499	-0.000037
1595	1.5860e+02	4.1350	3.887881	0.000381	3.809683	0.645378	-0.000038
1596	1.5870e+02	4.1241	3.854072	0.000340	3.400040	0.575982	-0.000034
1597	1.5880e+02	4.1180	3.821077	0.000332	3.318111	0.562103	-0.000033
1598	1.5890e+02	4.1094	3.784823	0.000365	3.645826	0.617620	-0.000036
1599	1.5900e+02	4.0922	3.751421	0.000336	3.359076	0.569043	-0.000034
1600	1.5910e+02	4.0852	3.717204	0.000344	3.441004	0.582922	-0.000034
1601	1.5920e+02	4.0746	3.681766	0.000356	3.563897	0.603741	-0.000036
1602	1.5930e+02	4.0645	3.644697	0.000373	3.727755	0.631499	-0.000037
1603	1.5940e+02	4.0568	3.617813	0.000270	2.703646	0.458010	-0.000027
1604	1.5950e+02	4.0441	3.577079	0.000410	4.096434	0.693955	-0.000041
1605	1.5960e+02	4.0340	3.545713	0.000315	3.154254	0.534345	-0.000032
1606	1.5970e+02	4.0260	3.511089	0.000348	3.481969	0.589861	-0.000035
1607	1.5980e+02	4.0136	3.475650	0.000356	3.563897	0.603741	-0.000036
1608	1.5990e+02	4.0034	3.438582	0.000373	3.727755	0.631499	-0.000037
1609	1.6000e+02	3.9964	3.404365	0.000344	3.441004	0.582922	-0.000034
1610	1.6010e+02	3.9846	3.369741	0.000348	3.481969	0.589861	-0.000035
1611	1.6019e+02	3.9745	3.333488	0.000365	3.645826	0.617620	-0.000036
1612	1.6029e+02	3.9646	3.294790	0.000389	3.891612	0.659257	-0.000039
1613	1.6039e+02	3.9583	3.261795	0.000332	3.318111	0.562103	-0.000033
1614	1.6049e+02	3.9480	3.222691	0.000393	3.932576	0.666196	-0.000039
1615	1.6059e+02	3.9355	3.188066	0.000348	3.481969	0.589861	-0.000035
1616	1.6069e+02	3.9247	3.153850	0.000344	3.441004	0.582922	-0.000034
1617	1.6079e+02	3.9175	3.118818	0.000352	3.522933	0.596801	-0.000035
1618	1.6089e+02	3.9069	3.083787	0.000352	3.522933	0.596801	-0.000035
1619	1.6099e+02	3.8956	3.049570	0.000344	3.441004	0.582922	-0.000034
1620	1.6109e+02	3.8866	3.011280	0.000385	3.850648	0.652317	-0.000038
1621	1.6119e+02	3.8775	2.977470	0.000340	3.400040	0.575982	-0.000034
1622	1.6129e+02	3.8630	2.939995	0.000377	3.768719	0.638438	-0.000038
1623	1.6139e+02	3.8549	2.903741	0.000365	3.645826	0.617620	-0.000036
1624	1.6149e+02	3.8464	2.866673	0.000373	3.727755	0.631499	-0.000037
1625	1.6159e+02	3.8347	2.832049	0.000348	3.481969	0.589861	-0.000035
1626	1.6169e+02	3.8264	2.794574	0.000377	3.768719	0.638438	-0.000038
1627	1.6179e+02	3.8166	2.761171	0.000336	3.359076	0.569043	-0.000034
1628	1.6189e+02	3.8065	2.724511	0.000369	3.686790	0.624559	-0.000037
1629	1.6199e+02	3.7952	2.687442	0.000373	3.727755	0.631499	-0.000037
1630	1.6209e+02	3.7835	2.652004	0.000356	3.563897	0.603741	-0.000036
1631	1.6219e+02	3.7783	2.619416	0.000328	3.277147	0.555164	-0.000033
1632	1.6228e+02	3.7670	2.583977	0.000356	3.563897	0.603741	-0.000036
1633	1.6238e+02	3.7545	2.553019	0.000311	3.113289	0.527406	-0.000031
1634	1.6248e+02	3.7475	2.515137	0.000381	3.809683	0.645378	-0.000038
1635	1.6258e+02	3.7365	2.481327	0.000340	3.400040	0.575982	-0.000034
1636	1.6268e+02	3.7269	2.449962	0.000315	3.154254	0.534345	-0.000032
1637	1.6278e+02	3.7167	2.413301	0.000369	3.686790	0.624559	-0.000037
1638	1.6288e+02	3.7055	2.381121	0.000324	3.236183	0.548224	-0.000032
1639	1.6298e+02	3.6992	2.342423	0.000389	3.891612	0.659257	-0.000039
1640	1.6308e+02	3.6874	2.305355	0.000373	3.727755	0.631499	-0.000037
1641	1.6318e+02	3.6788	2.265028	0.000406	4.055469	0.687015	-0.000041
1642	1.6328e+02	3.6657	2.228775	0.000365	3.645826	0.617620	-0.000036
1643	1.6338e+02	3.6578	2.192114	0.000369	3.686790	0.624559	-0.000037
1644	1.6348e+02	3.6464	2.156268	0.000360	3.604862	0.610680	-0.000036
1645	1.6358e+02	3.6361	2.121644	0.000348	3.481969	0.589861	-0.000035
1646	1.6368e+02	3.6272	2.082131	0.000397	3.973541	0.673136	-0.000040
1647	1.6378e+02	3.6198	2.047915	0.000344	3.441004	0.582922	-0.000034
1648	1.6388e+02	3.6068	2.012476	0.000356	3.563897	0.603741	-0.000036
1649	1.6398e+02	3.5989	1.976222	0.000365	3.645826	0.617620	-0.000036
1650	1.6408e+02	3.5876	1.940784	0.000356	3.563897	0.603741	-0.000036
1651	1.6418e+02	3.5784	1.900049	0.000410	4.096434	0.693955	-0.000041
1652	1.6427e+02	3.5670	1.859722	0.000406	4.055469	0.687015	-0.000041
1653	1.6437e+02	3.5583	1.822247	0.000377	3.768719	0.638438	-0.000038
1654	1.6447e+02	3.5493	1.781920	0.000406	4.055469	0.687015	-0.000041
1655	1.6457e+02	3.5368	1.742000	0.000401	4.014505	0.680076	-0.000040
1656	1.6467e+02	3.5272	1.706154	0.000360	3.604862	0.610680	-0.000036
1657	1.6477e+02	3.5163	1.670308	0.000360	3.604862	0.610680	-0.000036
1658	1.6487e+02	3.5078	1.630796	0.000397	3.973541	0.673136	-0.000040
1659	1.6497e+02	3.4982	1.593728	0.000373	3.727755	0.631499	-0.000037
1660	1.6507e+02	3.4886	1.555438	0.000385	3.850648	0.652317	-0.000038
1661	1.6517e+02	3.4772	1.518777	0.000369	3.686790	0.624559	-0.000037
1662	1.6527e+02	3.4682	1.482523	0.000365	3.645826	0.617620	-0.000036
1663	1.6537e+02	3.4603	1.444640	0.000381	3.809683	0.645378	-0.000038
1664	1.6547e+02	3.4522	1.407165	0.000377	3.768719	0.638438	-0.000038
1665	1.6557e+02	3.4396	1.367653	0.000397	3.973541	0.673136	-0.000040
1666	1.6567e+02	3.4270	1.329770	0.000381	3.809683	0.645378	-0.000038
1667	1.6577e+02	3.4184	1.294331	0.000356	3.563897	0.603741	-0.000036
1668	1.6587e+02	3.4069	1.256855	0.000377	3.768719	0.638438	-0.000038
1669	1.6597e+02	3.3967	1.218973	0.000381	3.809683	0.645378	-0.000038
1670	1.6607e+02	3.3887	1.181497	0.000377	3.768719	0.638438	-0.000038
1671	1.6616e+02	3.3812	1.146058	0.000356	3.563897	0.603741	-0.000036
1672	1.6626e+02	3.3685	1.108175	0.000381	3.809683	0.645378	-0.000038
1673	1.6636e+02	3.3584	1.071515	0.000369	3.686790	0.624559	-0.000037
1674	1.6646e+02	3.3508	1.031595	0.000401	4.014505	0.680076	-0.000040
1675	1.6656e+02	3.3379	0.994119	0.000377	3.768719	0.638438	-0.000038
1676	1.6666e+02	3.3264	0.953385	0.000410	4.096434	0.693955	-0.000041
1677	1.6676e+02	3.3201	0.917946	0.000356	3.563897	0.603741	-0.000036
1678	1.6686e+02	3.3070	0.880878	0.000373	3.727755	0.631499	-0.000037
1679	1.6696e+02	3.2967	0.840144	0.000410	4.096434	0.693955	-0.000041
1680	1.6706e+02	3.2900	0.804298	0.000360	3.604862	0.610680	-0.000036
1681	1.6716e+02	3.2806	0.765600	0.000389	3.891612	0.659257	-0.000039
1682	1.6726e+02	3.2705	0.727310	0.000385	3.850648	0.652317	-0.000038
1683	1.6736e+02	3.2571	0.690242	0.000373	3.727755	0.631499	-0.000037
1684	1.6746e+02	3.2487	0.649100	0.000414	4.137398	0.700894	-0.000041
1685	1.6756e+02	3.2394	0.612440	0.000369	3.686790	0.624559	-0.000037
1686	1.6766e+02	3.2317	0.575371	0.000373	3.727755	0.631499	-0.000037
1687	1.6776e+02	3.2207	0.533415	0.000422	4.219327	0.714773	-0.000042
1688	1.6786e+02	3.2081	0.495532	0.000381	3.809683	0.645378	-0.000038
1689	1.6796e+02	3.2018	0.458464	0.000373	3.727755	0.631499	-0.000037
1690	1.6806e+02	3.1868	0.414471	0.000442	4.424148	0.749471	-0.000044
1691	1.6816e+02	3.1786	0.381476	0.000332	3.318111	0.562103	-0.000033
1692	1.6825e+02	3.1689	0.341149	0.000406	4.055469	0.687015	-0.000041
1693	1.6835e+02	3.1603	0.306933	0.000344	3.441004	0.582922	-0.000034
1694	1.6845e+02	3.1495	0.267420	0.000397	3.973541	0.673136	-0.000040
1695	1.6855e+02	3.1400	0.230760	0.000369	3.686790	0.624559	-0.000037
1696	1.6865e+02	3.1293	0.192062	0.000389	3.891612	0.659257	-0.000039
1697	1.6875e+02	3.1192	0.152957	0.000393	3.932576	0.666196	-0.000039
1698	1.6885e+02	3.1099	0.118740	0.000344	3.441004	0.582922	-0.000034
1699	1.6895e+02	3.1005	0.079635	0.000393	3.932576	0.666196	-0.000039
1700	1.6905e+02	3.0910	0.038494	0.000414	4.137398	0.700894	-0.000041
1701	1.6915e+02	3.0802	0.000204	0.000385	3.850648	0.652317	-0.000038
1702	1.6925e+02	3.0688	-0.034828	0.000352	3.522933	0.596801	-0.000035
1703	1.6935e+02	3.0619	-0.076784	0.000422	4.219327	0.714773	-0.000042
1704	1.6945e+02	3.0515	-0.117111	0.000406	4.055469	0.687015	-0.000041
1705	1.6955e+02	3.0404	-0.154994	0.000381	3.809683	0.645378	-0.000038
1706	1.6965e+02	3.0309	-0.190840	0.000360	3.604862	0.610680	-0.000036
1707	1.6975e+02	3.0196	-0.234018	0.000434	4.342220	0.735592	-0.000043
1708	1.6985e+02	3.0109	-0.270679	0.000369	3.686790	0.624559	-0.000037
1709	1.6995e+02	3.0015	-0.307747	0.000373	3.727755	0.631499	-0.000037
1710	1.7005e+02	2.9911	-0.345630	0.000381	3.809683	0.645378	-0.000038
1711	1.7015e+02	2.9824	-0.383920	0.000385	3.850648	0.652317	-0.000038
1712	1.7024e+02	2.9693	-0.423433	0.000397	3.973541	0.673136	-0.000040
1713	1.7034e+02	2.9617	-0.462945	0.000397	3.973541	0.673136	-0.000040
1714	1.7044e+02	2.9511	-0.503679	0.000410	4.096434	0.693955	-0.000041
1715	1.7054e+02	2.9415	-0.541562	0.000381	3.809683	0.645378	-0.000038
1716	1.7064e+02	2.9305	-0.581889	0.000406	4.055469	0.687015	-0.000041
1717	1.7074e+02	2.9220	-0.625882	0.000442	4.424148	0.749471	-0.000044
1718	1.7084e+02	2.9114	-0.664987	0.000393	3.932576	0.666196	-0.000039
1719	1.7094e+02	2.9015	-0.707350	0.000426	4.260291	0.721713	-0.000043
1720	1.7104e+02	2.8913	-0.748492	0.000414	4.137398	0.700894	-0.000041
1721	1.7114e+02	2.8809	-0.789634	0.000414	4.137398	0.700894	-0.000041
1722	1.7124e+02	2.8704	-0.829146	0.000397	3.973541	0.673136	-0.000040
1723	1.7134e+02	2.8625	-0.865399	0.000365	3.645826	0.617620	-0.000036
1724	1.7144e+02	2.8511	-0.907356	0.000422	4.219327	0.714773	-0.000042
1725	1.7154e+02	2.8411	-0.946868	0.000397	3.973541	0.673136	-0.000040
1726	1.7164e+02	2.8308	-0.981492	0.000348	3.481969	0.589861	-0.000035
1727	1.7174e+02	2.8213	-1.023856	0.000426	4.260291	0.721713	-0.000043
1728	1.7184e+02	2.8143	-1.064590	0.000410	4.096434	0.693955	-0.000041
1729	1.7194e+02	2.8033	-1.102880	0.000385	3.850648	0.652317	-0.000038
1730	1.7204e+02	2.7932	-1.142800	0.000401	4.014505	0.680076	-0.000040
1731	1.7213e+02	2.7840	-1.181090	0.000385	3.850648	0.652317	-0.000038
1732	1.7223e+02	2.7719	-1.223861	0.000430	4.301255	0.728652	-0.000043
1733	1.7233e+02	2.7631	-1.263373	0.000397	3.973541	0.673136	-0.000040
1734	1.7243e+02	2.7514	-1.302885	0.000397	3.973541	0.673136	-0.000040
1735	1.7253e+02	2.7428	-1.341175	0.000385	3.850648	0.652317	-0.000038
1736	1.7263e+02	2.7328	-1.376207	0.000352	3.522933	0.596801	-0.000035
1737	1.7273e+02	2.7222	-1.415719	0.000397	3.973541	0.673136	-0.000040
1738	1.7283e+02	2.7099	-1.453195	0.000377	3.768719	0.638438	-0.000038
1739	1.7293e+02	2.7000	-1.488226	0.000352	3.522933	0.596801	-0.000035
1740	1.7303e+02	2.6922	-1.526109	0.000381	3.809683	0.645378	-0.000038
1741	1.7313e+02	2.6830	-1.566028	0.000401	4.014505	0.680076	-0.000040
1742	1.7323e+02	2.6709	-1.604726	0.000389	3.891612	0.659257	-0.000039
1743	1.7333e+02	2.6631	-1.643424	0.000389	3.891612	0.659257	-0.000039
1744	1.7343e+02	2.6545	-1.684972	0.000418	4.178362	0.707834	-0.000042
1745	1.7353e+02	2.6418	-1.723263	0.000385	3.850648	0.652317	-0.000038
1746	1.7363e+02	2.6360	-1.766034	0.000430	4.301255	0.728652	-0.000043
1747	1.7373e+02	2.6228	-1.804731	0.000389	3.891612	0.659257	-0.000039
1748	1.7383e+02	2.6125	-1.843021	0.000385	3.850648	0.652317	-0.000038
1749	1.7393e+02	2.6017	-1.882941	0.000401	4.014505	0.680076	-0.000040
1750	1.7403e+02	2.5937	-1.924490	0.000418	4.178362	0.707834	-0.000042
1751	1.7413e+02	2.5813	-1.962780	0.000385	3.850648	0.652317	-0.000038
1752	1.7422e+02	2.5707	-2.002292	0.000397	3.973541	0.673136	-0.000040
1753	1.7432e+02	2.5620	-2.047100	0.000451	4.506077	0.763350	-0.000045
1754	1.7442e+02	2.5528	-2.084983	0.000381	3.809683	0.645378	-0.000038
1755	1.7452e+02	2.5417	-2.126939	0.000422	4.219327	0.714773	-0.000042
1756	1.7462e+02	2.5329	-2.167266	0.000406	4.055469	0.687015	-0.000041
1757	1.7472e+02	2.5242	-2.208000	0.000410	4.096434	0.693955	-0.000041
1758	1.7482e+02	2.5131	-2.251586	0.000438	4.383184	0.742531	-0.000044
1759	1.7492e+02	2.5051	-2.287432	0.000360	3.604862	0.610680	-0.000036
1760	1.7502e+02	2.4915	-2.324093	0.000369	3.686790	0.624559	-0.000037
1761	1.7512e+02	2.4831	-2.366457	0.000426	4.260291	0.721713	-0.000043
1762	1.7522e+02	2.4715	-2.410042	0.000438	4.383184	0.742531	-0.000044
1763	1.7532e+02	2.4632	-2.449554	0.000397	3.973541	0.673136	-0.000040
1764	1.7542e+02	2.4547	-2.488659	0.000393	3.932576	0.666196	-0.000039
1765	1.7552e+02	2.4420	-2.531430	0.000430	4.301255	0.728652	-0.000043
1766	1.7562e+02	2.4329	-2.573387	0.000422	4.219327	0.714773	-0.000042
1767	1.7572e+02	2.4235	-2.611269	0.000381	3.809683	0.645378	-0.000038
1768	1.7582e+02	2.4148	-2.653633	0.000426	4.260291	0.721713	-0.000043
1769	1.7592e+02	2.4033	-2.695997	0.000426	4.260291	0.721713	-0.000043
1770	1.7602e+02	2.3928	-2.731028	0.000352	3.522933	0.596801	-0.000035
1771	1.7612e+02	2.3837	-2.776243	0.000455	4.547041	0.770290	-0.000045
1772	1.7621e+02	2.3739	-2.814941	0.000389	3.891612	0.659257	-0.000039
1773	1.7631e+02	2.3635	-2.859341	0.000447	4.465113	0.756411	-0.000045
1774	1.7641e+02	2.3530	-2.896409	0.000373	3.727755	0.631499	-0.000037
1775	1.7651e+02	2.3420	-2.938773	0.000426	4.260291	0.721713	-0.000043
1776	1.7661e+02	2.3357	-2.980322	0.000418	4.178362	0.707834	-0.000042
1777	1.7671e+02	2.3220	-3.018205	0.000381	3.809683	0.645378	-0.000038
1778	1.7681e+02	2.3130	-3.062198	0.000442	4.424148	0.749471	-0.000044
1779	1.7691e+02	2.3028	-3.106598	0.000447	4.465113	0.756411	-0.000045
1780	1.7701e+02	2.2961	-3.147740	0.000414	4.137398	0.700894	-0.000041
1781	1.7711e+02	2.2817	-3.188881	0.000414	4.137398	0.700894	-0.000041
1782	1.7721e+02	2.2747	-3.232059	0.000434	4.342220	0.735592	-0.000043
1783	1.7731e+02	2.2656	-3.271164	0.000393	3.932576	0.666196	-0.000039
1784	1.7741e+02	2.2533	-3.313121	0.000422	4.219327	0.714773	-0.000042
1785	1.7751e+02	2.2456	-3.354262	0.000414	4.137398	0.700894	-0.000041
1786	1.7761e+02	2.2356	-3.393367	0.000393	3.932576	0.666196	-0.000039
1787	1.7771e+02	2.2257	-3.435731	0.000426	4.260291	0.721713	-0.000043
1788	1.7781e+02	2.2157	-3.477687	0.000422	4.219327	0.714773	-0.000042
1789	1.7791e+02	2.2041	-3.518014	0.000406	4.055469	0.687015	-0.000041
1790	1.7801e+02	2.1966	-3.562007	0.000442	4.424148	0.749471	-0.000044
1791	1.7810e+02	2.1844	-3.600297	0.000385	3.850648	0.652317	-0.000038
1792	1.7820e+02	2.1754	-3.647142	0.000471	4.710899	0.798048	-0.000047
1793	1.7830e+02	2.1648	-3.689913	0.000430	4.301255	0.728652	-0.000043
1794	1.7840e+02	2.1554	-3.730647	0.000410	4.096434	0.693955	-0.000041
1795	1.7850e+02	2.1453	-3.770974	0.000406	4.055469	0.687015	-0.000041
1796	1.7860e+02	2.1355	-3.816596	0.000459	4.588006	0.777229	-0.000046
1797	1.7870e+02	2.1247	-3.856516	0.000401	4.014505	0.680076	-0.000040
1798	1.7880e+02	2.1178	-3.898879	0.000426	4.260291	0.721713	-0.000043
1799	1.7890e+02	2.1034	-3.938391	0.000397	3.973541	0.673136	-0.000040
1800	1.7900e+02	2.0958	-3.978718	0.000406	4.055469	0.687015	-0.000041
1801	1.7910e+02	2.0861	-4.020675	0.000422	4.219327	0.714773	-0.000042
1802	1.7920e+02	2.0757	-4.058558	0.000381	3.809683	0.645378	-0.000038
1803	1.7930e+02	2.0656	-4.099292	0.000410	4.096434	0.693955	-0.000041
1804	1.7940e+02	2.0541	-4.140433	0.000414	4.137398	0.700894	-0.000041
1805	1.7950e+02	2.0453	-4.184834	0.000447	4.465113	0.756411	-0.000045
1806	1.7960e+02	2.0340	-4.228012	0.000434	4.342220	0.735592	-0.000043
1807	1.7970e+02	2.0264	-4.267524	0.000397	3.973541	0.673136	-0.000040
1808	1.7980e+02	2.0139	-4.314369	0.000471	4.710899	0.798048	-0.000047
1809	1.7990e+02	2.0042	-4.358362	0.000442	4.424148	0.749471	-0.000044
1810	1.8000e+02	1.9936	-4.401133	0.000430	4.301255	0.728652	-0.000043
1811	1.8009e+02	1.9858	-4.441460	0.000406	4.055469	0.687015	-0.000041
1812	1.8019e+02	1.9745	-4.485045	0.000438	4.383184	0.742531	-0.000044
1813	1.8029e+02	1.9671	-4.525372	0.000406	4.055469	0.687015	-0.000041
1814	1.8039e+02	1.9549	-4.568550	0.000434	4.342220	0.735592	-0.000043
1815	1.8049e+02	1.9487	-4.613358	0.000451	4.506077	0.763350	-0.000045
1816	1.8059e+02	1.9357	-4.653278	0.000401	4.014505	0.680076	-0.000040
1817	1.8069e+02	1.9276	-4.696456	0.000434	4.342220	0.735592	-0.000043
1818	1.8079e+02	1.9151	-4.743300	0.000471	4.710899	0.798048	-0.000047
1819	1.8089e+02	1.9013	-4.785664	0.000426	4.260291	0.721713	-0.000043
1820	1.8099e+02	1.8959	-4.833323	0.000479	4.792827	0.811927	-0.000048
1821	1.8109e+02	1.8857	-4.878538	0.000455	4.547041	0.770290	-0.000045
1822	1.8119e+02	1.8741	-4.921716	0.000434	4.342220	0.735592	-0.000043
1823	1.8129e+02	1.8684	-4.966524	0.000451	4.506077	0.763350	-0.000045
1824	1.8139e+02	1.8565	-5.011739	0.000455	4.547041	0.770290	-0.000045
1825	1.8149e+02	1.8479	-5.054917	0.000434	4.342220	0.735592	-0.000043
1826	1.8159e+02	1.8346	-5.096466	0.000418	4.178362	0.707834	-0.000042
1827	1.8169e+02	1.8288	-5.141274	0.000451	4.506077	0.763350	-0.000045
1828	1.8179e+02	1.8158	-5.184860	0.000438	4.383184	0.742531	-0.000044
1829	1.8189e+02	1.8073	-5.228853	0.000442	4.424148	0.749471	-0.000044
1830	1.8199e+02	1.7941	-5.272438	0.000438	4.383184	0.742531	-0.000044
1831	1.8209e+02	1.7867	-5.316839	0.000447	4.465113	0.756411	-0.000045
1832	1.8218e+02	1.7728	-5.360832	0.000442	4.424148	0.749471	-0.000044
1833	1.8228e+02	1.7657	-5.405639	0.000451	4.506077	0.763350	-0.000045
1834	1.8238e+02	1.7583	-5.448410	0.000430	4.301255	0.728652	-0.000043
1835	1.8248e+02	1.7467	-5.495662	0.000475	4.751863	0.804987	-0.000047
1836	1.8258e+02	1.7362	-5.537211	0.000418	4.178362	0.707834	-0.000042
1837	1.8268e+02	1.7277	-5.582833	0.000459	4.588006	0.777229	-0.000046
1838	1.8278e+02	1.7168	-5.626419	0.000438	4.383184	0.742531	-0.000044
1839	1.8288e+02	1.7063	-5.670412	0.000442	4.424148	0.749471	-0.000044
1840	1.8298e+02	1.6961	-5.712776	0.000426	4.260291	0.721713	-0.000043
1841	1.8308e+02	1.6870	-5.760027	0.000475	4.751863	0.804987	-0.000047
1842	1.8318e+02	1.6755	-5.800354	0.000406	4.055469	0.687015	-0.000041
1843	1.8328e+02	1.6647	-5.845162	0.000451	4.506077	0.763350	-0.000045
1844	1.8338e+02	1.6576	-5.892006	0.000471	4.710899	0.798048	-0.000047
1845	1.8348e+02	1.6467	-5.937221	0.000455	4.547041	0.770290	-0.000045
1846	1.8358e+02	1.6370	-5.977548	0.000406	4.055469	0.687015	-0.000041
1847	1.8368e+02	1.6281	-6.024393	0.000471	4.710899	0.798048	-0.000047
1848	1.8378e+02	1.6171	-6.068386	0.000442	4.424148	0.749471	-0.000044
1849	1.8388e+02	1.6059	-6.109120	0.000410	4.096434	0.693955	-0.000041
1850	1.8398e+02	1.5986	-6.155557	0.000467	4.669934	0.791108	-0.000047
1851	1.8407e+02	1.5854	-6.200772	0.000455	4.547041	0.770290	-0.000045
1852	1.8417e+02	1.5784	-6.246394	0.000459	4.588006	0.777229	-0.000046
1853	1.8427e+02	1.5688	-6.293239	0.000471	4.710899	0.798048	-0.000047
1854	1.8437e+02	1.5586	-6.338046	0.000451	4.506077	0.763350	-0.000045
1855	1.8447e+02	1.5472	-6.380410	0.000426	4.260291	0.721713	-0.000043
1856	1.8457e+02	1.5385	-6.427662	0.000475	4.751863	0.804987	-0.000047
1857	1.8467e+02	1.5264	-6.472469	0.000451	4.506077	0.763350	-0.000045
1858	1.8477e+02	1.5173	-6.519721	0.000475	4.751863	0.804987	-0.000047
1859	1.8487e+02	1.5072	-6.563307	0.000438	4.383184	0.742531	-0.000044
1860	1.8497e+02	1.4975	-6.609337	0.000463	4.628970	0.784169	-0.000046
1861	1.8507e+02	1.4898	-6.650478	0.000414	4.137398	0.700894	-0.000041
1862	1.8517e+02	1.4787	-6.693656	0.000434	4.342220	0.735592	-0.000043
1863	1.8527e+02	1.4674	-6.738057	0.000447	4.465113	0.756411	-0.000045
1864	1.8537e+02	1.4587	-6.784087	0.000463	4.628970	0.784169	-0.000046
1865	1.8547e+02	1.4478	-6.829709	0.000459	4.588006	0.777229	-0.000046
1866	1.8557e+02	1.4393	-6.872480	0.000430	4.301255	0.728652	-0.000043
1867	1.8567e+02	1.4291	-6.916880	0.000447	4.465113	0.756411	-0.000045
1868	1.8577e+02	1.4201	-6.965354	0.000487	4.874756	0.825806	-0.000049
1869	1.8587e+02	1.4072	-7.010569	0.000455	4.547041	0.770290	-0.000045
1870	1.8597e+02	1.3991	-7.053747	0.000434	4.342220	0.735592	-0.000043
1871	1.8606e+02	1.3885	-7.100184	0.000467	4.669934	0.791108	-0.000047
1872	1.8616e+02	1.3795	-7.148251	0.000483	4.833792	0.818866	-0.000048
1873	1.8626e+02	1.3708	-7.193466	0.000455	4.547041	0.770290	-0.000045
1874	1.8636e+02	1.3556	-7.238273	0.000451	4.506077	0.763350	-0.000045
1875	1.8646e+02	1.3467	-7.281859	0.000438	4.383184	0.742531	-0.000044
1876	1.8656e+02	1.3360	-7.327074	0.000455	4.547041	0.770290	-0.000045
1877	1.8666e+02	1.3262	-7.372697	0.000459	4.588006	0.777229	-0.000046
1878	1.8676e+02	1.3183	-7.418319	0.000459	4.588006	0.777229	-0.000046
1879	1.8686e+02	1.3117	-7.463127	0.000451	4.506077	0.763350	-0.000045
1880	1.8696e+02	1.2998	-7.506305	0.000434	4.342220	0.735592	-0.000043
1881	1.8706e+02	1.2896	-7.551113	0.000451	4.506077	0.763350	-0.000045
1882	1.8716e+02	1.2790	-7.601216	0.000504	5.038613	0.853564	-0.000050
1883	1.8726e+02	1.2660	-7.646023	0.000451	4.506077	0.763350	-0.000045
1884	1.8736e+02	1.2584	-7.692868	0.000471	4.710899	0.798048	-0.000047
1885	1.8746e+02	1.2491	-7.740119	0.000475	4.751863	0.804987	-0.000047
1886	1.8756e+02	1.2402	-7.789001	0.000492	4.915720	0.832746	-0.000049
1887	1.8766e+02	1.2301	-7.836660	0.000479	4.792827	0.811927	-0.000048
1888	1.8776e+02	1.2193	-7.883097	0.000467	4.669934	0.791108	-0.000047
1889	1.8786e+02	1.2083	-7.929126	0.000463	4.628970	0.784169	-0.000046
1890	1.8796e+02	1.1981	-7.975563	0.000467	4.669934	0.791108	-0.000047
1891	1.8806e+02	1.1881	-8.019964	0.000447	4.465113	0.756411	-0.000045
1892	1.8815e+02	1.1805	-8.066808	0.000471	4.710899	0.798048	-0.000047
1893	1.8825e+02	1.1695	-8.109987	0.000434	4.342220	0.735592	-0.000043
1894	1.8835e+02	1.1575	-8.155609	0.000459	4.588006	0.777229	-0.000046
1895	1.8845e+02	1.1504	-8.203268	0.000479	4.792827	0.811927	-0.000048
1896	1.8855e+02	1.1395	-8.252149	0.000492	4.915720	0.832746	-0.000049
1897	1.8865e+02	1.1306	-8.297364	0.000455	4.547041	0.770290	-0.000045
1898	1.8875e+02	1.1192	-8.349097	0.000520	5.202471	0.881322	-0.000052
1899	1.8885e+02	1.1111	-8.391460	0.000426	4.260291	0.721713	-0.000043
1900	1.8895e+02	1.0997	-8.438712	0.000475	4.751863	0.804987	-0.000047
1901	1.8905e+02	1.0902	-8.487593	0.000492	4.915720	0.832746	-0.000049
1902	1.8915e+02	1.0802	-8.531179	0.000438	4.383184	0.742531	-0.000044
1903	1.8925e+02	1.0695	-8.577616	0.000467	4.669934	0.791108	-0.000047
1904	1.8935e+02	1.0609	-8.619979	0.000426	4.260291	0.721713	-0.000043
1905	1.8945e+02	1.0508	-8.664787	0.000451	4.506077	0.763350	-0.000045
1906	1.8955e+02	1.0381	-8.708780	0.000442	4.424148	0.749471	-0.000044
1907	1.8965e+02	1.0309	-8.752773	0.000442	4.424148	0.749471	-0.000044
1908	1.8975e+02	1.0188	-8.797988	0.000455	4.547041	0.770290	-0.000045
1909	1.8985e+02	1.0128	-8.839537	0.000418	4.178362	0.707834	-0.000042
1910	1.8995e+02	0.9992	-8.888011	0.000487	4.874756	0.825806	-0.000049
1911	1.9004e+02	0.9914	-8.932411	0.000447	4.465113	0.756411	-0.000045
1912	1.9014e+02	0.9795	-8.982107	0.000500	4.997649	0.846625	-0.000050
1913	1.9024e+02	0.9716	-9.029766	0.000479	4.792827	0.811927	-0.000048
1914	1.9034e+02	0.9601	-9.078647	0.000492	4.915720	0.832746	-0.000049
1915	1.9044e+02	0.9515	-9.123862	0.000455	4.547041	0.770290	-0.000045
1916	1.9054e+02	0.9416	-9.167040	0.000434	4.342220	0.735592	-0.000043
1917	1.9064e+02	0.9313	-9.216329	0.000496	4.956685	0.839685	-0.000050
1918	1.9074e+02	0.9235	-9.264803	0.000487	4.874756	0.825806	-0.000049
1919	1.9084e+02	0.9147	-9.312054	0.000475	4.751863	0.804987	-0.000047
1920	1.9094e+02	0.9019	-9.356455	0.000447	4.465113	0.756411	-0.000045
1921	1.9104e+02	0.8916	-9.406965	0.000508	5.079578	0.860504	-0.000051
1922	1.9114e+02	0.8823	-9.452588	0.000459	4.588006	0.777229	-0.000046
1923	1.9124e+02	0.8742	-9.501469	0.000492	4.915720	0.832746	-0.000049
1924	1.9134e+02	0.8637	-9.547906	0.000467	4.669934	0.791108	-0.000047
1925	1.9144e+02	0.8507	-9.591491	0.000438	4.383184	0.742531	-0.000044
1926	1.9154e+02	0.8415	-9.637928	0.000467	4.669934	0.791108	-0.000047
1927	1.9164e+02	0.8317	-9.687624	0.000500	4.997649	0.846625	-0.000050
1928	1.9174e+02	0.8223	-9.740579	0.000533	5.325364	0.902141	-0.000053
1929	1.9184e+02	0.8107	-9.779684	0.000393	3.932576	0.666196	-0.000039
1930	1.9194e+02	0.8009	-9.831416	0.000520	5.202471	0.881322	-0.000052
1931	1.9203e+02	0.7922	-9.879075	0.000479	4.792827	0.811927	-0.000048
1932	1.9213e+02	0.7831	-9.924698	0.000459	4.588006	0.777229	-0.000046
1933	1.9223e+02	0.7699	-9.976023	0.000516	5.161506	0.874383	-0.000052
1934	1.9233e+02	0.7607	-10.024497	0.000487	4.874756	0.825806	-0.000049
1935	1.9243e+02	0.7512	-10.068897	0.000447	4.465113	0.756411	-0.000045
1936	1.9253e+02	0.7445	-10.117371	0.000487	4.874756	0.825806	-0.000049
1937	1.9263e+02	0.7317	-10.164215	0.000471	4.710899	0.798048	-0.000047
1938	1.9273e+02	0.7198	-10.214725	0.000508	5.079578	0.860504	-0.000051
1939	1.9283e+02	0.7120	-10.255867	0.000414	4.137398	0.700894	-0.000041
1940	1.9293e+02	0.7013	-10.308007	0.000524	5.243435	0.888262	-0.000052
1941	1.9303e+02	0.6917	-10.353629	0.000459	4.588006	0.777229	-0.000046
1942	1.9313e+02	0.6822	-10.402510	0.000492	4.915720	0.832746	-0.000049
1943	1.9323e+02	0.6731	-10.453428	0.000512	5.120542	0.867443	-0.000051
1944	1.9333e+02	0.6622	-10.499458	0.000463	4.628970	0.784169	-0.000046
1945	1.9343e+02	0.6525	-10.547117	0.000479	4.792827	0.811927	-0.000048
1946	1.9353e+02	0.6428	-10.593554	0.000467	4.669934	0.791108	-0.000047
1947	1.9363e+02	0.6338	-10.645287	0.000520	5.202471	0.881322	-0.000052
1948	1.9373e+02	0.6239	-10.692131	0.000471	4.710899	0.798048	-0.000047
1949	1.9383e+02	0.6133	-10.743456	0.000516	5.161506	0.874383	-0.000052
1950	1.9393e+02	0.6016	-10.787449	0.000442	4.424148	0.749471	-0.000044
1951	1.9403e+02	0.5910	-10.833886	0.000467	4.669934	0.791108	-0.000047
1952	1.9412e+02	0.5833	-10.888063	0.000545	5.448257	0.922960	-0.000054
1953	1.9422e+02	0.5739	-10.935314	0.000475	4.751863	0.804987	-0.000047
1954	1.9432e+02	0.5610	-10.985418	0.000504	5.038613	0.853564	-0.000050
1955	1.9442e+02	0.5540	-11.031040	0.000459	4.588006	0.777229	-0.000046
1956	1.9452e+02	0.5434	-11.079106	0.000483	4.833792	0.818866	-0.000048
1957	1.9462e+02	0.5311	-11.130432	0.000516	5.161506	0.874383	-0.000052
1958	1.9472e+02	0.5240	-11.175647	0.000455	4.547041	0.770290	-0.000045
1959	1.9482e+02	0.5151	-11.225342	0.000500	4.997649	0.846625	-0.000050
1960	1.9492e+02	0.5039	-11.279926	0.000549	5.489221	0.929899	-0.000055
1961	1.9502e+02	0.4922	-11.326771	0.000471	4.710899	0.798048	-0.000047
1962	1.9512e+02	0.4837	-11.370764	0.000442	4.424148	0.749471	-0.000044
1963	1.9522e+02	0.4768	-11.423311	0.000528	5.284399	0.895201	-0.000053
1964	1.9532e+02	0.4622	-11.471785	0.000487	4.874756	0.825806	-0.000049
1965	1.9542e+02	0.4536	-11.519851	0.000483	4.833792	0.818866	-0.000048
1966	1.9552e+02	0.4449	-11.568732	0.000492	4.915720	0.832746	-0.000049
1967	1.9562e+02	0.4331	-11.615169	0.000467	4.669934	0.791108	-0.000047
1968	1.9572e+02	0.4227	-11.666494	0.000516	5.161506	0.874383	-0.000052
1969	1.9582e+02	0.4135	-11.709265	0.000430	4.301255	0.728652	-0.000043
1970	1.9592e+02	0.4064	-11.759368	0.000504	5.038613	0.853564	-0.000050
1971	1.9601e+02	0.3946	-11.808250	0.000492	4.915720	0.832746	-0.000049
1972	1.9611e+02	0.3811	-11.851835	0.000438	4.383184	0.742531	-0.000044
1973	1.9621e+02	0.3768	-11.900716	0.000492	4.915720	0.832746	-0.000049
1974	1.9631e+02	0.3644	-11.949190	0.000487	4.874756	0.825806	-0.000049
1975	1.9641e+02	0.3526	-12.000923	0.000520	5.202471	0.881322	-0.000052
1976	1.9651e+02	0.3445	-12.052655	0.000520	5.202471	0.881322	-0.000052
1977	1.9661e+02	0.3352	-12.104795	0.000524	5.243435	0.888262	-0.000052
1978	1.9671e+02	0.3259	-12.152861	0.000483	4.833792	0.818866	-0.000048
1979	1.9681e+02	0.3147	-12.204594	0.000520	5.202471	0.881322	-0.000052
1980	1.9691e+02	0.3020	-12.251438	0.000471	4.710899	0.798048	-0.000047
1981	1.9701e+02	0.2966	-12.296653	0.000455	4.547041	0.770290	-0.000045
1982	1.9711e+02	0.2831	-12.347164	0.000508	5.079578	0.860504	-0.000051
1983	1.9721e+02	0.2728	-12.400933	0.000541	5.407292	0.916020	-0.000054
1984	1.9731e+02	0.2663	-12.446963	0.000463	4.628970	0.784169	-0.000046
1985	1.9741e+02	0.2518	-12.496658	0.000500	4.997649	0.846625	-0.000050
1986	1.9751e+02	0.2446	-12.548798	0.000524	5.243435	0.888262	-0.000052
1987	1.9761e+02	0.2360	-12.600531	0.000520	5.202471	0.881322	-0.000052
1988	1.9771e+02	0.2268	-12.656337	0.000561	5.612114	0.950718	-0.000056
1989	1.9781e+02	0.2148	-12.702366	0.000463	4.628970	0.784169	-0.000046
1990	1.9791e+02	0.2073	-12.759802	0.000578	5.775971	0.978476	-0.000058
1991	1.9800e+02	0.1939	-12.805424	0.000459	4.588006	0.777229	-0.000046
1992	1.9810e+02	0.1857	-12.860415	0.000553	5.530185	0.936839	-0.000055
1993	1.9820e+02	0.1728	-12.906852	0.000467	4.669934	0.791108	-0.000047
1994	1.9830e+02	0.1657	-12.960622	0.000541	5.407292	0.916020	-0.000054
1995	1.9840e+02	0.1529	-13.011539	0.000512	5.120542	0.867443	-0.000051
1996	1.9850e+02	0.1484	-13.058384	0.000471	4.710899	0.798048	-0.000047
1997	1.9860e+02	0.1362	-13.110931	0.000528	5.284399	0.895201	-0.000053
1998	1.9870e+02	0.1245	-13.161849	0.000512	5.120542	0.867443	-0.000051
1999	1.9880e+02	0.1140	-13.212359	0.000508	5.079578	0.860504	-0.000051
2000	1.9890e+02	0.1027	-13.264092	0.000520	5.202471	0.881322	-0.000052
2001	1.9900e+02	0.0939	-13.309307	0.000455	4.547041	0.770290	-0.000045
2002	1.9910e+02	0.0827	-13.361447	0.000524	5.243435	0.888262	-0.000052
2003	1.9920e+02	0.0751	-13.413179	0.000520	5.202471	0.881322	-0.000052
2004	1.9930e+02	0.0648	-13.466134	0.000533	5.325364	0.902141	-0.000053
2005	1.9940e+02	0.0552	-13.517459	0.000516	5.161506	0.874383	-0.000052
2006	1.9950e+02	0.0444	-13.565933	0.000487	4.874756	0.825806	-0.000049
2007	1.9960e+02	0.0350	-13.618480	0.000528	5.284399	0.895201	-0.000053
2008	1.9970e+02	0.0233	-13.667361	0.000492	4.915720	0.832746	-0.000049
2009	1.9980e+02	0.0165	-13.723167	0.000561	5.612114	0.950718	-0.000056
2010	1.9990e+02	0.0018	-13.772455	0.000496	4.956685	0.839685	-0.000050
2011	2.0000e+02	-0.0047	-13.824595	0.000496	4.956685	0.839685	-0.000052

PMax (uC/cm2):	3.76e+01
Pr (uC/cm2):	4.97e+00
-Pr (uC/cm2):	0.00e+00
PLoss (uC/cm2):	0.00e+00
C (Max-Eff) (nF):	3.76e-01
K (Eff):	6.37e+02
Vert. (+/-Pr) Shift (uC/cm2):	2.48e+00
Offset (uC/cm2):	1.88e+01

A (Loop Area - uC/cm2·Volts):	-4.88e-02



Hysteresis Version: 5.48.1 - Radiant Technologies, Inc., 1999 - 9/12/24

