»»»»»»»»»»»»»»»»»»»»»»»»»»»»»»»»»»»» Hysteresis ««««««««««««««««««««««««««««««««««««
»»»  Executed Version:	5.48.1
»»»  Vision Version:	5.48.4 (R)
»»»  Vision Compiled:	9/18/24
»»»  Driver Version:	5.47.0
»»»  Windows Version:	Windows 8 or 8.1
»»»  Processor Information:	x86 (AMD or Intel) - 32 Processors
»»»  Tester Name:	PMF21124-494 (100V)
»»»  Tester S/N:	PMF21124-494
»»»  Internal Amp Type:	100V RevK 270k
»»»  Internal Amp S/N:	iAB2-596/K     
»»»  Execution Count:	1
»»»»»»»»»»»»»»»»»»»»»»»»»»»»»»»»»»»»»»»»»»««««««««««««««««««««««««««««««««««««««««««

Stored:	6/30/2025 - 14:39:2
Configured:	06/30/25 10:19:58 AM
Executed:	06/30/25 02:38:31 PM

»»»»»»»»»»»»»»»»»»»»»»»»»»»»»»»»»»» Sample Info ««««««««««««««««««««««««««««««««««««
Sample Name:	
Lot Name:	
Wafer Name:	
Die Row/Column:	0/0
Capacitor Number:	0
Sample Area (cm2):	1.00e-04
Sample Thickness (microns):	1.50e-01

Amplifier:	Internal

»»»»»»»»»»»»»»»»»»»»»»»»»»»»»»»»»»» Tester Info «««««««««««««««««««««««««««««««««««
Tester Name:	PMF21124-494 (100V)
Tester Serial Number:	PMF21124-494
Return Signal Amp. Level:	1.9 [Index: 2]

»»»»»»»»»»»»»»»»»»»»»»»»»»»»»»»» Hysteresis Info ««««««««««««««««««««««««««««««««««
Task Name:	Hyst-1804
Volts:	10.00
Field:	666.67 (kV/cm)
DCBias:	0.00
DCField:	0.00 (kV/cm)
Hysteresis Period (ms):	2.00e+02
Preset:	Enabled
Preset Delay (ms):	1.00e+03
Profile:	Standard Monopolar

»»»»»»»»»»»»»»»»»»»»»»»»»»»»»»»»»»»»»» Data «««««««««««««««««««««««««««««««««««««««
Points:	2011

Valid Data

Point	Time (ms)	Drive Voltage	Measured Polarization (uC/cm2)	Capacitance (uF)	Normalized Capacitance (uF/cm2)	Dielectric Constant	Instantaneous Current (mA)
   1	0.0000e+00	-0.0073	-21.154521	0.000471	4.706569	0.797314	0.000047
   2	9.9500e-02	0.0040	-21.107676	0.000471	4.706569	0.797314	0.000047
   3	1.9900e-01	0.0157	-21.061647	0.000462	4.624715	0.783448	0.000046
   4	2.9850e-01	0.0233	-21.014802	0.000471	4.706569	0.797314	0.000047
   5	3.9800e-01	0.0368	-20.967550	0.000475	4.747496	0.804248	0.000047
   6	4.9750e-01	0.0432	-20.920299	0.000475	4.747496	0.804248	0.000047
   7	5.9700e-01	0.0551	-20.872232	0.000483	4.829349	0.818114	0.000048
   8	6.9650e-01	0.0640	-20.821315	0.000512	5.115836	0.866646	0.000051
   9	7.9600e-01	0.0758	-20.774063	0.000475	4.747496	0.804248	0.000047
  10	8.9550e-01	0.0843	-20.724367	0.000499	4.993056	0.845847	0.000050
  11	9.9500e-01	0.0950	-20.673042	0.000516	5.156762	0.873579	0.000052
  12	1.0945e+00	0.1072	-20.627419	0.000458	4.583789	0.776515	0.000046
  13	1.1940e+00	0.1147	-20.581390	0.000462	4.624715	0.783448	0.000046
  14	1.2935e+00	0.1230	-20.531287	0.000503	5.033982	0.852780	0.000050
  15	1.3930e+00	0.1344	-20.484442	0.000471	4.706569	0.797314	0.000047
  16	1.4925e+00	0.1453	-20.441264	0.000434	4.338229	0.734916	0.000043
  17	1.5920e+00	0.1535	-20.395642	0.000458	4.583789	0.776515	0.000046
  18	1.6915e+00	0.1645	-20.345538	0.000503	5.033982	0.852780	0.000050
  19	1.7910e+00	0.1749	-20.301545	0.000442	4.420082	0.748782	0.000044
  20	1.8905e+00	0.1859	-20.251850	0.000499	4.993056	0.845847	0.000050
  21	1.9900e+00	0.1949	-20.200117	0.000520	5.197689	0.880512	0.000052
  22	2.0895e+00	0.2042	-20.147977	0.000524	5.238616	0.887446	0.000052
  23	2.1890e+00	0.2133	-20.102355	0.000458	4.583789	0.776515	0.000046
  24	2.2885e+00	0.2233	-20.054696	0.000479	4.788422	0.811181	0.000048
  25	2.3880e+00	0.2351	-20.001741	0.000532	5.320469	0.901312	0.000053
  26	2.4875e+00	0.2438	-19.951638	0.000503	5.033982	0.852780	0.000050
  27	2.5870e+00	0.2532	-19.902757	0.000491	4.911202	0.831980	0.000049
  28	2.6865e+00	0.2658	-19.851432	0.000516	5.156762	0.873579	0.000052
  29	2.7860e+00	0.2712	-19.807032	0.000446	4.461009	0.755715	0.000045
  30	2.8855e+00	0.2852	-19.755299	0.000520	5.197689	0.880512	0.000052
  31	2.9850e+00	0.2938	-19.706011	0.000495	4.952129	0.838913	0.000050
  32	3.0845e+00	0.3054	-19.659981	0.000462	4.624715	0.783448	0.000046
  33	3.1840e+00	0.3134	-19.603768	0.000565	5.647883	0.956777	0.000056
  34	3.2835e+00	0.3233	-19.558960	0.000450	4.501935	0.762649	0.000045
  35	3.3830e+00	0.3345	-19.503154	0.000561	5.606956	0.949844	0.000056
  36	3.4825e+00	0.3445	-19.449385	0.000540	5.402322	0.915178	0.000054
  37	3.5820e+00	0.3521	-19.399282	0.000503	5.033982	0.852780	0.000050
  38	3.6815e+00	0.3619	-19.351623	0.000479	4.788422	0.811181	0.000048
  39	3.7810e+00	0.3736	-19.300705	0.000512	5.115836	0.866646	0.000051
  40	3.8805e+00	0.3844	-19.247750	0.000532	5.320469	0.901312	0.000053
  41	3.9800e+00	0.3971	-19.189500	0.000585	5.852516	0.991443	0.000059
  42	4.0795e+00	0.4026	-19.143878	0.000458	4.583789	0.776515	0.000046
  43	4.1790e+00	0.4131	-19.091738	0.000524	5.238616	0.887446	0.000052
  44	4.2785e+00	0.4231	-19.040413	0.000516	5.156762	0.873579	0.000052
  45	4.3780e+00	0.4322	-18.982570	0.000581	5.811589	0.984510	0.000058
  46	4.4775e+00	0.4440	-18.938170	0.000446	4.461009	0.755715	0.000045
  47	4.5770e+00	0.4517	-18.882771	0.000557	5.566029	0.942911	0.000056
  48	4.6765e+00	0.4642	-18.832668	0.000503	5.033982	0.852780	0.000050
  49	4.7760e+00	0.4754	-18.778084	0.000548	5.484176	0.929045	0.000055
  50	4.8755e+00	0.4838	-18.727166	0.000512	5.115836	0.866646	0.000051
  51	4.9750e+00	0.4962	-18.675434	0.000520	5.197689	0.880512	0.000052
  52	5.0745e+00	0.5022	-18.621665	0.000540	5.402322	0.915178	0.000054
  53	5.1740e+00	0.5106	-18.567896	0.000540	5.402322	0.915178	0.000054
  54	5.2735e+00	0.5227	-18.518607	0.000495	4.952129	0.838913	0.000050
  55	5.3730e+00	0.5367	-18.464023	0.000548	5.484176	0.929045	0.000055
  56	5.4725e+00	0.5420	-18.406588	0.000577	5.770663	0.977577	0.000058
  57	5.5720e+00	0.5531	-18.355263	0.000516	5.156762	0.873579	0.000052
  58	5.6715e+00	0.5666	-18.302716	0.000528	5.279542	0.894379	0.000053
  59	5.7710e+00	0.5754	-18.248539	0.000544	5.443249	0.922111	0.000054
  60	5.8705e+00	0.5846	-18.192326	0.000565	5.647883	0.956777	0.000056
  61	5.9700e+00	0.5917	-18.143037	0.000495	4.952129	0.838913	0.000050
  62	6.0695e+00	0.6007	-18.089675	0.000536	5.361396	0.908245	0.000054
  63	6.1690e+00	0.6133	-18.042831	0.000471	4.706569	0.797314	0.000047
  64	6.2685e+00	0.6219	-17.984988	0.000581	5.811589	0.984510	0.000058
  65	6.3680e+00	0.6331	-17.934071	0.000512	5.115836	0.866646	0.000051
  66	6.4675e+00	0.6447	-17.878672	0.000557	5.566029	0.942911	0.000056
  67	6.5670e+00	0.6532	-17.828569	0.000503	5.033982	0.852780	0.000050
  68	6.6665e+00	0.6628	-17.773985	0.000548	5.484176	0.929045	0.000055
  69	6.7660e+00	0.6709	-17.721845	0.000524	5.238616	0.887446	0.000052
  70	6.8655e+00	0.6809	-17.664002	0.000581	5.811589	0.984510	0.000058
  71	6.9650e+00	0.6928	-17.607789	0.000565	5.647883	0.956777	0.000056
  72	7.0645e+00	0.7030	-17.558093	0.000499	4.993056	0.845847	0.000050
  73	7.1640e+00	0.7135	-17.504324	0.000540	5.402322	0.915178	0.000054
  74	7.2635e+00	0.7224	-17.452184	0.000524	5.238616	0.887446	0.000052
  75	7.3630e+00	0.7347	-17.400044	0.000524	5.238616	0.887446	0.000052
  76	7.4625e+00	0.7429	-17.342609	0.000577	5.770663	0.977577	0.000058
  77	7.5620e+00	0.7539	-17.290877	0.000520	5.197689	0.880512	0.000052
  78	7.6615e+00	0.7648	-17.237107	0.000540	5.402322	0.915178	0.000054
  79	7.7610e+00	0.7693	-17.187004	0.000503	5.033982	0.852780	0.000050
  80	7.8605e+00	0.7803	-17.132420	0.000548	5.484176	0.929045	0.000055
  81	7.9600e+00	0.7918	-17.078244	0.000544	5.443249	0.922111	0.000054
  82	8.0595e+00	0.8012	-17.022845	0.000557	5.566029	0.942911	0.000056
  83	8.1590e+00	0.8118	-16.971520	0.000516	5.156762	0.873579	0.000052
  84	8.2585e+00	0.8208	-16.919380	0.000524	5.238616	0.887446	0.000052
  85	8.3580e+00	0.8291	-16.866833	0.000528	5.279542	0.894379	0.000053
  86	8.4575e+00	0.8412	-16.805732	0.000614	6.139003	1.039975	0.000061
  87	8.5570e+00	0.8521	-16.749518	0.000565	5.647883	0.956777	0.000056
  88	8.6565e+00	0.8622	-16.696971	0.000528	5.279542	0.894379	0.000053
  89	8.7560e+00	0.8720	-16.641165	0.000561	5.606956	0.949844	0.000056
  90	8.8555e+00	0.8827	-16.588618	0.000528	5.279542	0.894379	0.000053
  91	8.9550e+00	0.8923	-16.533219	0.000557	5.566029	0.942911	0.000056
  92	9.0545e+00	0.9007	-16.481487	0.000520	5.197689	0.880512	0.000052
  93	9.1540e+00	0.9109	-16.424052	0.000577	5.770663	0.977577	0.000058
  94	9.2535e+00	0.9184	-16.373541	0.000507	5.074909	0.859713	0.000051
  95	9.3530e+00	0.9303	-16.317328	0.000565	5.647883	0.956777	0.000056
  96	9.4525e+00	0.9394	-16.263151	0.000544	5.443249	0.922111	0.000054
  97	9.5520e+00	0.9512	-16.203679	0.000598	5.975296	1.012243	0.000060
  98	9.6515e+00	0.9621	-16.151540	0.000524	5.238616	0.887446	0.000052
  99	9.7510e+00	0.9719	-16.094919	0.000569	5.688809	0.963710	0.000057
 100	9.8505e+00	0.9824	-16.036262	0.000589	5.893443	0.998376	0.000059
 101	9.9500e+00	0.9968	-15.980456	0.000561	5.606956	0.949844	0.000056
 102	1.0050e+01	0.9980	-15.923835	0.000569	5.688809	0.963710	0.000057
 103	1.0149e+01	1.0122	-15.868029	0.000561	5.606956	0.949844	0.000056
 104	1.0248e+01	1.0207	-15.817111	0.000512	5.115836	0.866646	0.000051
 105	1.0348e+01	1.0299	-15.757232	0.000602	6.016223	1.019176	0.000060
 106	1.0447e+01	1.0413	-15.704277	0.000532	5.320469	0.901312	0.000053
 107	1.0547e+01	1.0526	-15.650101	0.000544	5.443249	0.922111	0.000054
 108	1.0646e+01	1.0596	-15.601220	0.000491	4.911202	0.831980	0.000049
 109	1.0746e+01	1.0714	-15.546228	0.000553	5.525103	0.935978	0.000055
 110	1.0845e+01	1.0815	-15.489608	0.000569	5.688809	0.963710	0.000057
 111	1.0945e+01	1.0915	-15.435431	0.000544	5.443249	0.922111	0.000054
 112	1.1044e+01	1.0989	-15.381662	0.000540	5.402322	0.915178	0.000054
 113	1.1144e+01	1.1093	-15.328708	0.000532	5.320469	0.901312	0.000053
 114	1.1243e+01	1.1215	-15.274938	0.000540	5.402322	0.915178	0.000054
 115	1.1343e+01	1.1301	-15.216688	0.000585	5.852516	0.991443	0.000059
 116	1.1443e+01	1.1411	-15.166178	0.000507	5.074909	0.859713	0.000051
 117	1.1542e+01	1.1523	-15.113223	0.000532	5.320469	0.901312	0.000053
 118	1.1642e+01	1.1577	-15.061083	0.000524	5.238616	0.887446	0.000052
 119	1.1741e+01	1.1682	-15.008129	0.000532	5.320469	0.901312	0.000053
 120	1.1841e+01	1.1805	-14.955174	0.000532	5.320469	0.901312	0.000053
 121	1.1940e+01	1.1899	-14.904257	0.000512	5.115836	0.866646	0.000051
 122	1.2040e+01	1.2004	-14.856598	0.000479	4.788422	0.811181	0.000048
 123	1.2139e+01	1.2043	-14.806087	0.000507	5.074909	0.859713	0.000051
 124	1.2239e+01	1.2190	-14.753540	0.000528	5.279542	0.894379	0.000053
 125	1.2338e+01	1.2302	-14.703029	0.000507	5.074909	0.859713	0.000051
 126	1.2438e+01	1.2387	-14.651297	0.000520	5.197689	0.880512	0.000052
 127	1.2537e+01	1.2521	-14.598750	0.000528	5.279542	0.894379	0.000053
 128	1.2636e+01	1.2601	-14.551498	0.000475	4.747496	0.804248	0.000047
 129	1.2736e+01	1.2682	-14.503839	0.000479	4.788422	0.811181	0.000048
 130	1.2835e+01	1.2794	-14.452514	0.000516	5.156762	0.873579	0.000052
 131	1.2935e+01	1.2895	-14.402818	0.000499	4.993056	0.845847	0.000050
 132	1.3034e+01	1.3007	-14.353122	0.000499	4.993056	0.845847	0.000050
 133	1.3134e+01	1.3080	-14.299353	0.000540	5.402322	0.915178	0.000054
 134	1.3233e+01	1.3217	-14.251287	0.000483	4.829349	0.818114	0.000048
 135	1.3333e+01	1.3290	-14.196295	0.000553	5.525103	0.935978	0.000055
 136	1.3432e+01	1.3369	-14.149451	0.000471	4.706569	0.797314	0.000047
 137	1.3532e+01	1.3486	-14.098126	0.000516	5.156762	0.873579	0.000052
 138	1.3632e+01	1.3583	-14.049652	0.000487	4.870276	0.825047	0.000049
 139	1.3731e+01	1.3661	-13.999956	0.000499	4.993056	0.845847	0.000050
 140	1.3831e+01	1.3792	-13.947816	0.000524	5.238616	0.887446	0.000052
 141	1.3930e+01	1.3896	-13.903823	0.000442	4.420082	0.748782	0.000044
 142	1.4030e+01	1.3968	-13.850054	0.000540	5.402322	0.915178	0.000054
 143	1.4129e+01	1.4077	-13.804024	0.000462	4.624715	0.783448	0.000046
 144	1.4229e+01	1.4191	-13.753921	0.000503	5.033982	0.852780	0.000050
 145	1.4328e+01	1.4281	-13.701781	0.000524	5.238616	0.887446	0.000052
 146	1.4428e+01	1.4364	-13.649642	0.000524	5.238616	0.887446	0.000052
 147	1.4527e+01	1.4480	-13.604019	0.000458	4.583789	0.776515	0.000046
 148	1.4627e+01	1.4583	-13.550657	0.000536	5.361396	0.908245	0.000054
 149	1.4726e+01	1.4712	-13.503406	0.000475	4.747496	0.804248	0.000047
 150	1.4825e+01	1.4774	-13.456154	0.000475	4.747496	0.804248	0.000047
 151	1.4925e+01	1.4865	-13.403607	0.000528	5.279542	0.894379	0.000053
 152	1.5024e+01	1.4996	-13.354726	0.000491	4.911202	0.831980	0.000049
 153	1.5124e+01	1.5061	-13.305437	0.000495	4.952129	0.838913	0.000050
 154	1.5223e+01	1.5172	-13.259815	0.000458	4.583789	0.776515	0.000046
 155	1.5323e+01	1.5268	-13.211748	0.000483	4.829349	0.818114	0.000048
 156	1.5422e+01	1.5375	-13.162460	0.000495	4.952129	0.838913	0.000050
 157	1.5522e+01	1.5482	-13.111542	0.000512	5.115836	0.866646	0.000051
 158	1.5621e+01	1.5569	-13.065105	0.000467	4.665642	0.790381	0.000047
 159	1.5721e+01	1.5663	-13.013372	0.000520	5.197689	0.880512	0.000052
 160	1.5820e+01	1.5755	-12.971824	0.000417	4.174522	0.707183	0.000042
 161	1.5920e+01	1.5874	-12.917240	0.000548	5.484176	0.929045	0.000055
 162	1.6020e+01	1.5962	-12.869581	0.000479	4.788422	0.811181	0.000048
 163	1.6119e+01	1.6085	-12.820699	0.000491	4.911202	0.831980	0.000049
 164	1.6218e+01	1.6174	-12.772226	0.000487	4.870276	0.825047	0.000049
 165	1.6318e+01	1.6273	-12.724567	0.000479	4.788422	0.811181	0.000048
 166	1.6418e+01	1.6376	-12.676908	0.000479	4.788422	0.811181	0.000048
 167	1.6517e+01	1.6472	-12.627619	0.000495	4.952129	0.838913	0.000050
 168	1.6616e+01	1.6558	-12.578738	0.000491	4.911202	0.831980	0.000049
 169	1.6716e+01	1.6656	-12.534338	0.000446	4.461009	0.755715	0.000045
 170	1.6816e+01	1.6769	-12.487493	0.000471	4.706569	0.797314	0.000047
 171	1.6915e+01	1.6872	-12.445537	0.000422	4.215449	0.714116	0.000042
 172	1.7015e+01	1.6966	-12.397063	0.000487	4.870276	0.825047	0.000049
 173	1.7114e+01	1.7068	-12.351441	0.000458	4.583789	0.776515	0.000046
 174	1.7213e+01	1.7136	-12.305411	0.000462	4.624715	0.783448	0.000046
 175	1.7313e+01	1.7266	-12.254901	0.000507	5.074909	0.859713	0.000051
 176	1.7413e+01	1.7352	-12.207649	0.000475	4.747496	0.804248	0.000047
 177	1.7512e+01	1.7437	-12.158768	0.000491	4.911202	0.831980	0.000049
 178	1.7611e+01	1.7557	-12.111923	0.000471	4.706569	0.797314	0.000047
 179	1.7711e+01	1.7669	-12.066301	0.000458	4.583789	0.776515	0.000046
 180	1.7811e+01	1.7760	-12.019049	0.000475	4.747496	0.804248	0.000047
 181	1.7910e+01	1.7845	-11.978722	0.000405	4.051742	0.686384	0.000041
 182	1.8009e+01	1.7970	-11.928212	0.000507	5.074909	0.859713	0.000051
 183	1.8109e+01	1.8053	-11.888292	0.000401	4.010815	0.679450	0.000040
 184	1.8209e+01	1.8158	-11.839819	0.000487	4.870276	0.825047	0.000049
 185	1.8308e+01	1.8259	-11.797862	0.000422	4.215449	0.714116	0.000042
 186	1.8407e+01	1.8356	-11.753055	0.000450	4.501935	0.762649	0.000045
 187	1.8507e+01	1.8495	-11.707025	0.000462	4.624715	0.783448	0.000046
 188	1.8607e+01	1.8561	-11.661810	0.000454	4.542862	0.769582	0.000045
 189	1.8706e+01	1.8673	-11.611299	0.000507	5.074909	0.859713	0.000051
 190	1.8805e+01	1.8813	-11.564048	0.000475	4.747496	0.804248	0.000047
 191	1.8905e+01	1.8861	-11.518425	0.000458	4.583789	0.776515	0.000046
 192	1.9005e+01	1.8962	-11.469952	0.000487	4.870276	0.825047	0.000049
 193	1.9104e+01	1.9067	-11.421478	0.000487	4.870276	0.825047	0.000049
 194	1.9203e+01	1.9129	-11.379114	0.000426	4.256375	0.721049	0.000043
 195	1.9303e+01	1.9284	-11.331455	0.000479	4.788422	0.811181	0.000048
 196	1.9402e+01	1.9341	-11.285425	0.000462	4.624715	0.783448	0.000046
 197	1.9502e+01	1.9453	-11.238581	0.000471	4.706569	0.797314	0.000047
 198	1.9602e+01	1.9582	-11.191737	0.000471	4.706569	0.797314	0.000047
 199	1.9701e+01	1.9645	-11.147336	0.000446	4.461009	0.755715	0.000045
 200	1.9800e+01	1.9749	-11.097640	0.000499	4.993056	0.845847	0.000050
 201	1.9900e+01	1.9866	-11.050796	0.000471	4.706569	0.797314	0.000047
 202	2.0000e+01	1.9936	-11.005174	0.000458	4.583789	0.776515	0.000046
 203	2.0099e+01	2.0055	-10.951812	0.000536	5.361396	0.908245	0.000054
 204	2.0198e+01	2.0142	-10.904560	0.000475	4.747496	0.804248	0.000047
 205	2.0298e+01	2.0244	-10.856901	0.000479	4.788422	0.811181	0.000048
 206	2.0398e+01	2.0334	-10.810464	0.000467	4.665642	0.790381	0.000047
 207	2.0497e+01	2.0480	-10.759139	0.000516	5.156762	0.873579	0.000052
 208	2.0596e+01	2.0542	-10.712294	0.000471	4.706569	0.797314	0.000047
 209	2.0696e+01	2.0657	-10.664228	0.000483	4.829349	0.818114	0.000048
 210	2.0796e+01	2.0793	-10.617384	0.000471	4.706569	0.797314	0.000047
 211	2.0895e+01	2.0856	-10.564836	0.000528	5.279542	0.894379	0.000053
 212	2.0994e+01	2.0962	-10.517585	0.000475	4.747496	0.804248	0.000047
 213	2.1094e+01	2.1060	-10.470333	0.000475	4.747496	0.804248	0.000047
 214	2.1194e+01	2.1142	-10.421859	0.000487	4.870276	0.825047	0.000049
 215	2.1293e+01	2.1247	-10.372571	0.000495	4.952129	0.838913	0.000050
 216	2.1392e+01	2.1345	-10.324504	0.000483	4.829349	0.818114	0.000048
 217	2.1492e+01	2.1435	-10.274401	0.000503	5.033982	0.852780	0.000050
 218	2.1591e+01	2.1548	-10.226335	0.000483	4.829349	0.818114	0.000048
 219	2.1691e+01	2.1654	-10.176639	0.000499	4.993056	0.845847	0.000050
 220	2.1791e+01	2.1743	-10.131831	0.000450	4.501935	0.762649	0.000045
 221	2.1890e+01	2.1866	-10.077655	0.000544	5.443249	0.922111	0.000054
 222	2.1989e+01	2.1917	-10.029996	0.000479	4.788422	0.811181	0.000048
 223	2.2089e+01	2.2033	-9.981929	0.000483	4.829349	0.818114	0.000048
 224	2.2189e+01	2.2131	-9.934270	0.000479	4.788422	0.811181	0.000048
 225	2.2288e+01	2.2227	-9.883352	0.000512	5.115836	0.866646	0.000051
 226	2.2387e+01	2.2359	-9.835693	0.000479	4.788422	0.811181	0.000048
 227	2.2487e+01	2.2446	-9.787219	0.000487	4.870276	0.825047	0.000049
 228	2.2587e+01	2.2552	-9.738746	0.000487	4.870276	0.825047	0.000049
 229	2.2686e+01	2.2643	-9.687421	0.000516	5.156762	0.873579	0.000052
 230	2.2785e+01	2.2734	-9.638539	0.000491	4.911202	0.831980	0.000049
 231	2.2885e+01	2.2845	-9.590473	0.000483	4.829349	0.818114	0.000048
 232	2.2985e+01	2.2946	-9.542407	0.000483	4.829349	0.818114	0.000048
 233	2.3084e+01	2.3042	-9.491081	0.000516	5.156762	0.873579	0.000052
 234	2.3183e+01	2.3145	-9.446274	0.000450	4.501935	0.762649	0.000045
 235	2.3283e+01	2.3239	-9.394541	0.000520	5.197689	0.880512	0.000052
 236	2.3383e+01	2.3333	-9.346475	0.000483	4.829349	0.818114	0.000048
 237	2.3482e+01	2.3418	-9.297594	0.000491	4.911202	0.831980	0.000049
 238	2.3581e+01	2.3536	-9.244232	0.000536	5.361396	0.908245	0.000054
 239	2.3681e+01	2.3641	-9.197795	0.000467	4.665642	0.790381	0.000047
 240	2.3780e+01	2.3763	-9.148506	0.000495	4.952129	0.838913	0.000050
 241	2.3880e+01	2.3821	-9.099218	0.000495	4.952129	0.838913	0.000050
 242	2.3980e+01	2.3937	-9.045449	0.000540	5.402322	0.915178	0.000054
 243	2.4079e+01	2.4055	-8.999012	0.000467	4.665642	0.790381	0.000047
 244	2.4178e+01	2.4128	-8.953389	0.000458	4.583789	0.776515	0.000046
 245	2.4278e+01	2.4221	-8.904101	0.000495	4.952129	0.838913	0.000050
 246	2.4378e+01	2.4347	-8.855627	0.000487	4.870276	0.825047	0.000049
 247	2.4477e+01	2.4434	-8.807561	0.000483	4.829349	0.818114	0.000048
 248	2.4576e+01	2.4509	-8.761124	0.000467	4.665642	0.790381	0.000047
 249	2.4676e+01	2.4611	-8.710206	0.000512	5.115836	0.866646	0.000051
 250	2.4776e+01	2.4732	-8.662954	0.000475	4.747496	0.804248	0.000047
 251	2.4875e+01	2.4848	-8.611629	0.000516	5.156762	0.873579	0.000052
 252	2.4974e+01	2.4954	-8.560711	0.000512	5.115836	0.866646	0.000051
 253	2.5074e+01	2.5026	-8.513459	0.000475	4.747496	0.804248	0.000047
 254	2.5174e+01	2.5141	-8.461727	0.000520	5.197689	0.880512	0.000052
 255	2.5273e+01	2.5193	-8.412438	0.000495	4.952129	0.838913	0.000050
 256	2.5372e+01	2.5351	-8.362335	0.000503	5.033982	0.852780	0.000050
 257	2.5472e+01	2.5416	-8.313861	0.000487	4.870276	0.825047	0.000049
 258	2.5572e+01	2.5539	-8.262536	0.000516	5.156762	0.873579	0.000052
 259	2.5671e+01	2.5614	-8.209989	0.000528	5.279542	0.894379	0.000053
 260	2.5770e+01	2.5729	-8.164367	0.000458	4.583789	0.776515	0.000046
 261	2.5870e+01	2.5862	-8.117115	0.000475	4.747496	0.804248	0.000047
 262	2.5970e+01	2.5921	-8.064160	0.000532	5.320469	0.901312	0.000053
 263	2.6069e+01	2.6040	-8.014872	0.000495	4.952129	0.838913	0.000050
 264	2.6169e+01	2.6116	-7.964769	0.000503	5.033982	0.852780	0.000050
 265	2.6268e+01	2.6217	-7.912222	0.000528	5.279542	0.894379	0.000053
 266	2.6367e+01	2.6320	-7.862119	0.000503	5.033982	0.852780	0.000050
 267	2.6467e+01	2.6423	-7.812423	0.000499	4.993056	0.845847	0.000050
 268	2.6567e+01	2.6498	-7.759876	0.000528	5.279542	0.894379	0.000053
 269	2.6666e+01	2.6606	-7.709365	0.000507	5.074909	0.859713	0.000051
 270	2.6765e+01	2.6699	-7.662113	0.000475	4.747496	0.804248	0.000047
 271	2.6865e+01	2.6842	-7.606715	0.000557	5.566029	0.942911	0.000056
 272	2.6965e+01	2.6931	-7.561500	0.000454	4.542862	0.769582	0.000045
 273	2.7064e+01	2.7013	-7.512619	0.000491	4.911202	0.831980	0.000049
 274	2.7163e+01	2.7116	-7.462923	0.000499	4.993056	0.845847	0.000050
 275	2.7263e+01	2.7244	-7.411598	0.000516	5.156762	0.873579	0.000052
 276	2.7363e+01	2.7311	-7.366790	0.000450	4.501935	0.762649	0.000045
 277	2.7462e+01	2.7410	-7.318316	0.000487	4.870276	0.825047	0.000049
 278	2.7561e+01	2.7512	-7.268620	0.000499	4.993056	0.845847	0.000050
 279	2.7661e+01	2.7608	-7.216073	0.000528	5.279542	0.894379	0.000053
 280	2.7761e+01	2.7703	-7.168414	0.000479	4.788422	0.811181	0.000048
 281	2.7860e+01	2.7832	-7.119126	0.000495	4.952129	0.838913	0.000050
 282	2.7959e+01	2.7894	-7.071467	0.000479	4.788422	0.811181	0.000048
 283	2.8059e+01	2.8001	-7.022993	0.000487	4.870276	0.825047	0.000049
 284	2.8159e+01	2.8115	-6.976963	0.000462	4.624715	0.783448	0.000046
 285	2.8258e+01	2.8250	-6.930526	0.000467	4.665642	0.790381	0.000047
 286	2.8358e+01	2.8339	-6.881645	0.000491	4.911202	0.831980	0.000049
 287	2.8457e+01	2.8378	-6.839689	0.000422	4.215449	0.714116	0.000042
 288	2.8556e+01	2.8518	-6.790400	0.000495	4.952129	0.838913	0.000050
 289	2.8656e+01	2.8598	-6.743963	0.000467	4.665642	0.790381	0.000047
 290	2.8756e+01	2.8712	-6.699563	0.000446	4.461009	0.755715	0.000045
 291	2.8855e+01	2.8803	-6.653126	0.000467	4.665642	0.790381	0.000047
 292	2.8954e+01	2.8914	-6.608318	0.000450	4.501935	0.762649	0.000045
 293	2.9054e+01	2.9015	-6.567991	0.000405	4.051742	0.686384	0.000041
 294	2.9154e+01	2.9107	-6.517481	0.000507	5.074909	0.859713	0.000051
 295	2.9253e+01	2.9182	-6.471858	0.000458	4.583789	0.776515	0.000046
 296	2.9352e+01	2.9290	-6.429902	0.000422	4.215449	0.714116	0.000042
 297	2.9452e+01	2.9424	-6.384280	0.000458	4.583789	0.776515	0.000046
 298	2.9552e+01	2.9515	-6.338657	0.000458	4.583789	0.776515	0.000046
 299	2.9651e+01	2.9608	-6.293442	0.000454	4.542862	0.769582	0.000045
 300	2.9750e+01	2.9687	-6.249857	0.000438	4.379155	0.741849	0.000044
 301	2.9850e+01	2.9804	-6.205456	0.000446	4.461009	0.755715	0.000045
 302	2.9950e+01	2.9917	-6.162278	0.000434	4.338229	0.734916	0.000043
 303	3.0049e+01	3.0003	-6.114212	0.000483	4.829349	0.818114	0.000048
 304	3.0148e+01	3.0117	-6.069811	0.000446	4.461009	0.755715	0.000045
 305	3.0248e+01	3.0206	-6.026633	0.000434	4.338229	0.734916	0.000043
 306	3.0348e+01	3.0278	-5.983455	0.000434	4.338229	0.734916	0.000043
 307	3.0447e+01	3.0415	-5.938240	0.000454	4.542862	0.769582	0.000045
 308	3.0547e+01	3.0493	-5.895061	0.000434	4.338229	0.734916	0.000043
 309	3.0646e+01	3.0630	-5.850661	0.000446	4.461009	0.755715	0.000045
 310	3.0745e+01	3.0700	-5.807483	0.000434	4.338229	0.734916	0.000043
 311	3.0845e+01	3.0799	-5.765119	0.000426	4.256375	0.721049	0.000043
 312	3.0945e+01	3.0884	-5.722348	0.000430	4.297302	0.727983	0.000043
 313	3.1044e+01	3.1000	-5.677948	0.000446	4.461009	0.755715	0.000045
 314	3.1143e+01	3.1114	-5.630289	0.000479	4.788422	0.811181	0.000048
 315	3.1243e+01	3.1194	-5.587518	0.000430	4.297302	0.727983	0.000043
 316	3.1343e+01	3.1294	-5.547598	0.000401	4.010815	0.679450	0.000040
 317	3.1442e+01	3.1409	-5.501161	0.000467	4.665642	0.790381	0.000047
 318	3.1541e+01	3.1505	-5.458798	0.000426	4.256375	0.721049	0.000043
 319	3.1641e+01	3.1590	-5.416841	0.000422	4.215449	0.714116	0.000042
 320	3.1741e+01	3.1738	-5.372848	0.000442	4.420082	0.748782	0.000044
 321	3.1840e+01	3.1808	-5.330077	0.000430	4.297302	0.727983	0.000043
 322	3.1939e+01	3.1870	-5.292194	0.000381	3.806182	0.644785	0.000038
 323	3.2039e+01	3.1978	-5.246165	0.000462	4.624715	0.783448	0.000046
 324	3.2139e+01	3.2087	-5.202579	0.000438	4.379155	0.741849	0.000044
 325	3.2238e+01	3.2209	-5.161845	0.000409	4.092669	0.693317	0.000041
 326	3.2337e+01	3.2285	-5.117037	0.000450	4.501935	0.762649	0.000045
 327	3.2437e+01	3.2396	-5.075081	0.000422	4.215449	0.714116	0.000042
 328	3.2536e+01	3.2504	-5.032310	0.000430	4.297302	0.727983	0.000043
 329	3.2636e+01	3.2570	-4.989539	0.000430	4.297302	0.727983	0.000043
 330	3.2736e+01	3.2698	-4.948805	0.000409	4.092669	0.693317	0.000041
 331	3.2835e+01	3.2793	-4.904812	0.000442	4.420082	0.748782	0.000044
 332	3.2934e+01	3.2887	-4.860819	0.000442	4.420082	0.748782	0.000044
 333	3.3034e+01	3.2996	-4.819270	0.000417	4.174522	0.707183	0.000042
 334	3.3133e+01	3.3117	-4.775684	0.000438	4.379155	0.741849	0.000044
 335	3.3233e+01	3.3197	-4.733728	0.000422	4.215449	0.714116	0.000042
 336	3.3333e+01	3.3313	-4.695438	0.000385	3.847108	0.651718	0.000038
 337	3.3432e+01	3.3403	-4.651037	0.000446	4.461009	0.755715	0.000045
 338	3.3532e+01	3.3506	-4.613969	0.000372	3.724328	0.630918	0.000037
 339	3.3631e+01	3.3575	-4.575272	0.000389	3.888035	0.658651	0.000039
 340	3.3730e+01	3.3687	-4.536981	0.000385	3.847108	0.651718	0.000038
 341	3.3830e+01	3.3805	-4.495840	0.000413	4.133595	0.700250	0.000041
 342	3.3929e+01	3.3868	-4.455513	0.000405	4.051742	0.686384	0.000041
 343	3.4029e+01	3.3998	-4.413149	0.000426	4.256375	0.721049	0.000043
 344	3.4129e+01	3.4087	-4.371600	0.000417	4.174522	0.707183	0.000042
 345	3.4228e+01	3.4171	-4.328422	0.000434	4.338229	0.734916	0.000043
 346	3.4328e+01	3.4292	-4.289724	0.000389	3.888035	0.658651	0.000039
 347	3.4427e+01	3.4397	-4.251434	0.000385	3.847108	0.651718	0.000038
 348	3.4526e+01	3.4507	-4.206627	0.000450	4.501935	0.762649	0.000045
 349	3.4626e+01	3.4597	-4.176076	0.000307	3.069501	0.519988	0.000031
 350	3.4725e+01	3.4661	-4.134934	0.000413	4.133595	0.700250	0.000041
 351	3.4825e+01	3.4768	-4.096237	0.000389	3.888035	0.658651	0.000039
 352	3.4925e+01	3.4902	-4.057946	0.000385	3.847108	0.651718	0.000038
 353	3.5024e+01	3.4978	-4.020064	0.000381	3.806182	0.644785	0.000038
 354	3.5123e+01	3.5089	-3.977700	0.000426	4.256375	0.721049	0.000043
 355	3.5223e+01	3.5173	-3.938595	0.000393	3.928962	0.665584	0.000039
 356	3.5322e+01	3.5284	-3.898268	0.000405	4.051742	0.686384	0.000041
 357	3.5422e+01	3.5382	-3.856719	0.000417	4.174522	0.707183	0.000042
 358	3.5522e+01	3.5487	-3.816800	0.000401	4.010815	0.679450	0.000040
 359	3.5621e+01	3.5584	-3.775658	0.000413	4.133595	0.700250	0.000041
 360	3.5721e+01	3.5686	-3.737775	0.000381	3.806182	0.644785	0.000038
 361	3.5820e+01	3.5815	-3.696634	0.000413	4.133595	0.700250	0.000041
 362	3.5919e+01	3.5886	-3.654270	0.000426	4.256375	0.721049	0.000043
 363	3.6019e+01	3.5997	-3.615980	0.000385	3.847108	0.651718	0.000038
 364	3.6118e+01	3.6077	-3.574431	0.000417	4.174522	0.707183	0.000042
 365	3.6218e+01	3.6171	-3.534919	0.000397	3.969889	0.672517	0.000040
 366	3.6318e+01	3.6271	-3.493370	0.000417	4.174522	0.707183	0.000042
 367	3.6417e+01	3.6361	-3.457116	0.000364	3.642475	0.617052	0.000036
 368	3.6517e+01	3.6498	-3.415567	0.000417	4.174522	0.707183	0.000042
 369	3.6616e+01	3.6559	-3.368723	0.000471	4.706569	0.797314	0.000047
 370	3.6715e+01	3.6668	-3.330433	0.000385	3.847108	0.651718	0.000038
 371	3.6815e+01	3.6758	-3.285218	0.000454	4.542862	0.769582	0.000045
 372	3.6914e+01	3.6896	-3.242447	0.000430	4.297302	0.727983	0.000043
 373	3.7014e+01	3.7006	-3.207008	0.000356	3.560622	0.603186	0.000036
 374	3.7114e+01	3.7065	-3.158127	0.000491	4.911202	0.831980	0.000049
 375	3.7213e+01	3.7191	-3.118207	0.000401	4.010815	0.679450	0.000040
 376	3.7313e+01	3.7284	-3.075436	0.000430	4.297302	0.727983	0.000043
 377	3.7412e+01	3.7389	-3.037553	0.000381	3.806182	0.644785	0.000038
 378	3.7511e+01	3.7469	-2.991931	0.000458	4.583789	0.776515	0.000046
 379	3.7611e+01	3.7566	-2.951197	0.000409	4.092669	0.693317	0.000041
 380	3.7711e+01	3.7658	-2.907611	0.000438	4.379155	0.741849	0.000044
 381	3.7810e+01	3.7776	-2.864840	0.000430	4.297302	0.727983	0.000043
 382	3.7910e+01	3.7840	-2.824513	0.000405	4.051742	0.686384	0.000041
 383	3.8009e+01	3.7955	-2.780928	0.000438	4.379155	0.741849	0.000044
 384	3.8108e+01	3.8068	-2.741415	0.000397	3.969889	0.672517	0.000040
 385	3.8208e+01	3.8150	-2.698644	0.000430	4.297302	0.727983	0.000043
 386	3.8307e+01	3.8265	-2.657095	0.000417	4.174522	0.707183	0.000042
 387	3.8407e+01	3.8375	-2.616769	0.000405	4.051742	0.686384	0.000041
 388	3.8507e+01	3.8435	-2.574405	0.000426	4.256375	0.721049	0.000043
 389	3.8606e+01	3.8589	-2.529597	0.000450	4.501935	0.762649	0.000045
 390	3.8706e+01	3.8653	-2.486419	0.000434	4.338229	0.734916	0.000043
 391	3.8805e+01	3.8789	-2.446092	0.000405	4.051742	0.686384	0.000041
 392	3.8904e+01	3.8827	-2.402099	0.000442	4.420082	0.748782	0.000044
 393	3.9004e+01	3.8955	-2.356477	0.000458	4.583789	0.776515	0.000046
 394	3.9103e+01	3.9056	-2.315742	0.000409	4.092669	0.693317	0.000041
 395	3.9203e+01	3.9132	-2.272157	0.000438	4.379155	0.741849	0.000044
 396	3.9303e+01	3.9272	-2.229386	0.000430	4.297302	0.727983	0.000043
 397	3.9402e+01	3.9352	-2.184985	0.000446	4.461009	0.755715	0.000045
 398	3.9502e+01	3.9462	-2.145066	0.000401	4.010815	0.679450	0.000040
 399	3.9601e+01	3.9558	-2.099851	0.000454	4.542862	0.769582	0.000045
 400	3.9700e+01	3.9639	-2.060746	0.000393	3.928962	0.665584	0.000039
 401	3.9800e+01	3.9761	-2.015938	0.000450	4.501935	0.762649	0.000045
 402	3.9900e+01	3.9864	-1.972760	0.000434	4.338229	0.734916	0.000043
 403	3.9999e+01	3.9957	-1.935284	0.000377	3.765255	0.637851	0.000038
 404	4.0099e+01	4.0063	-1.888440	0.000471	4.706569	0.797314	0.000047
 405	4.0198e+01	4.0157	-1.843632	0.000450	4.501935	0.762649	0.000045
 406	4.0297e+01	4.0227	-1.804120	0.000397	3.969889	0.672517	0.000040
 407	4.0397e+01	4.0313	-1.755239	0.000491	4.911202	0.831980	0.000049
 408	4.0496e+01	4.0444	-1.716542	0.000389	3.888035	0.658651	0.000039
 409	4.0596e+01	4.0543	-1.676215	0.000405	4.051742	0.686384	0.000041
 410	4.0696e+01	4.0678	-1.632629	0.000438	4.379155	0.741849	0.000044
 411	4.0795e+01	4.0762	-1.589858	0.000430	4.297302	0.727983	0.000043
 412	4.0895e+01	4.0839	-1.546680	0.000434	4.338229	0.734916	0.000043
 413	4.0994e+01	4.1001	-1.506353	0.000405	4.051742	0.686384	0.000041
 414	4.1093e+01	4.1048	-1.459101	0.000475	4.747496	0.804248	0.000047
 415	4.1193e+01	4.1154	-1.419589	0.000397	3.969889	0.672517	0.000040
 416	4.1292e+01	4.1228	-1.379262	0.000405	4.051742	0.686384	0.000041
 417	4.1392e+01	4.1346	-1.334862	0.000446	4.461009	0.755715	0.000045
 418	4.1492e+01	4.1478	-1.294127	0.000409	4.092669	0.693317	0.000041
 419	4.1591e+01	4.1535	-1.245654	0.000487	4.870276	0.825047	0.000049
 420	4.1691e+01	4.1631	-1.202883	0.000430	4.297302	0.727983	0.000043
 421	4.1790e+01	4.1756	-1.158890	0.000442	4.420082	0.748782	0.000044
 422	4.1889e+01	4.1859	-1.114897	0.000442	4.420082	0.748782	0.000044
 423	4.1989e+01	4.1968	-1.072126	0.000430	4.297302	0.727983	0.000043
 424	4.2089e+01	4.2056	-1.026911	0.000454	4.542862	0.769582	0.000045
 425	4.2188e+01	4.2117	-0.985362	0.000417	4.174522	0.707183	0.000042
 426	4.2288e+01	4.2255	-0.940554	0.000450	4.501935	0.762649	0.000045
 427	4.2387e+01	4.2333	-0.899412	0.000413	4.133595	0.700250	0.000041
 428	4.2486e+01	4.2434	-0.855827	0.000438	4.379155	0.741849	0.000044
 429	4.2586e+01	4.2531	-0.809797	0.000462	4.624715	0.783448	0.000046
 430	4.2685e+01	4.2651	-0.770692	0.000393	3.928962	0.665584	0.000039
 431	4.2785e+01	4.2724	-0.724255	0.000467	4.665642	0.790381	0.000047
 432	4.2885e+01	4.2834	-0.682299	0.000422	4.215449	0.714116	0.000042
 433	4.2984e+01	4.2944	-0.635862	0.000467	4.665642	0.790381	0.000047
 434	4.3084e+01	4.3037	-0.591461	0.000446	4.461009	0.755715	0.000045
 435	4.3183e+01	4.3166	-0.545432	0.000462	4.624715	0.783448	0.000046
 436	4.3282e+01	4.3237	-0.500624	0.000450	4.501935	0.762649	0.000045
 437	4.3382e+01	4.3333	-0.455816	0.000450	4.501935	0.762649	0.000045
 438	4.3481e+01	4.3454	-0.414675	0.000413	4.133595	0.700250	0.000041
 439	4.3581e+01	4.3541	-0.371089	0.000438	4.379155	0.741849	0.000044
 440	4.3681e+01	4.3643	-0.328318	0.000430	4.297302	0.727983	0.000043
 441	4.3780e+01	4.3751	-0.285547	0.000430	4.297302	0.727983	0.000043
 442	4.3880e+01	4.3833	-0.244813	0.000409	4.092669	0.693317	0.000041
 443	4.3979e+01	4.3938	-0.202449	0.000426	4.256375	0.721049	0.000043
 444	4.4078e+01	4.4068	-0.156420	0.000462	4.624715	0.783448	0.000046
 445	4.4178e+01	4.4137	-0.112019	0.000446	4.461009	0.755715	0.000045
 446	4.4278e+01	4.4257	-0.070470	0.000417	4.174522	0.707183	0.000042
 447	4.4377e+01	4.4321	-0.028921	0.000417	4.174522	0.707183	0.000042
 448	4.4477e+01	4.4419	0.018330	0.000475	4.747496	0.804248	0.000047
 449	4.4576e+01	4.4514	0.057435	0.000393	3.928962	0.665584	0.000039
 450	4.4675e+01	4.4643	0.099392	0.000422	4.215449	0.714116	0.000042
 451	4.4775e+01	4.4743	0.142163	0.000430	4.297302	0.727983	0.000043
 452	4.4874e+01	4.4878	0.182489	0.000405	4.051742	0.686384	0.000041
 453	4.4974e+01	4.4930	0.225668	0.000434	4.338229	0.734916	0.000043
 454	4.5074e+01	4.5043	0.265180	0.000397	3.969889	0.672517	0.000040
 455	4.5173e+01	4.5129	0.302656	0.000377	3.765255	0.637851	0.000038
 456	4.5273e+01	4.5249	0.344204	0.000417	4.174522	0.707183	0.000042
 457	4.5372e+01	4.5308	0.382495	0.000385	3.847108	0.651718	0.000038
 458	4.5471e+01	4.5437	0.419563	0.000372	3.724328	0.630918	0.000037
 459	4.5571e+01	4.5547	0.459890	0.000405	4.051742	0.686384	0.000041
 460	4.5670e+01	4.5641	0.498587	0.000389	3.888035	0.658651	0.000039
 461	4.5770e+01	4.5764	0.540136	0.000417	4.174522	0.707183	0.000042
 462	4.5870e+01	4.5821	0.576797	0.000368	3.683402	0.623985	0.000037
 463	4.5969e+01	4.5934	0.618753	0.000422	4.215449	0.714116	0.000042
 464	4.6069e+01	4.6020	0.656636	0.000381	3.806182	0.644785	0.000038
 465	4.6168e+01	4.6131	0.692482	0.000360	3.601548	0.610119	0.000036
 466	4.6267e+01	4.6221	0.735253	0.000430	4.297302	0.727983	0.000043
 467	4.6367e+01	4.6339	0.771099	0.000360	3.601548	0.610119	0.000036
 468	4.6467e+01	4.6431	0.814278	0.000434	4.338229	0.734916	0.000043
 469	4.6566e+01	4.6517	0.849717	0.000356	3.560622	0.603186	0.000036
 470	4.6666e+01	4.6623	0.887599	0.000381	3.806182	0.644785	0.000038
 471	4.6765e+01	4.6726	0.926297	0.000389	3.888035	0.658651	0.000039
 472	4.6864e+01	4.6807	0.962958	0.000368	3.683402	0.623985	0.000037
 473	4.6964e+01	4.6908	1.004507	0.000417	4.174522	0.707183	0.000042
 474	4.7063e+01	4.7015	1.041575	0.000372	3.724328	0.630918	0.000037
 475	4.7163e+01	4.7136	1.081087	0.000397	3.969889	0.672517	0.000040
 476	4.7263e+01	4.7202	1.116933	0.000360	3.601548	0.610119	0.000036
 477	4.7362e+01	4.7301	1.154816	0.000381	3.806182	0.644785	0.000038
 478	4.7462e+01	4.7405	1.191884	0.000372	3.724328	0.630918	0.000037
 479	4.7561e+01	4.7520	1.230175	0.000385	3.847108	0.651718	0.000038
 480	4.7660e+01	4.7604	1.267650	0.000377	3.765255	0.637851	0.000038
 481	4.7760e+01	4.7737	1.306348	0.000389	3.888035	0.658651	0.000039
 482	4.7859e+01	4.7820	1.345045	0.000389	3.888035	0.658651	0.000039
 483	4.7959e+01	4.7934	1.381706	0.000368	3.683402	0.623985	0.000037
 484	4.8059e+01	4.8022	1.422033	0.000405	4.051742	0.686384	0.000041
 485	4.8158e+01	4.8109	1.458286	0.000364	3.642475	0.617052	0.000036
 486	4.8258e+01	4.8230	1.495762	0.000377	3.765255	0.637851	0.000038
 487	4.8357e+01	4.8338	1.533237	0.000377	3.765255	0.637851	0.000038
 488	4.8456e+01	4.8383	1.564603	0.000315	3.151355	0.533854	0.000032
 489	4.8556e+01	4.8509	1.606559	0.000422	4.215449	0.714116	0.000042
 490	4.8656e+01	4.8605	1.642813	0.000364	3.642475	0.617052	0.000036
 491	4.8755e+01	4.8716	1.676215	0.000336	3.355988	0.568520	0.000034
 492	4.8855e+01	4.8817	1.714912	0.000389	3.888035	0.658651	0.000039
 493	4.8954e+01	4.8927	1.753202	0.000385	3.847108	0.651718	0.000038
 494	4.9053e+01	4.9012	1.786197	0.000332	3.315062	0.561587	0.000033
 495	4.9153e+01	4.9140	1.825709	0.000397	3.969889	0.672517	0.000040
 496	4.9252e+01	4.9171	1.860333	0.000348	3.478768	0.589319	0.000035
 497	4.9352e+01	4.9292	1.897402	0.000372	3.724328	0.630918	0.000037
 498	4.9452e+01	4.9421	1.938951	0.000417	4.174522	0.707183	0.000042
 499	4.9551e+01	4.9514	1.976019	0.000372	3.724328	0.630918	0.000037
 500	4.9651e+01	4.9593	2.012680	0.000368	3.683402	0.623985	0.000037
 501	4.9750e+01	4.9695	2.048933	0.000364	3.642475	0.617052	0.000036
 502	4.9849e+01	4.9813	2.081928	0.000332	3.315062	0.561587	0.000033
 503	4.9949e+01	4.9904	2.116959	0.000352	3.519695	0.596252	0.000035
 504	5.0048e+01	5.0018	2.153620	0.000368	3.683402	0.623985	0.000037
 505	5.0148e+01	5.0088	2.184578	0.000311	3.110428	0.526921	0.000031
 506	5.0248e+01	5.0191	2.219202	0.000348	3.478768	0.589319	0.000035
 507	5.0347e+01	5.0327	2.253012	0.000340	3.396915	0.575453	0.000034
 508	5.0447e+01	5.0418	2.288858	0.000360	3.601548	0.610119	0.000036
 509	5.0546e+01	5.0484	2.323482	0.000348	3.478768	0.589319	0.000035
 510	5.0645e+01	5.0617	2.360143	0.000368	3.683402	0.623985	0.000037
 511	5.0745e+01	5.0695	2.395174	0.000352	3.519695	0.596252	0.000035
 512	5.0844e+01	5.0781	2.428576	0.000336	3.355988	0.568520	0.000034
 513	5.0944e+01	5.0909	2.464015	0.000356	3.560622	0.603186	0.000036
 514	5.1044e+01	5.1006	2.497417	0.000336	3.355988	0.568520	0.000034
 515	5.1143e+01	5.1099	2.530412	0.000332	3.315062	0.561587	0.000033
 516	5.1242e+01	5.1215	2.566665	0.000364	3.642475	0.617052	0.000036
 517	5.1342e+01	5.1302	2.600882	0.000344	3.437842	0.582386	0.000034
 518	5.1441e+01	5.1418	2.630618	0.000299	2.987648	0.506121	0.000030
 519	5.1541e+01	5.1479	2.665650	0.000352	3.519695	0.596252	0.000035
 520	5.1641e+01	5.1587	2.697422	0.000319	3.192281	0.540787	0.000032
 521	5.1740e+01	5.1699	2.731232	0.000340	3.396915	0.575453	0.000034
 522	5.1840e+01	5.1763	2.763005	0.000319	3.192281	0.540787	0.000032
 523	5.1939e+01	5.1893	2.798036	0.000352	3.519695	0.596252	0.000035
 524	5.2038e+01	5.1978	2.834289	0.000364	3.642475	0.617052	0.000036
 525	5.2138e+01	5.2084	2.871765	0.000377	3.765255	0.637851	0.000038
 526	5.2237e+01	5.2193	2.906389	0.000348	3.478768	0.589319	0.000035
 527	5.2337e+01	5.2317	2.942643	0.000364	3.642475	0.617052	0.000036
 528	5.2437e+01	5.2395	2.977267	0.000348	3.478768	0.589319	0.000035
 529	5.2536e+01	5.2487	3.007410	0.000303	3.028575	0.513054	0.000030
 530	5.2636e+01	5.2601	3.046515	0.000393	3.928962	0.665584	0.000039
 531	5.2735e+01	5.2686	3.079917	0.000336	3.355988	0.568520	0.000034
 532	5.2834e+01	5.2808	3.114541	0.000348	3.478768	0.589319	0.000035
 533	5.2934e+01	5.2884	3.154053	0.000397	3.969889	0.672517	0.000040
 534	5.3033e+01	5.2991	3.184197	0.000303	3.028575	0.513054	0.000030
 535	5.3133e+01	5.3091	3.219636	0.000356	3.560622	0.603186	0.000036
 536	5.3233e+01	5.3168	3.259148	0.000397	3.969889	0.672517	0.000040
 537	5.3332e+01	5.3298	3.291735	0.000327	3.274135	0.554653	0.000033
 538	5.3431e+01	5.3413	3.327989	0.000364	3.642475	0.617052	0.000036
 539	5.3531e+01	5.3490	3.366686	0.000389	3.888035	0.658651	0.000039
 540	5.3630e+01	5.3585	3.399274	0.000327	3.274135	0.554653	0.000033
 541	5.3730e+01	5.3700	3.437156	0.000381	3.806182	0.644785	0.000038
 542	5.3830e+01	5.3774	3.471373	0.000344	3.437842	0.582386	0.000034
 543	5.3929e+01	5.3863	3.513737	0.000426	4.256375	0.721049	0.000043
 544	5.4029e+01	5.3971	3.546732	0.000332	3.315062	0.561587	0.000033
 545	5.4128e+01	5.4089	3.587873	0.000413	4.133595	0.700250	0.000041
 546	5.4227e+01	5.4186	3.622090	0.000344	3.437842	0.582386	0.000034
 547	5.4327e+01	5.4299	3.655492	0.000336	3.355988	0.568520	0.000034
 548	5.4426e+01	5.4395	3.695819	0.000405	4.051742	0.686384	0.000041
 549	5.4526e+01	5.4491	3.729628	0.000340	3.396915	0.575453	0.000034
 550	5.4626e+01	5.4610	3.768326	0.000389	3.888035	0.658651	0.000039
 551	5.4725e+01	5.4679	3.807023	0.000389	3.888035	0.658651	0.000039
 552	5.4825e+01	5.4794	3.841240	0.000344	3.437842	0.582386	0.000034
 553	5.4924e+01	5.4859	3.880345	0.000393	3.928962	0.665584	0.000039
 554	5.5023e+01	5.4986	3.915784	0.000356	3.560622	0.603186	0.000036
 555	5.5123e+01	5.5083	3.952037	0.000364	3.642475	0.617052	0.000036
 556	5.5222e+01	5.5156	3.989106	0.000372	3.724328	0.630918	0.000037
 557	5.5322e+01	5.5283	4.032691	0.000438	4.379155	0.741849	0.000044
 558	5.5422e+01	5.5370	4.065279	0.000327	3.274135	0.554653	0.000033
 559	5.5521e+01	5.5476	4.104384	0.000393	3.928962	0.665584	0.000039
 560	5.5620e+01	5.5557	4.141044	0.000368	3.683402	0.623985	0.000037
 561	5.5720e+01	5.5687	4.180149	0.000393	3.928962	0.665584	0.000039
 562	5.5819e+01	5.5785	4.216810	0.000368	3.683402	0.623985	0.000037
 563	5.5919e+01	5.5865	4.256730	0.000401	4.010815	0.679450	0.000040
 564	5.6019e+01	5.5962	4.292576	0.000360	3.601548	0.610119	0.000036
 565	5.6118e+01	5.6092	4.329644	0.000372	3.724328	0.630918	0.000037
 566	5.6218e+01	5.6185	4.365897	0.000364	3.642475	0.617052	0.000036
 567	5.6317e+01	5.6297	4.402558	0.000368	3.683402	0.623985	0.000037
 568	5.6416e+01	5.6428	4.439626	0.000372	3.724328	0.630918	0.000037
 569	5.6516e+01	5.6489	4.479139	0.000397	3.969889	0.672517	0.000040
 570	5.6615e+01	5.6568	4.515800	0.000368	3.683402	0.623985	0.000037
 571	5.6715e+01	5.6690	4.553275	0.000377	3.765255	0.637851	0.000038
 572	5.6815e+01	5.6760	4.595639	0.000426	4.256375	0.721049	0.000043
 573	5.6914e+01	5.6890	4.626189	0.000307	3.069501	0.519988	0.000031
 574	5.7014e+01	5.6995	4.666516	0.000405	4.051742	0.686384	0.000041
 575	5.7113e+01	5.7069	4.705214	0.000389	3.888035	0.658651	0.000039
 576	5.7212e+01	5.7185	4.744726	0.000397	3.969889	0.672517	0.000040
 577	5.7312e+01	5.7280	4.778943	0.000344	3.437842	0.582386	0.000034
 578	5.7411e+01	5.7390	4.818862	0.000401	4.010815	0.679450	0.000040
 579	5.7511e+01	5.7438	4.854301	0.000356	3.560622	0.603186	0.000036
 580	5.7611e+01	5.7578	4.892999	0.000389	3.888035	0.658651	0.000039
 581	5.7710e+01	5.7655	4.929252	0.000364	3.642475	0.617052	0.000036
 582	5.7809e+01	5.7770	4.966728	0.000377	3.765255	0.637851	0.000038
 583	5.7909e+01	5.7882	5.002981	0.000364	3.642475	0.617052	0.000036
 584	5.8008e+01	5.7967	5.042086	0.000393	3.928962	0.665584	0.000039
 585	5.8108e+01	5.8067	5.077525	0.000356	3.560622	0.603186	0.000036
 586	5.8208e+01	5.8184	5.119074	0.000417	4.174522	0.707183	0.000042
 587	5.8307e+01	5.8257	5.155735	0.000368	3.683402	0.623985	0.000037
 588	5.8407e+01	5.8370	5.194840	0.000393	3.928962	0.665584	0.000039
 589	5.8506e+01	5.8485	5.235166	0.000405	4.051742	0.686384	0.000041
 590	5.8605e+01	5.8566	5.272642	0.000377	3.765255	0.637851	0.000038
 591	5.8705e+01	5.8654	5.312562	0.000401	4.010815	0.679450	0.000040
 592	5.8804e+01	5.8782	5.350852	0.000385	3.847108	0.651718	0.000038
 593	5.8904e+01	5.8863	5.387920	0.000372	3.724328	0.630918	0.000037
 594	5.9004e+01	5.8962	5.431913	0.000442	4.420082	0.748782	0.000044
 595	5.9103e+01	5.9057	5.467352	0.000356	3.560622	0.603186	0.000036
 596	5.9203e+01	5.9136	5.506049	0.000389	3.888035	0.658651	0.000039
 597	5.9302e+01	5.9248	5.542303	0.000364	3.642475	0.617052	0.000036
 598	5.9401e+01	5.9350	5.583037	0.000409	4.092669	0.693317	0.000041
 599	5.9501e+01	5.9454	5.619290	0.000364	3.642475	0.617052	0.000036
 600	5.9600e+01	5.9570	5.659210	0.000401	4.010815	0.679450	0.000040
 601	5.9700e+01	5.9672	5.697908	0.000389	3.888035	0.658651	0.000039
 602	5.9800e+01	5.9745	5.739049	0.000413	4.133595	0.700250	0.000041
 603	5.9899e+01	5.9859	5.783042	0.000442	4.420082	0.748782	0.000044
 604	5.9998e+01	5.9950	5.820518	0.000377	3.765255	0.637851	0.000038
 605	6.0098e+01	6.0043	5.862881	0.000426	4.256375	0.721049	0.000043
 606	6.0197e+01	6.0156	5.899135	0.000364	3.642475	0.617052	0.000036
 607	6.0297e+01	6.0265	5.942313	0.000434	4.338229	0.734916	0.000043
 608	6.0397e+01	6.0342	5.977345	0.000352	3.519695	0.596252	0.000035
 609	6.0496e+01	6.0459	6.012376	0.000352	3.519695	0.596252	0.000035
 610	6.0596e+01	6.0583	6.053925	0.000417	4.174522	0.707183	0.000042
 611	6.0695e+01	6.0641	6.086920	0.000332	3.315062	0.561587	0.000033
 612	6.0794e+01	6.0741	6.128469	0.000417	4.174522	0.707183	0.000042
 613	6.0894e+01	6.0841	6.167166	0.000389	3.888035	0.658651	0.000039
 614	6.0993e+01	6.0964	6.204642	0.000377	3.765255	0.637851	0.000038
 615	6.1093e+01	6.1040	6.239266	0.000348	3.478768	0.589319	0.000035
 616	6.1193e+01	6.1134	6.283666	0.000446	4.461009	0.755715	0.000045
 617	6.1292e+01	6.1249	6.319105	0.000356	3.560622	0.603186	0.000036
 618	6.1392e+01	6.1377	6.354136	0.000352	3.519695	0.596252	0.000035
 619	6.1491e+01	6.1443	6.393241	0.000393	3.928962	0.665584	0.000039
 620	6.1590e+01	6.1553	6.428680	0.000356	3.560622	0.603186	0.000036
 621	6.1690e+01	6.1636	6.465748	0.000372	3.724328	0.630918	0.000037
 622	6.1789e+01	6.1727	6.503631	0.000381	3.806182	0.644785	0.000038
 623	6.1889e+01	6.1842	6.534182	0.000307	3.069501	0.519988	0.000031
 624	6.1989e+01	6.1926	6.572472	0.000385	3.847108	0.651718	0.000038
 625	6.2088e+01	6.2059	6.604245	0.000319	3.192281	0.540787	0.000032
 626	6.2188e+01	6.2122	6.641720	0.000377	3.765255	0.637851	0.000038
 627	6.2287e+01	6.2249	6.677974	0.000364	3.642475	0.617052	0.000036
 628	6.2386e+01	6.2365	6.713820	0.000360	3.601548	0.610119	0.000036
 629	6.2486e+01	6.2452	6.745185	0.000315	3.151355	0.533854	0.000032
 630	6.2586e+01	6.2560	6.783476	0.000385	3.847108	0.651718	0.000038
 631	6.2685e+01	6.2676	6.818507	0.000352	3.519695	0.596252	0.000035
 632	6.2785e+01	6.2740	6.852316	0.000340	3.396915	0.575453	0.000034
 633	6.2884e+01	6.2817	6.883682	0.000315	3.151355	0.533854	0.000032
 634	6.2983e+01	6.2935	6.918713	0.000352	3.519695	0.596252	0.000035
 635	6.3083e+01	6.3025	6.949264	0.000307	3.069501	0.519988	0.000031
 636	6.3182e+01	6.3131	6.986739	0.000377	3.765255	0.637851	0.000038
 637	6.3282e+01	6.3205	7.021364	0.000348	3.478768	0.589319	0.000035
 638	6.3382e+01	6.3349	7.053951	0.000327	3.274135	0.554653	0.000033
 639	6.3481e+01	6.3410	7.089797	0.000360	3.601548	0.610119	0.000036
 640	6.3581e+01	6.3522	7.120755	0.000311	3.110428	0.526921	0.000031
 641	6.3680e+01	6.3634	7.156194	0.000356	3.560622	0.603186	0.000036
 642	6.3779e+01	6.3708	7.192447	0.000364	3.642475	0.617052	0.000036
 643	6.3879e+01	6.3857	7.225850	0.000336	3.355988	0.568520	0.000034
 644	6.3978e+01	6.3915	7.256808	0.000311	3.110428	0.526921	0.000031
 645	6.4078e+01	6.4022	7.289395	0.000327	3.274135	0.554653	0.000033
 646	6.4177e+01	6.4126	7.321575	0.000323	3.233208	0.547720	0.000032
 647	6.4277e+01	6.4236	7.360680	0.000393	3.928962	0.665584	0.000039
 648	6.4376e+01	6.4333	7.390009	0.000295	2.946721	0.499188	0.000029
 649	6.4476e+01	6.4422	7.429521	0.000397	3.969889	0.672517	0.000040
 650	6.4576e+01	6.4542	7.461701	0.000323	3.233208	0.547720	0.000032
 651	6.4675e+01	6.4637	7.491844	0.000303	3.028575	0.513054	0.000030
 652	6.4775e+01	6.4742	7.526468	0.000348	3.478768	0.589319	0.000035
 653	6.4874e+01	6.4814	7.559056	0.000327	3.274135	0.554653	0.000033
 654	6.4974e+01	6.4921	7.593680	0.000348	3.478768	0.589319	0.000035
 655	6.5073e+01	6.5016	7.623009	0.000295	2.946721	0.499188	0.000029
 656	6.5172e+01	6.5125	7.658855	0.000360	3.601548	0.610119	0.000036
 657	6.5272e+01	6.5246	7.690220	0.000315	3.151355	0.533854	0.000032
 658	6.5371e+01	6.5322	7.719549	0.000295	2.946721	0.499188	0.000029
 659	6.5471e+01	6.5437	7.752951	0.000336	3.355988	0.568520	0.000034
 660	6.5570e+01	6.5536	7.783501	0.000307	3.069501	0.519988	0.000031
 661	6.5670e+01	6.5627	7.821384	0.000381	3.806182	0.644785	0.000038
 662	6.5769e+01	6.5713	7.851528	0.000303	3.028575	0.513054	0.000030
 663	6.5869e+01	6.5833	7.884522	0.000332	3.315062	0.561587	0.000033
 664	6.5969e+01	6.5919	7.921998	0.000377	3.765255	0.637851	0.000038
 665	6.6068e+01	6.6009	7.953771	0.000319	3.192281	0.540787	0.000032
 666	6.6168e+01	6.6138	7.984321	0.000307	3.069501	0.519988	0.000031
 667	6.6267e+01	6.6228	8.019353	0.000352	3.519695	0.596252	0.000035
 668	6.6367e+01	6.6326	8.049496	0.000303	3.028575	0.513054	0.000030
 669	6.6466e+01	6.6427	8.081269	0.000319	3.192281	0.540787	0.000032
 670	6.6566e+01	6.6518	8.113856	0.000327	3.274135	0.554653	0.000033
 671	6.6665e+01	6.6618	8.146036	0.000323	3.233208	0.547720	0.000032
 672	6.6764e+01	6.6711	8.175772	0.000299	2.987648	0.506121	0.000030
 673	6.6864e+01	6.6822	8.203064	0.000274	2.742088	0.464522	0.000027
 674	6.6963e+01	6.6924	8.237281	0.000344	3.437842	0.582386	0.000034
 675	6.7063e+01	6.7004	8.266202	0.000291	2.905795	0.492255	0.000029
 676	6.7162e+01	6.7092	8.294309	0.000282	2.823941	0.478389	0.000028
 677	6.7262e+01	6.7214	8.327304	0.000332	3.315062	0.561587	0.000033
 678	6.7362e+01	6.7294	8.358669	0.000315	3.151355	0.533854	0.000032
 679	6.7461e+01	6.7432	8.393701	0.000352	3.519695	0.596252	0.000035
 680	6.7561e+01	6.7486	8.418956	0.000254	2.537455	0.429856	0.000025
 681	6.7660e+01	6.7599	8.450729	0.000319	3.192281	0.540787	0.000032
 682	6.7760e+01	6.7699	8.484131	0.000336	3.355988	0.568520	0.000034
 683	6.7859e+01	6.7824	8.511830	0.000278	2.783015	0.471455	0.000028
 684	6.7959e+01	6.7898	8.544825	0.000332	3.315062	0.561587	0.000033
 685	6.8058e+01	6.8005	8.573339	0.000286	2.864868	0.485322	0.000029
 686	6.8157e+01	6.8116	8.599816	0.000266	2.660235	0.450656	0.000027
 687	6.8257e+01	6.8249	8.630774	0.000311	3.110428	0.526921	0.000031
 688	6.8356e+01	6.8298	8.659288	0.000286	2.864868	0.485322	0.000029
 689	6.8456e+01	6.8398	8.687802	0.000286	2.864868	0.485322	0.000029
 690	6.8555e+01	6.8507	8.719575	0.000319	3.192281	0.540787	0.000032
 691	6.8655e+01	6.8600	8.753384	0.000340	3.396915	0.575453	0.000034
 692	6.8754e+01	6.8716	8.785564	0.000323	3.233208	0.547720	0.000032
 693	6.8854e+01	6.8808	8.816115	0.000307	3.069501	0.519988	0.000031
 694	6.8954e+01	6.8909	8.849110	0.000332	3.315062	0.561587	0.000033
 695	6.9053e+01	6.9025	8.880475	0.000315	3.151355	0.533854	0.000032
 696	6.9153e+01	6.9103	8.911026	0.000307	3.069501	0.519988	0.000031
 697	6.9252e+01	6.9183	8.941984	0.000311	3.110428	0.526921	0.000031
 698	6.9352e+01	6.9274	8.971312	0.000295	2.946721	0.499188	0.000029
 699	6.9451e+01	6.9419	9.002678	0.000315	3.151355	0.533854	0.000032
 700	6.9550e+01	6.9474	9.034043	0.000315	3.151355	0.533854	0.000032
 701	6.9650e+01	6.9593	9.063372	0.000295	2.946721	0.499188	0.000029
 702	6.9749e+01	6.9711	9.095959	0.000327	3.274135	0.554653	0.000033
 703	6.9849e+01	6.9800	9.130583	0.000348	3.478768	0.589319	0.000035
 704	6.9948e+01	6.9904	9.158283	0.000278	2.783015	0.471455	0.000028
 705	7.0048e+01	7.0000	9.196573	0.000385	3.847108	0.651718	0.000038
 706	7.0147e+01	7.0117	9.227123	0.000307	3.069501	0.519988	0.000031
 707	7.0247e+01	7.0190	9.262970	0.000360	3.601548	0.610119	0.000036
 708	7.0347e+01	7.0301	9.296372	0.000336	3.355988	0.568520	0.000034
 709	7.0446e+01	7.0405	9.328959	0.000327	3.274135	0.554653	0.000033
 710	7.0546e+01	7.0492	9.359510	0.000307	3.069501	0.519988	0.000031
 711	7.0645e+01	7.0615	9.394541	0.000352	3.519695	0.596252	0.000035
 712	7.0745e+01	7.0689	9.427943	0.000336	3.355988	0.568520	0.000034
 713	7.0844e+01	7.0821	9.463382	0.000356	3.560622	0.603186	0.000036
 714	7.0944e+01	7.0908	9.497192	0.000340	3.396915	0.575453	0.000034
 715	7.1043e+01	7.0998	9.526520	0.000295	2.946721	0.499188	0.000029
 716	7.1142e+01	7.1094	9.562366	0.000360	3.601548	0.610119	0.000036
 717	7.1242e+01	7.1206	9.601064	0.000389	3.888035	0.658651	0.000039
 718	7.1341e+01	7.1278	9.631207	0.000303	3.028575	0.513054	0.000030
 719	7.1441e+01	7.1410	9.665424	0.000344	3.437842	0.582386	0.000034
 720	7.1540e+01	7.1510	9.699641	0.000344	3.437842	0.582386	0.000034
 721	7.1640e+01	7.1572	9.735080	0.000356	3.560622	0.603186	0.000036
 722	7.1740e+01	7.1711	9.768074	0.000332	3.315062	0.561587	0.000033
 723	7.1839e+01	7.1799	9.800662	0.000327	3.274135	0.554653	0.000033
 724	7.1939e+01	7.1911	9.835693	0.000352	3.519695	0.596252	0.000035
 725	7.2038e+01	7.2012	9.872354	0.000368	3.683402	0.623985	0.000037
 726	7.2138e+01	7.2086	9.905349	0.000332	3.315062	0.561587	0.000033
 727	7.2237e+01	7.2202	9.942417	0.000372	3.724328	0.630918	0.000037
 728	7.2337e+01	7.2253	9.980707	0.000385	3.847108	0.651718	0.000038
 729	7.2436e+01	7.2388	10.011665	0.000311	3.110428	0.526921	0.000031
 730	7.2535e+01	7.2488	10.048733	0.000372	3.724328	0.630918	0.000037
 731	7.2635e+01	7.2570	10.084172	0.000356	3.560622	0.603186	0.000036
 732	7.2734e+01	7.2678	10.115945	0.000319	3.192281	0.540787	0.000032
 733	7.2834e+01	7.2796	10.151384	0.000356	3.560622	0.603186	0.000036
 734	7.2933e+01	7.2883	10.184378	0.000332	3.315062	0.561587	0.000033
 735	7.3033e+01	7.2998	10.221447	0.000372	3.724328	0.630918	0.000037
 736	7.3132e+01	7.3104	10.255663	0.000344	3.437842	0.582386	0.000034
 737	7.3232e+01	7.3183	10.291917	0.000364	3.642475	0.617052	0.000036
 738	7.3332e+01	7.3283	10.325319	0.000336	3.355988	0.568520	0.000034
 739	7.3431e+01	7.3396	10.363609	0.000385	3.847108	0.651718	0.000038
 740	7.3531e+01	7.3455	10.401085	0.000377	3.765255	0.637851	0.000038
 741	7.3630e+01	7.3578	10.435709	0.000348	3.478768	0.589319	0.000035
 742	7.3730e+01	7.3704	10.470333	0.000348	3.478768	0.589319	0.000035
 743	7.3829e+01	7.3803	10.504550	0.000344	3.437842	0.582386	0.000034
 744	7.3928e+01	7.3879	10.541211	0.000368	3.683402	0.623985	0.000037
 745	7.4028e+01	7.3977	10.573798	0.000327	3.274135	0.554653	0.000033
 746	7.4127e+01	7.4066	10.610051	0.000364	3.642475	0.617052	0.000036
 747	7.4227e+01	7.4196	10.649156	0.000393	3.928962	0.665584	0.000039
 748	7.4326e+01	7.4327	10.683780	0.000348	3.478768	0.589319	0.000035
 749	7.4426e+01	7.4387	10.714331	0.000307	3.069501	0.519988	0.000031
 750	7.4525e+01	7.4455	10.752214	0.000381	3.806182	0.644785	0.000038
 751	7.4625e+01	7.4599	10.784801	0.000327	3.274135	0.554653	0.000033
 752	7.4725e+01	7.4665	10.823499	0.000389	3.888035	0.658651	0.000039
 753	7.4824e+01	7.4781	10.857716	0.000344	3.437842	0.582386	0.000034
 754	7.4924e+01	7.4895	10.893562	0.000360	3.601548	0.610119	0.000036
 755	7.5023e+01	7.4978	10.929408	0.000360	3.601548	0.610119	0.000036
 756	7.5123e+01	7.5039	10.970142	0.000409	4.092669	0.693317	0.000041
 757	7.5222e+01	7.5175	11.008432	0.000385	3.847108	0.651718	0.000038
 758	7.5322e+01	7.5245	11.044686	0.000364	3.642475	0.617052	0.000036
 759	7.5421e+01	7.5381	11.081754	0.000372	3.724328	0.630918	0.000037
 760	7.5520e+01	7.5488	11.116378	0.000348	3.478768	0.589319	0.000035
 761	7.5620e+01	7.5574	11.155483	0.000393	3.928962	0.665584	0.000039
 762	7.5719e+01	7.5684	11.192144	0.000368	3.683402	0.623985	0.000037
 763	7.5819e+01	7.5784	11.224731	0.000327	3.274135	0.554653	0.000033
 764	7.5918e+01	7.5876	11.261800	0.000372	3.724328	0.630918	0.000037
 765	7.6018e+01	7.5964	11.298868	0.000372	3.724328	0.630918	0.000037
 766	7.6118e+01	7.6051	11.335936	0.000372	3.724328	0.630918	0.000037
 767	7.6217e+01	7.6156	11.369745	0.000340	3.396915	0.575453	0.000034
 768	7.6317e+01	7.6293	11.412924	0.000434	4.338229	0.734916	0.000043
 769	7.6416e+01	7.6352	11.449584	0.000368	3.683402	0.623985	0.000037
 770	7.6516e+01	7.6481	11.488282	0.000389	3.888035	0.658651	0.000039
 771	7.6615e+01	7.6563	11.524535	0.000364	3.642475	0.617052	0.000036
 772	7.6715e+01	7.6651	11.568121	0.000438	4.379155	0.741849	0.000044
 773	7.6814e+01	7.6768	11.601116	0.000332	3.315062	0.561587	0.000033
 774	7.6913e+01	7.6855	11.638999	0.000381	3.806182	0.644785	0.000038
 775	7.7013e+01	7.6974	11.676882	0.000381	3.806182	0.644785	0.000038
 776	7.7112e+01	7.7070	11.708247	0.000315	3.151355	0.533854	0.000032
 777	7.7212e+01	7.7163	11.748574	0.000405	4.051742	0.686384	0.000041
 778	7.7311e+01	7.7254	11.781569	0.000332	3.315062	0.561587	0.000033
 779	7.7411e+01	7.7368	11.821488	0.000401	4.010815	0.679450	0.000040
 780	7.7510e+01	7.7459	11.854890	0.000336	3.355988	0.568520	0.000034
 781	7.7610e+01	7.7562	11.898069	0.000434	4.338229	0.734916	0.000043
 782	7.7710e+01	7.7662	11.931878	0.000340	3.396915	0.575453	0.000034
 783	7.7809e+01	7.7775	11.966909	0.000352	3.519695	0.596252	0.000035
 784	7.7909e+01	7.7872	12.007236	0.000405	4.051742	0.686384	0.000041
 785	7.8008e+01	7.7988	12.041453	0.000344	3.437842	0.582386	0.000034
 786	7.8108e+01	7.8070	12.078929	0.000377	3.765255	0.637851	0.000038
 787	7.8207e+01	7.8149	12.114367	0.000356	3.560622	0.603186	0.000036
 788	7.8306e+01	7.8223	12.151843	0.000377	3.765255	0.637851	0.000038
 789	7.8406e+01	7.8334	12.185245	0.000336	3.355988	0.568520	0.000034
 790	7.8505e+01	7.8435	12.216610	0.000315	3.151355	0.533854	0.000032
 791	7.8605e+01	7.8555	12.251642	0.000352	3.519695	0.596252	0.000035
 792	7.8704e+01	7.8651	12.285044	0.000336	3.355988	0.568520	0.000034
 793	7.8804e+01	7.8736	12.319668	0.000348	3.478768	0.589319	0.000035
 794	7.8903e+01	7.8851	12.355107	0.000356	3.560622	0.603186	0.000036
 795	7.9003e+01	7.8962	12.387694	0.000327	3.274135	0.554653	0.000033
 796	7.9103e+01	7.9032	12.422726	0.000352	3.519695	0.596252	0.000035
 797	7.9202e+01	7.9153	12.455721	0.000332	3.315062	0.561587	0.000033
 798	7.9302e+01	7.9257	12.487493	0.000319	3.192281	0.540787	0.000032
 799	7.9401e+01	7.9365	12.524561	0.000372	3.724328	0.630918	0.000037
 800	7.9501e+01	7.9448	12.555927	0.000315	3.151355	0.533854	0.000032
 801	7.9600e+01	7.9560	12.589329	0.000336	3.355988	0.568520	0.000034
 802	7.9700e+01	7.9661	12.623953	0.000348	3.478768	0.589319	0.000035
 803	7.9799e+01	7.9765	12.658984	0.000352	3.519695	0.596252	0.000035
 804	7.9898e+01	7.9848	12.691572	0.000327	3.274135	0.554653	0.000033
 805	7.9998e+01	7.9980	12.727011	0.000356	3.560622	0.603186	0.000036
 806	8.0097e+01	8.0038	12.763264	0.000364	3.642475	0.617052	0.000036
 807	8.0197e+01	8.0141	12.796259	0.000332	3.315062	0.561587	0.000033
 808	8.0296e+01	8.0227	12.830883	0.000348	3.478768	0.589319	0.000035
 809	8.0396e+01	8.0343	12.860212	0.000295	2.946721	0.499188	0.000029
 810	8.0496e+01	8.0453	12.894021	0.000340	3.396915	0.575453	0.000034
 811	8.0595e+01	8.0520	12.925387	0.000315	3.151355	0.533854	0.000032
 812	8.0695e+01	8.0665	12.960825	0.000356	3.560622	0.603186	0.000036
 813	8.0794e+01	8.0770	12.992598	0.000319	3.192281	0.540787	0.000032
 814	8.0894e+01	8.0853	13.026815	0.000344	3.437842	0.582386	0.000034
 815	8.0993e+01	8.0957	13.059402	0.000327	3.274135	0.554653	0.000033
 816	8.1093e+01	8.1067	13.092804	0.000336	3.355988	0.568520	0.000034
 817	8.1192e+01	8.1149	13.127428	0.000348	3.478768	0.589319	0.000035
 818	8.1291e+01	8.1246	13.163682	0.000364	3.642475	0.617052	0.000036
 819	8.1391e+01	8.1355	13.197491	0.000340	3.396915	0.575453	0.000034
 820	8.1490e+01	8.1442	13.230079	0.000327	3.274135	0.554653	0.000033
 821	8.1590e+01	8.1554	13.263888	0.000340	3.396915	0.575453	0.000034
 822	8.1689e+01	8.1643	13.296883	0.000332	3.315062	0.561587	0.000033
 823	8.1789e+01	8.1740	13.330692	0.000340	3.396915	0.575453	0.000034
 824	8.1888e+01	8.1846	13.360836	0.000303	3.028575	0.513054	0.000030
 825	8.1988e+01	8.1931	13.397089	0.000364	3.642475	0.617052	0.000036
 826	8.2088e+01	8.2071	13.431306	0.000344	3.437842	0.582386	0.000034
 827	8.2187e+01	8.2139	13.465115	0.000340	3.396915	0.575453	0.000034
 828	8.2287e+01	8.2246	13.498110	0.000332	3.315062	0.561587	0.000033
 829	8.2386e+01	8.2363	13.531105	0.000332	3.315062	0.561587	0.000033
 830	8.2486e+01	8.2448	13.568988	0.000381	3.806182	0.644785	0.000038
 831	8.2585e+01	8.2564	13.597502	0.000286	2.864868	0.485322	0.000029
 832	8.2684e+01	8.2622	13.633348	0.000360	3.601548	0.610119	0.000036
 833	8.2784e+01	8.2732	13.668379	0.000352	3.519695	0.596252	0.000035
 834	8.2883e+01	8.2822	13.705040	0.000368	3.683402	0.623985	0.000037
 835	8.2983e+01	8.2951	13.737628	0.000327	3.274135	0.554653	0.000033
 836	8.3082e+01	8.3045	13.771844	0.000344	3.437842	0.582386	0.000034
 837	8.3182e+01	8.3125	13.808912	0.000372	3.724328	0.630918	0.000037
 838	8.3281e+01	8.3232	13.834982	0.000262	2.619308	0.443723	0.000026
 839	8.3381e+01	8.3327	13.871643	0.000368	3.683402	0.623985	0.000037
 840	8.3481e+01	8.3401	13.902601	0.000311	3.110428	0.526921	0.000031
 841	8.3580e+01	8.3521	13.935189	0.000327	3.274135	0.554653	0.000033
 842	8.3680e+01	8.3630	13.964925	0.000299	2.987648	0.506121	0.000030
 843	8.3779e+01	8.3733	13.998327	0.000336	3.355988	0.568520	0.000034
 844	8.3879e+01	8.3841	14.033766	0.000356	3.560622	0.603186	0.000036
 845	8.3978e+01	8.3926	14.065538	0.000319	3.192281	0.540787	0.000032
 846	8.4078e+01	8.4039	14.098940	0.000336	3.355988	0.568520	0.000034
 847	8.4177e+01	8.4142	14.135194	0.000364	3.642475	0.617052	0.000036
 848	8.4276e+01	8.4199	14.168596	0.000336	3.355988	0.568520	0.000034
 849	8.4376e+01	8.4328	14.201591	0.000332	3.315062	0.561587	0.000033
 850	8.4475e+01	8.4441	14.226846	0.000254	2.537455	0.429856	0.000025
 851	8.4575e+01	8.4539	14.262285	0.000356	3.560622	0.603186	0.000036
 852	8.4674e+01	8.4681	14.292021	0.000299	2.987648	0.506121	0.000030
 853	8.4774e+01	8.4734	14.327867	0.000360	3.601548	0.610119	0.000036
 854	8.4874e+01	8.4818	14.357196	0.000295	2.946721	0.499188	0.000029
 855	8.4973e+01	8.4937	14.385710	0.000286	2.864868	0.485322	0.000029
 856	8.5073e+01	8.5015	14.418297	0.000327	3.274135	0.554653	0.000033
 857	8.5172e+01	8.5128	14.452106	0.000340	3.396915	0.575453	0.000034
 858	8.5272e+01	8.5227	14.485508	0.000336	3.355988	0.568520	0.000034
 859	8.5371e+01	8.5313	14.520133	0.000348	3.478768	0.589319	0.000035
 860	8.5471e+01	8.5434	14.553127	0.000332	3.315062	0.561587	0.000033
 861	8.5570e+01	8.5525	14.589381	0.000364	3.642475	0.617052	0.000036
 862	8.5669e+01	8.5624	14.624005	0.000348	3.478768	0.589319	0.000035
 863	8.5769e+01	8.5730	14.655370	0.000315	3.151355	0.533854	0.000032
 864	8.5868e+01	8.5824	14.696105	0.000409	4.092669	0.693317	0.000041
 865	8.5968e+01	8.5927	14.727470	0.000315	3.151355	0.533854	0.000032
 866	8.6067e+01	8.6039	14.761687	0.000344	3.437842	0.582386	0.000034
 867	8.6167e+01	8.6127	14.794681	0.000332	3.315062	0.561587	0.000033
 868	8.6266e+01	8.6214	14.828084	0.000336	3.355988	0.568520	0.000034
 869	8.6366e+01	8.6295	14.867596	0.000397	3.969889	0.672517	0.000040
 870	8.6466e+01	8.6432	14.901813	0.000344	3.437842	0.582386	0.000034
 871	8.6565e+01	8.6497	14.936029	0.000344	3.437842	0.582386	0.000034
 872	8.6665e+01	8.6649	14.977171	0.000413	4.133595	0.700250	0.000041
 873	8.6764e+01	8.6722	15.008536	0.000315	3.151355	0.533854	0.000032
 874	8.6864e+01	8.6823	15.049678	0.000413	4.133595	0.700250	0.000041
 875	8.6963e+01	8.6924	15.087153	0.000377	3.765255	0.637851	0.000038
 876	8.7063e+01	8.6991	15.119333	0.000323	3.233208	0.547720	0.000032
 877	8.7162e+01	8.7109	15.164141	0.000450	4.501935	0.762649	0.000045
 878	8.7261e+01	8.7231	15.197543	0.000336	3.355988	0.568520	0.000034
 879	8.7361e+01	8.7296	15.235426	0.000381	3.806182	0.644785	0.000038
 880	8.7460e+01	8.7405	15.275346	0.000401	4.010815	0.679450	0.000040
 881	8.7560e+01	8.7514	15.313636	0.000385	3.847108	0.651718	0.000038
 882	8.7659e+01	8.7599	15.349889	0.000364	3.642475	0.617052	0.000036
 883	8.7759e+01	8.7720	15.389402	0.000397	3.969889	0.672517	0.000040
 884	8.7859e+01	8.7818	15.430951	0.000417	4.174522	0.707183	0.000042
 885	8.7958e+01	8.7939	15.468019	0.000372	3.724328	0.630918	0.000037
 886	8.8058e+01	8.7988	15.504272	0.000364	3.642475	0.617052	0.000036
 887	8.8157e+01	8.8116	15.545414	0.000413	4.133595	0.700250	0.000041
 888	8.8257e+01	8.8221	15.581667	0.000364	3.642475	0.617052	0.000036
 889	8.8356e+01	8.8313	15.621994	0.000405	4.051742	0.686384	0.000041
 890	8.8456e+01	8.8373	15.658248	0.000364	3.642475	0.617052	0.000036
 891	8.8555e+01	8.8515	15.700204	0.000422	4.215449	0.714116	0.000042
 892	8.8654e+01	8.8589	15.742568	0.000426	4.256375	0.721049	0.000043
 893	8.8754e+01	8.8721	15.780858	0.000385	3.847108	0.651718	0.000038
 894	8.8853e+01	8.8786	15.821592	0.000409	4.092669	0.693317	0.000041
 895	8.8953e+01	8.8906	15.863141	0.000417	4.174522	0.707183	0.000042
 896	8.9052e+01	8.9020	15.901839	0.000389	3.888035	0.658651	0.000039
 897	8.9152e+01	8.9104	15.944202	0.000426	4.256375	0.721049	0.000043
 898	8.9251e+01	8.9214	15.984936	0.000409	4.092669	0.693317	0.000041
 899	8.9351e+01	8.9317	16.023634	0.000389	3.888035	0.658651	0.000039
 900	8.9451e+01	8.9414	16.067220	0.000438	4.379155	0.741849	0.000044
 901	8.9550e+01	8.9502	16.104695	0.000377	3.765255	0.637851	0.000038
 902	8.9650e+01	8.9610	16.145022	0.000405	4.051742	0.686384	0.000041
 903	8.9749e+01	8.9692	16.184127	0.000393	3.928962	0.665584	0.000039
 904	8.9849e+01	8.9771	16.224046	0.000401	4.010815	0.679450	0.000040
 905	8.9948e+01	8.9893	16.267225	0.000434	4.338229	0.734916	0.000043
 906	9.0047e+01	8.9999	16.308774	0.000417	4.174522	0.707183	0.000042
 907	9.0147e+01	9.0103	16.355618	0.000471	4.706569	0.797314	0.000047
 908	9.0246e+01	9.0213	16.399204	0.000438	4.379155	0.741849	0.000044
 909	9.0346e+01	9.0283	16.443604	0.000446	4.461009	0.755715	0.000045
 910	9.0445e+01	9.0363	16.482709	0.000393	3.928962	0.665584	0.000039
 911	9.0545e+01	9.0488	16.529146	0.000467	4.665642	0.790381	0.000047
 912	9.0644e+01	9.0592	16.569066	0.000401	4.010815	0.679450	0.000040
 913	9.0744e+01	9.0708	16.613059	0.000442	4.420082	0.748782	0.000044
 914	9.0844e+01	9.0798	16.655015	0.000422	4.215449	0.714116	0.000042
 915	9.0943e+01	9.0924	16.698601	0.000438	4.379155	0.741849	0.000044
 916	9.1043e+01	9.0997	16.742594	0.000442	4.420082	0.748782	0.000044
 917	9.1142e+01	9.1086	16.782920	0.000405	4.051742	0.686384	0.000041
 918	9.1242e+01	9.1190	16.825691	0.000430	4.297302	0.727983	0.000043
 919	9.1341e+01	9.1274	16.870906	0.000454	4.542862	0.769582	0.000045
 920	9.1441e+01	9.1377	16.915714	0.000450	4.501935	0.762649	0.000045
 921	9.1540e+01	9.1448	16.955634	0.000401	4.010815	0.679450	0.000040
 922	9.1639e+01	9.1563	17.000034	0.000446	4.461009	0.755715	0.000045
 923	9.1739e+01	9.1691	17.048508	0.000487	4.870276	0.825047	0.000049
 924	9.1838e+01	9.1807	17.091686	0.000434	4.338229	0.734916	0.000043
 925	9.1938e+01	9.1879	17.140975	0.000495	4.952129	0.838913	0.000050
 926	9.2037e+01	9.2001	17.185782	0.000450	4.501935	0.762649	0.000045
 927	9.2137e+01	9.2094	17.233849	0.000483	4.829349	0.818114	0.000048
 928	9.2237e+01	9.2180	17.275805	0.000422	4.215449	0.714116	0.000042
 929	9.2336e+01	9.2285	17.325908	0.000503	5.033982	0.852780	0.000050
 930	9.2436e+01	9.2386	17.370308	0.000446	4.461009	0.755715	0.000045
 931	9.2535e+01	9.2465	17.412265	0.000422	4.215449	0.714116	0.000042
 932	9.2635e+01	9.2573	17.458294	0.000462	4.624715	0.783448	0.000046
 933	9.2734e+01	9.2688	17.506361	0.000483	4.829349	0.818114	0.000048
 934	9.2834e+01	9.2774	17.554835	0.000487	4.870276	0.825047	0.000049
 935	9.2933e+01	9.2860	17.604123	0.000495	4.952129	0.838913	0.000050
 936	9.3032e+01	9.2957	17.650967	0.000471	4.706569	0.797314	0.000047
 937	9.3132e+01	9.3079	17.699034	0.000483	4.829349	0.818114	0.000048
 938	9.3231e+01	9.3192	17.748730	0.000499	4.993056	0.845847	0.000050
 939	9.3331e+01	9.3288	17.799647	0.000512	5.115836	0.866646	0.000051
 940	9.3430e+01	9.3359	17.846899	0.000475	4.747496	0.804248	0.000047
 941	9.3530e+01	9.3484	17.898632	0.000520	5.197689	0.880512	0.000052
 942	9.3629e+01	9.3583	17.944254	0.000458	4.583789	0.776515	0.000046
 943	9.3729e+01	9.3687	17.991506	0.000475	4.747496	0.804248	0.000047
 944	9.3829e+01	9.3769	18.038758	0.000475	4.747496	0.804248	0.000047
 945	9.3928e+01	9.3890	18.088046	0.000495	4.952129	0.838913	0.000050
 946	9.4028e+01	9.3964	18.136520	0.000487	4.870276	0.825047	0.000049
 947	9.4127e+01	9.4079	18.179291	0.000430	4.297302	0.727983	0.000043
 948	9.4227e+01	9.4180	18.230616	0.000516	5.156762	0.873579	0.000052
 949	9.4326e+01	9.4292	18.282348	0.000520	5.197689	0.880512	0.000052
 950	9.4425e+01	9.4369	18.330822	0.000487	4.870276	0.825047	0.000049
 951	9.4525e+01	9.4457	18.378481	0.000479	4.788422	0.811181	0.000048
 952	9.4624e+01	9.4585	18.421252	0.000430	4.297302	0.727983	0.000043
 953	9.4724e+01	9.4640	18.475429	0.000544	5.443249	0.922111	0.000054
 954	9.4823e+01	9.4752	18.527569	0.000524	5.238616	0.887446	0.000052
 955	9.4923e+01	9.4843	18.577672	0.000503	5.033982	0.852780	0.000050
 956	9.5022e+01	9.4966	18.623701	0.000462	4.624715	0.783448	0.000046
 957	9.5122e+01	9.5068	18.669731	0.000462	4.624715	0.783448	0.000046
 958	9.5222e+01	9.5148	18.717798	0.000483	4.829349	0.818114	0.000048
 959	9.5321e+01	9.5264	18.763827	0.000462	4.624715	0.783448	0.000046
 960	9.5421e+01	9.5361	18.812708	0.000491	4.911202	0.831980	0.000049
 961	9.5520e+01	9.5471	18.864441	0.000520	5.197689	0.880512	0.000052
 962	9.5620e+01	9.5585	18.910471	0.000462	4.624715	0.783448	0.000046
 963	9.5719e+01	9.5667	18.957722	0.000475	4.747496	0.804248	0.000047
 964	9.5819e+01	9.5787	19.004567	0.000471	4.706569	0.797314	0.000047
 965	9.5918e+01	9.5879	19.059151	0.000548	5.484176	0.929045	0.000055
 966	9.6017e+01	9.5958	19.104773	0.000458	4.583789	0.776515	0.000046
 967	9.6117e+01	9.6045	19.156098	0.000516	5.156762	0.873579	0.000052
 968	9.6216e+01	9.6159	19.200091	0.000442	4.420082	0.748782	0.000044
 969	9.6316e+01	9.6257	19.250194	0.000503	5.033982	0.852780	0.000050
 970	9.6415e+01	9.6350	19.298668	0.000487	4.870276	0.825047	0.000049
 971	9.6515e+01	9.6451	19.348771	0.000503	5.033982	0.852780	0.000050
 972	9.6615e+01	9.6545	19.399689	0.000512	5.115836	0.866646	0.000051
 973	9.6714e+01	9.6661	19.448570	0.000491	4.911202	0.831980	0.000049
 974	9.6814e+01	9.6765	19.499081	0.000507	5.074909	0.859713	0.000051
 975	9.6913e+01	9.6875	19.550406	0.000516	5.156762	0.873579	0.000052
 976	9.7013e+01	9.6973	19.598880	0.000487	4.870276	0.825047	0.000049
 977	9.7112e+01	9.7070	19.648983	0.000503	5.033982	0.852780	0.000050
 978	9.7212e+01	9.7144	19.696234	0.000475	4.747496	0.804248	0.000047
 979	9.7311e+01	9.7266	19.747967	0.000520	5.197689	0.880512	0.000052
 980	9.7410e+01	9.7369	19.796848	0.000491	4.911202	0.831980	0.000049
 981	9.7510e+01	9.7455	19.848581	0.000520	5.197689	0.880512	0.000052
 982	9.7609e+01	9.7564	19.898684	0.000503	5.033982	0.852780	0.000050
 983	9.7709e+01	9.7656	19.945528	0.000471	4.706569	0.797314	0.000047
 984	9.7808e+01	9.7756	19.999297	0.000540	5.402322	0.915178	0.000054
 985	9.7908e+01	9.7871	20.052659	0.000536	5.361396	0.908245	0.000054
 986	9.8007e+01	9.7958	20.104799	0.000524	5.238616	0.887446	0.000052
 987	9.8107e+01	9.8025	20.153680	0.000491	4.911202	0.831980	0.000049
 988	9.8207e+01	9.8177	20.205820	0.000524	5.238616	0.887446	0.000052
 989	9.8306e+01	9.8273	20.257552	0.000520	5.197689	0.880512	0.000052
 990	9.8406e+01	9.8376	20.309285	0.000520	5.197689	0.880512	0.000052
 991	9.8505e+01	9.8420	20.357759	0.000487	4.870276	0.825047	0.000049
 992	9.8605e+01	9.8560	20.407047	0.000495	4.952129	0.838913	0.000050
 993	9.8704e+01	9.8660	20.460002	0.000532	5.320469	0.901312	0.000053
 994	9.8803e+01	9.8758	20.511734	0.000520	5.197689	0.880512	0.000052
 995	9.8903e+01	9.8870	20.565096	0.000536	5.361396	0.908245	0.000054
 996	9.9002e+01	9.8930	20.615607	0.000507	5.074909	0.859713	0.000051
 997	9.9102e+01	9.9038	20.667746	0.000524	5.238616	0.887446	0.000052
 998	9.9201e+01	9.9154	20.718257	0.000507	5.074909	0.859713	0.000051
 999	9.9301e+01	9.9240	20.770397	0.000524	5.238616	0.887446	0.000052
1000	9.9400e+01	9.9332	20.822537	0.000524	5.238616	0.887446	0.000052
1001	9.9500e+01	9.9447	20.880787	0.000585	5.852516	0.991443	0.000059
1002	9.9600e+01	9.9563	20.932112	0.000516	5.156762	0.873579	0.000052
1003	9.9699e+01	9.9646	20.983437	0.000516	5.156762	0.873579	0.000052
1004	9.9799e+01	9.9739	21.038021	0.000548	5.484176	0.929045	0.000055
1005	9.9898e+01	9.9854	21.093827	0.000561	5.606956	0.949844	0.000056
1006	9.9998e+01	9.9964	21.143930	0.000503	5.033982	0.852780	0.000050
1007	1.0010e+02	9.9856	21.149633	-0.000057	-0.572974	-0.097064	0.000006
1008	1.0020e+02	9.9757	21.149225	0.000004	0.040927	0.006933	-0.000000
1009	1.0030e+02	9.9675	21.152077	-0.000029	-0.286487	-0.048532	0.000003
1010	1.0040e+02	9.9530	21.150447	0.000016	0.163707	0.027733	-0.000002
1011	1.0050e+02	9.9445	21.150040	0.000004	0.040927	0.006933	-0.000000
1012	1.0059e+02	9.9341	21.153706	-0.000037	-0.368340	-0.062399	0.000004
1013	1.0069e+02	9.9252	21.152077	0.000016	0.163707	0.027733	-0.000002
1014	1.0079e+02	9.9121	21.153706	-0.000016	-0.163707	-0.027733	0.000002
1015	1.0089e+02	9.9023	21.154521	-0.000008	-0.081853	-0.013866	0.000001
1016	1.0099e+02	9.8938	21.150447	0.000041	0.409267	0.069332	-0.000004
1017	1.0109e+02	9.8840	21.152891	-0.000025	-0.245560	-0.041599	0.000002
1018	1.0119e+02	9.8718	21.145152	0.000078	0.777607	0.131730	-0.000008
1019	1.0129e+02	9.8652	21.145559	-0.000004	-0.040927	-0.006933	0.000000
1020	1.0139e+02	9.8584	21.137005	0.000086	0.859460	0.145597	-0.000009
1021	1.0149e+02	9.8455	21.134154	0.000029	0.286487	0.048532	-0.000003
1022	1.0159e+02	9.8330	21.129265	0.000049	0.491120	0.083198	-0.000005
1023	1.0169e+02	9.8260	21.123563	0.000057	0.572974	0.097064	-0.000006
1024	1.0179e+02	9.8156	21.115823	0.000078	0.777607	0.131730	-0.000008
1025	1.0189e+02	9.8058	21.115416	0.000004	0.040927	0.006933	-0.000000
1026	1.0199e+02	9.7989	21.110120	0.000053	0.532047	0.090131	-0.000005
1027	1.0209e+02	9.7840	21.103603	0.000065	0.654827	0.110931	-0.000007
1028	1.0219e+02	9.7760	21.099529	0.000041	0.409267	0.069332	-0.000004
1029	1.0229e+02	9.7635	21.095863	0.000037	0.368340	0.062399	-0.000004
1030	1.0239e+02	9.7568	21.088124	0.000078	0.777607	0.131730	-0.000008
1031	1.0248e+02	9.7446	21.081199	0.000070	0.695754	0.117864	-0.000007
1032	1.0258e+02	9.7345	21.075904	0.000053	0.532047	0.090131	-0.000005
1033	1.0268e+02	9.7253	21.064905	0.000111	1.105021	0.187196	-0.000011
1034	1.0278e+02	9.7145	21.059203	0.000057	0.572974	0.097064	-0.000006
1035	1.0288e+02	9.7049	21.051463	0.000078	0.777607	0.131730	-0.000008
1036	1.0298e+02	9.6964	21.041687	0.000098	0.982240	0.166396	-0.000010
1037	1.0308e+02	9.6866	21.035577	0.000061	0.613900	0.103998	-0.000006
1038	1.0318e+02	9.6767	21.027430	0.000082	0.818534	0.138663	-0.000008
1039	1.0328e+02	9.6667	21.022949	0.000045	0.450194	0.076265	-0.000005
1040	1.0338e+02	9.6572	21.017654	0.000053	0.532047	0.090131	-0.000005
1041	1.0348e+02	9.6462	21.009507	0.000082	0.818534	0.138663	-0.000008
1042	1.0358e+02	9.6359	21.001767	0.000078	0.777607	0.131730	-0.000008
1043	1.0368e+02	9.6267	20.994435	0.000074	0.736680	0.124797	-0.000007
1044	1.0378e+02	9.6152	20.985474	0.000090	0.900387	0.152530	-0.000009
1045	1.0388e+02	9.6051	20.979771	0.000057	0.572974	0.097064	-0.000006
1046	1.0398e+02	9.5947	20.970402	0.000094	0.941314	0.159463	-0.000009
1047	1.0408e+02	9.5869	20.960626	0.000098	0.982240	0.166396	-0.000010
1048	1.0418e+02	9.5802	20.952479	0.000082	0.818534	0.138663	-0.000008
1049	1.0428e+02	9.5664	20.937814	0.000147	1.473361	0.249594	-0.000015
1050	1.0438e+02	9.5535	20.929260	0.000086	0.859460	0.145597	-0.000009
1051	1.0447e+02	9.5460	20.925187	0.000041	0.409267	0.069332	-0.000004
1052	1.0457e+02	9.5366	20.913781	0.000115	1.145947	0.194129	-0.000011
1053	1.0467e+02	9.5251	20.900339	0.000135	1.350581	0.228795	-0.000014
1054	1.0477e+02	9.5154	20.895858	0.000045	0.450194	0.076265	-0.000005
1055	1.0487e+02	9.5044	20.881601	0.000143	1.432434	0.242661	-0.000014
1056	1.0497e+02	9.4971	20.873047	0.000086	0.859460	0.145597	-0.000009
1057	1.0507e+02	9.4883	20.859197	0.000139	1.391507	0.235728	-0.000014
1058	1.0517e+02	9.4765	20.851865	0.000074	0.736680	0.124797	-0.000007
1059	1.0527e+02	9.4662	20.839238	0.000127	1.268727	0.214928	-0.000013
1060	1.0537e+02	9.4551	20.829869	0.000094	0.941314	0.159463	-0.000009
1061	1.0547e+02	9.4464	20.824573	0.000053	0.532047	0.090131	-0.000005
1062	1.0557e+02	9.4394	20.814390	0.000102	1.023167	0.173329	-0.000010
1063	1.0567e+02	9.4289	20.799318	0.000151	1.514287	0.256527	-0.000015
1064	1.0577e+02	9.4171	20.790356	0.000090	0.900387	0.152530	-0.000009
1065	1.0587e+02	9.4060	20.780580	0.000098	0.982240	0.166396	-0.000010
1066	1.0597e+02	9.3972	20.767953	0.000127	1.268727	0.214928	-0.000013
1067	1.0607e+02	9.3864	20.758176	0.000098	0.982240	0.166396	-0.000010
1068	1.0617e+02	9.3787	20.744734	0.000135	1.350581	0.228795	-0.000014
1069	1.0627e+02	9.3658	20.734143	0.000106	1.064094	0.180262	-0.000011
1070	1.0637e+02	9.3559	20.722738	0.000115	1.145947	0.194129	-0.000011
1071	1.0647e+02	9.3478	20.708481	0.000143	1.432434	0.242661	-0.000014
1072	1.0656e+02	9.3388	20.696668	0.000119	1.186874	0.201062	-0.000012
1073	1.0666e+02	9.3262	20.686077	0.000106	1.064094	0.180262	-0.000011
1074	1.0676e+02	9.3182	20.674264	0.000119	1.186874	0.201062	-0.000012
1075	1.0686e+02	9.3079	20.662858	0.000115	1.145947	0.194129	-0.000011
1076	1.0696e+02	9.2961	20.653489	0.000094	0.941314	0.159463	-0.000009
1077	1.0706e+02	9.2873	20.642084	0.000115	1.145947	0.194129	-0.000011
1078	1.0716e+02	9.2793	20.628234	0.000139	1.391507	0.235728	-0.000014
1079	1.0726e+02	9.2678	20.614792	0.000135	1.350581	0.228795	-0.000014
1080	1.0736e+02	9.2561	20.598498	0.000164	1.637067	0.277327	-0.000016
1081	1.0746e+02	9.2501	20.591981	0.000065	0.654827	0.110931	-0.000007
1082	1.0756e+02	9.2390	20.577724	0.000143	1.432434	0.242661	-0.000014
1083	1.0766e+02	9.2281	20.562245	0.000156	1.555214	0.263460	-0.000016
1084	1.0776e+02	9.2181	20.544322	0.000180	1.800774	0.305059	-0.000018
1085	1.0786e+02	9.2094	20.530879	0.000135	1.350581	0.228795	-0.000014
1086	1.0796e+02	9.1964	20.520696	0.000102	1.023167	0.173329	-0.000010
1087	1.0806e+02	9.1895	20.506439	0.000143	1.432434	0.242661	-0.000014
1088	1.0816e+02	9.1788	20.486072	0.000205	2.046334	0.346658	-0.000020
1089	1.0826e+02	9.1692	20.474259	0.000119	1.186874	0.201062	-0.000012
1090	1.0836e+02	9.1602	20.463260	0.000111	1.105021	0.187196	-0.000011
1091	1.0845e+02	9.1480	20.447781	0.000156	1.555214	0.263460	-0.000016
1092	1.0855e+02	9.1366	20.442079	0.000057	0.572974	0.097064	-0.000006
1093	1.0865e+02	9.1272	20.426600	0.000156	1.555214	0.263460	-0.000016
1094	1.0875e+02	9.1197	20.412750	0.000139	1.391507	0.235728	-0.000014
1095	1.0885e+02	9.1077	20.400122	0.000127	1.268727	0.214928	-0.000013
1096	1.0895e+02	9.0983	20.386273	0.000139	1.391507	0.235728	-0.000014
1097	1.0905e+02	9.0878	20.370386	0.000160	1.596141	0.270394	-0.000016
1098	1.0915e+02	9.0793	20.354907	0.000156	1.555214	0.263460	-0.000016
1099	1.0925e+02	9.0705	20.340650	0.000143	1.432434	0.242661	-0.000014
1100	1.0935e+02	9.0591	20.326393	0.000143	1.432434	0.242661	-0.000014
1101	1.0945e+02	9.0469	20.311322	0.000151	1.514287	0.256527	-0.000015
1102	1.0955e+02	9.0381	20.299509	0.000119	1.186874	0.201062	-0.000012
1103	1.0965e+02	9.0283	20.287288	0.000123	1.227801	0.207995	-0.000012
1104	1.0975e+02	9.0195	20.273031	0.000143	1.432434	0.242661	-0.000014
1105	1.0985e+02	9.0102	20.260811	0.000123	1.227801	0.207995	-0.000012
1106	1.0995e+02	8.9996	20.246962	0.000139	1.391507	0.235728	-0.000014
1107	1.1005e+02	8.9884	20.234741	0.000123	1.227801	0.207995	-0.000012
1108	1.1015e+02	8.9795	20.216411	0.000184	1.841701	0.311993	-0.000018
1109	1.1025e+02	8.9686	20.202154	0.000143	1.432434	0.242661	-0.000014
1110	1.1035e+02	8.9600	20.184638	0.000176	1.759847	0.298126	-0.000018
1111	1.1044e+02	8.9497	20.172418	0.000123	1.227801	0.207995	-0.000012
1112	1.1054e+02	8.9404	20.152051	0.000205	2.046334	0.346658	-0.000020
1113	1.1064e+02	8.9278	20.135350	0.000168	1.677994	0.284260	-0.000017
1114	1.1074e+02	8.9188	20.121500	0.000139	1.391507	0.235728	-0.000014
1115	1.1084e+02	8.9111	20.104392	0.000172	1.718921	0.291193	-0.000017
1116	1.1094e+02	8.9001	20.087283	0.000172	1.718921	0.291193	-0.000017
1117	1.1104e+02	8.8918	20.070582	0.000168	1.677994	0.284260	-0.000017
1118	1.1114e+02	8.8818	20.053881	0.000168	1.677994	0.284260	-0.000017
1119	1.1124e+02	8.8699	20.041254	0.000127	1.268727	0.214928	-0.000013
1120	1.1134e+02	8.8618	20.022108	0.000192	1.923554	0.325859	-0.000019
1121	1.1144e+02	8.8472	20.006629	0.000156	1.555214	0.263460	-0.000016
1122	1.1154e+02	8.8403	19.987892	0.000188	1.882628	0.318926	-0.000019
1123	1.1164e+02	8.8297	19.967932	0.000201	2.005408	0.339725	-0.000020
1124	1.1174e+02	8.8196	19.951231	0.000168	1.677994	0.284260	-0.000017
1125	1.1184e+02	8.8136	19.928827	0.000225	2.250968	0.381324	-0.000023
1126	1.1194e+02	8.8016	19.914163	0.000147	1.473361	0.249594	-0.000015
1127	1.1204e+02	8.7915	19.893388	0.000209	2.087261	0.353592	-0.000021
1128	1.1214e+02	8.7798	19.873836	0.000196	1.964481	0.332792	-0.000020
1129	1.1224e+02	8.7714	19.851432	0.000225	2.250968	0.381324	-0.000023
1130	1.1234e+02	8.7614	19.832694	0.000188	1.882628	0.318926	-0.000019
1131	1.1244e+02	8.7520	19.813956	0.000188	1.882628	0.318926	-0.000019
1132	1.1253e+02	8.7402	19.788701	0.000254	2.537455	0.429856	-0.000025
1133	1.1263e+02	8.7318	19.765890	0.000229	2.291894	0.388257	-0.000023
1134	1.1273e+02	8.7202	19.743486	0.000225	2.250968	0.381324	-0.000023
1135	1.1283e+02	8.7136	19.723119	0.000205	2.046334	0.346658	-0.000020
1136	1.1293e+02	8.7051	19.699900	0.000233	2.332821	0.395191	-0.000023
1137	1.1303e+02	8.6914	19.684014	0.000160	1.596141	0.270394	-0.000016
1138	1.1313e+02	8.6797	19.664054	0.000201	2.005408	0.339725	-0.000020
1139	1.1323e+02	8.6747	19.641243	0.000229	2.291894	0.388257	-0.000023
1140	1.1333e+02	8.6607	19.620876	0.000205	2.046334	0.346658	-0.000020
1141	1.1343e+02	8.6500	19.595621	0.000254	2.537455	0.429856	-0.000025
1142	1.1353e+02	8.6433	19.573217	0.000225	2.250968	0.381324	-0.000023
1143	1.1363e+02	8.6313	19.554479	0.000188	1.882628	0.318926	-0.000019
1144	1.1373e+02	8.6218	19.527595	0.000270	2.701161	0.457589	-0.000027
1145	1.1383e+02	8.6087	19.504783	0.000229	2.291894	0.388257	-0.000023
1146	1.1393e+02	8.6056	19.482380	0.000225	2.250968	0.381324	-0.000023
1147	1.1403e+02	8.5934	19.459976	0.000225	2.250968	0.381324	-0.000023
1148	1.1413e+02	8.5816	19.433498	0.000266	2.660235	0.450656	-0.000027
1149	1.1423e+02	8.5748	19.411502	0.000221	2.210041	0.374391	-0.000022
1150	1.1433e+02	8.5596	19.388283	0.000233	2.332821	0.395191	-0.000023
1151	1.1442e+02	8.5518	19.367916	0.000205	2.046334	0.346658	-0.000020
1152	1.1452e+02	8.5409	19.344698	0.000233	2.332821	0.395191	-0.000023
1153	1.1462e+02	8.5336	19.322294	0.000225	2.250968	0.381324	-0.000023
1154	1.1472e+02	8.5242	19.301112	0.000213	2.128188	0.360525	-0.000021
1155	1.1482e+02	8.5120	19.277079	0.000241	2.414674	0.409057	-0.000024
1156	1.1492e+02	8.5027	19.250194	0.000270	2.701161	0.457589	-0.000027
1157	1.1502e+02	8.4945	19.231864	0.000184	1.841701	0.311993	-0.000018
1158	1.1512e+02	8.4830	19.203350	0.000286	2.864868	0.485322	-0.000029
1159	1.1522e+02	8.4738	19.179317	0.000241	2.414674	0.409057	-0.000024
1160	1.1532e+02	8.4669	19.155283	0.000241	2.414674	0.409057	-0.000024
1161	1.1542e+02	8.4507	19.127584	0.000278	2.783015	0.471455	-0.000028
1162	1.1552e+02	8.4442	19.103958	0.000237	2.373748	0.402124	-0.000024
1163	1.1562e+02	8.4327	19.081962	0.000221	2.210041	0.374391	-0.000022
1164	1.1572e+02	8.4229	19.053855	0.000282	2.823941	0.478389	-0.000028
1165	1.1582e+02	8.4116	19.031451	0.000225	2.250968	0.381324	-0.000023
1166	1.1592e+02	8.4028	19.008640	0.000229	2.291894	0.388257	-0.000023
1167	1.1602e+02	8.3952	18.982570	0.000262	2.619308	0.443723	-0.000026
1168	1.1612e+02	8.3822	18.958537	0.000241	2.414674	0.409057	-0.000024
1169	1.1622e+02	8.3716	18.933689	0.000250	2.496528	0.422923	-0.000025
1170	1.1632e+02	8.3643	18.914137	0.000196	1.964481	0.332792	-0.000020
1171	1.1642e+02	8.3540	18.886437	0.000278	2.783015	0.471455	-0.000028
1172	1.1651e+02	8.3426	18.864441	0.000221	2.210041	0.374391	-0.000022
1173	1.1661e+02	8.3360	18.835927	0.000286	2.864868	0.485322	-0.000029
1174	1.1671e+02	8.3233	18.810672	0.000254	2.537455	0.429856	-0.000025
1175	1.1681e+02	8.3142	18.781343	0.000295	2.946721	0.499188	-0.000029
1176	1.1691e+02	8.3030	18.751200	0.000303	3.028575	0.513054	-0.000030
1177	1.1701e+02	8.2941	18.725537	0.000258	2.578381	0.436790	-0.000026
1178	1.1711e+02	8.2841	18.701097	0.000246	2.455601	0.415990	-0.000025
1179	1.1721e+02	8.2719	18.670139	0.000311	3.110428	0.526921	-0.000031
1180	1.1731e+02	8.2636	18.645291	0.000250	2.496528	0.422923	-0.000025
1181	1.1741e+02	8.2538	18.621257	0.000241	2.414674	0.409057	-0.000024
1182	1.1751e+02	8.2392	18.593965	0.000274	2.742088	0.464522	-0.000027
1183	1.1761e+02	8.2362	18.566266	0.000278	2.783015	0.471455	-0.000028
1184	1.1771e+02	8.2224	18.535308	0.000311	3.110428	0.526921	-0.000031
1185	1.1781e+02	8.2153	18.508831	0.000266	2.660235	0.450656	-0.000027
1186	1.1791e+02	8.2021	18.478280	0.000307	3.069501	0.519988	-0.000031
1187	1.1801e+02	8.1940	18.450988	0.000274	2.742088	0.464522	-0.000027
1188	1.1811e+02	8.1828	18.428177	0.000229	2.291894	0.388257	-0.000023
1189	1.1821e+02	8.1731	18.391924	0.000364	3.642475	0.617052	-0.000036
1190	1.1831e+02	8.1634	18.363410	0.000286	2.864868	0.485322	-0.000029
1191	1.1841e+02	8.1548	18.334081	0.000295	2.946721	0.499188	-0.000029
1192	1.1850e+02	8.1433	18.306789	0.000274	2.742088	0.464522	-0.000027
1193	1.1860e+02	8.1363	18.280719	0.000262	2.619308	0.443723	-0.000026
1194	1.1870e+02	8.1250	18.252612	0.000282	2.823941	0.478389	-0.000028
1195	1.1880e+02	8.1162	18.228987	0.000237	2.373748	0.402124	-0.000024
1196	1.1890e+02	8.1043	18.201287	0.000278	2.783015	0.471455	-0.000028
1197	1.1900e+02	8.0922	18.171551	0.000299	2.987648	0.506121	-0.000030
1198	1.1910e+02	8.0862	18.148740	0.000229	2.291894	0.388257	-0.000023
1199	1.1920e+02	8.0749	18.119004	0.000299	2.987648	0.506121	-0.000030
1200	1.1930e+02	8.0656	18.090897	0.000282	2.823941	0.478389	-0.000028
1201	1.1940e+02	8.0555	18.063198	0.000278	2.783015	0.471455	-0.000028
1202	1.1950e+02	8.0444	18.038758	0.000246	2.455601	0.415990	-0.000025
1203	1.1960e+02	8.0366	18.011873	0.000270	2.701161	0.457589	-0.000027
1204	1.1970e+02	8.0264	17.983359	0.000286	2.864868	0.485322	-0.000029
1205	1.1980e+02	8.0154	17.951586	0.000319	3.192281	0.540787	-0.000032
1206	1.1990e+02	8.0061	17.924702	0.000270	2.701161	0.457589	-0.000027
1207	1.2000e+02	7.9959	17.899446	0.000254	2.537455	0.429856	-0.000025
1208	1.2010e+02	7.9839	17.873784	0.000258	2.578381	0.436790	-0.000026
1209	1.2020e+02	7.9771	17.849343	0.000246	2.455601	0.415990	-0.000025
1210	1.2030e+02	7.9648	17.820829	0.000286	2.864868	0.485322	-0.000029
1211	1.2039e+02	7.9524	17.795981	0.000250	2.496528	0.422923	-0.000025
1212	1.2049e+02	7.9438	17.768689	0.000274	2.742088	0.464522	-0.000027
1213	1.2059e+02	7.9348	17.747100	0.000217	2.169114	0.367458	-0.000022
1214	1.2069e+02	7.9265	17.718586	0.000286	2.864868	0.485322	-0.000029
1215	1.2079e+02	7.9169	17.694553	0.000241	2.414674	0.409057	-0.000024
1216	1.2089e+02	7.9031	17.666854	0.000278	2.783015	0.471455	-0.000028
1217	1.2099e+02	7.8965	17.641599	0.000254	2.537455	0.429856	-0.000025
1218	1.2109e+02	7.8865	17.614714	0.000270	2.701161	0.457589	-0.000027
1219	1.2119e+02	7.8762	17.587422	0.000274	2.742088	0.464522	-0.000027
1220	1.2129e+02	7.8645	17.565426	0.000221	2.210041	0.374391	-0.000022
1221	1.2139e+02	7.8555	17.538541	0.000270	2.701161	0.457589	-0.000027
1222	1.2149e+02	7.8467	17.512471	0.000262	2.619308	0.443723	-0.000026
1223	1.2159e+02	7.8350	17.489660	0.000229	2.291894	0.388257	-0.000023
1224	1.2169e+02	7.8232	17.458294	0.000315	3.151355	0.533854	-0.000032
1225	1.2179e+02	7.8146	17.436298	0.000221	2.210041	0.374391	-0.000022
1226	1.2189e+02	7.8069	17.411450	0.000250	2.496528	0.422923	-0.000025
1227	1.2199e+02	7.7930	17.382936	0.000286	2.864868	0.485322	-0.000029
1228	1.2209e+02	7.7874	17.360532	0.000225	2.250968	0.381324	-0.000023
1229	1.2219e+02	7.7749	17.338128	0.000225	2.250968	0.381324	-0.000023
1230	1.2229e+02	7.7662	17.306763	0.000315	3.151355	0.533854	-0.000032
1231	1.2239e+02	7.7552	17.283544	0.000233	2.332821	0.395191	-0.000023
1232	1.2248e+02	7.7452	17.255845	0.000278	2.783015	0.471455	-0.000028
1233	1.2258e+02	7.7371	17.232219	0.000237	2.373748	0.402124	-0.000024
1234	1.2268e+02	7.7275	17.206557	0.000258	2.578381	0.436790	-0.000026
1235	1.2278e+02	7.7158	17.182116	0.000246	2.455601	0.415990	-0.000025
1236	1.2288e+02	7.7055	17.156454	0.000258	2.578381	0.436790	-0.000026
1237	1.2298e+02	7.6958	17.134050	0.000225	2.250968	0.381324	-0.000023
1238	1.2308e+02	7.6896	17.105943	0.000282	2.823941	0.478389	-0.000028
1239	1.2318e+02	7.6750	17.077836	0.000282	2.823941	0.478389	-0.000028
1240	1.2328e+02	7.6656	17.052174	0.000258	2.578381	0.436790	-0.000026
1241	1.2338e+02	7.6553	17.028141	0.000241	2.414674	0.409057	-0.000024
1242	1.2348e+02	7.6458	17.000034	0.000282	2.823941	0.478389	-0.000028
1243	1.2358e+02	7.6351	16.980074	0.000201	2.005408	0.339725	-0.000020
1244	1.2368e+02	7.6279	16.953597	0.000266	2.660235	0.450656	-0.000027
1245	1.2378e+02	7.6172	16.930786	0.000229	2.291894	0.388257	-0.000023
1246	1.2388e+02	7.6035	16.905123	0.000258	2.578381	0.436790	-0.000026
1247	1.2398e+02	7.5986	16.879461	0.000258	2.578381	0.436790	-0.000026
1248	1.2408e+02	7.5893	16.850947	0.000286	2.864868	0.485322	-0.000029
1249	1.2418e+02	7.5771	16.826099	0.000250	2.496528	0.422923	-0.000025
1250	1.2428e+02	7.5665	16.800436	0.000258	2.578381	0.436790	-0.000026
1251	1.2438e+02	7.5573	16.773552	0.000270	2.701161	0.457589	-0.000027
1252	1.2447e+02	7.5481	16.747074	0.000266	2.660235	0.450656	-0.000027
1253	1.2457e+02	7.5365	16.720597	0.000266	2.660235	0.450656	-0.000027
1254	1.2467e+02	7.5273	16.697379	0.000233	2.332821	0.395191	-0.000023
1255	1.2477e+02	7.5190	16.669272	0.000282	2.823941	0.478389	-0.000028
1256	1.2487e+02	7.5088	16.644017	0.000254	2.537455	0.429856	-0.000025
1257	1.2497e+02	7.5001	16.619983	0.000241	2.414674	0.409057	-0.000024
1258	1.2507e+02	7.4889	16.598394	0.000217	2.169114	0.367458	-0.000022
1259	1.2517e+02	7.4766	16.574361	0.000241	2.414674	0.409057	-0.000024
1260	1.2527e+02	7.4673	16.547069	0.000274	2.742088	0.464522	-0.000027
1261	1.2537e+02	7.4612	16.524258	0.000229	2.291894	0.388257	-0.000023
1262	1.2547e+02	7.4489	16.500632	0.000237	2.373748	0.402124	-0.000024
1263	1.2557e+02	7.4377	16.472118	0.000286	2.864868	0.485322	-0.000029
1264	1.2567e+02	7.4260	16.448492	0.000237	2.373748	0.402124	-0.000024
1265	1.2577e+02	7.4162	16.421200	0.000274	2.742088	0.464522	-0.000027
1266	1.2587e+02	7.4101	16.395538	0.000258	2.578381	0.436790	-0.000026
1267	1.2597e+02	7.3959	16.370282	0.000254	2.537455	0.429856	-0.000025
1268	1.2607e+02	7.3890	16.344620	0.000258	2.578381	0.436790	-0.000026
1269	1.2617e+02	7.3772	16.324660	0.000201	2.005408	0.339725	-0.000020
1270	1.2627e+02	7.3666	16.294924	0.000299	2.987648	0.506121	-0.000030
1271	1.2636e+02	7.3595	16.272520	0.000225	2.250968	0.381324	-0.000023
1272	1.2646e+02	7.3509	16.246858	0.000258	2.578381	0.436790	-0.000026
1273	1.2656e+02	7.3363	16.226898	0.000201	2.005408	0.339725	-0.000020
1274	1.2666e+02	7.3291	16.204494	0.000225	2.250968	0.381324	-0.000023
1275	1.2676e+02	7.3206	16.183312	0.000213	2.128188	0.360525	-0.000021
1276	1.2686e+02	7.3096	16.156835	0.000266	2.660235	0.450656	-0.000027
1277	1.2696e+02	7.2982	16.130358	0.000266	2.660235	0.450656	-0.000027
1278	1.2706e+02	7.2874	16.106732	0.000237	2.373748	0.402124	-0.000024
1279	1.2716e+02	7.2782	16.079847	0.000270	2.701161	0.457589	-0.000027
1280	1.2726e+02	7.2681	16.051741	0.000282	2.823941	0.478389	-0.000028
1281	1.2736e+02	7.2610	16.028522	0.000233	2.332821	0.395191	-0.000023
1282	1.2746e+02	7.2515	16.000415	0.000282	2.823941	0.478389	-0.000028
1283	1.2756e+02	7.2398	15.977197	0.000233	2.332821	0.395191	-0.000023
1284	1.2766e+02	7.2285	15.949090	0.000282	2.823941	0.478389	-0.000028
1285	1.2776e+02	7.2228	15.927908	0.000213	2.128188	0.360525	-0.000021
1286	1.2786e+02	7.2085	15.895728	0.000323	3.233208	0.547720	-0.000032
1287	1.2796e+02	7.2009	15.871695	0.000241	2.414674	0.409057	-0.000024
1288	1.2806e+02	7.1911	15.848884	0.000229	2.291894	0.388257	-0.000023
1289	1.2816e+02	7.1799	15.824036	0.000250	2.496528	0.422923	-0.000025
1290	1.2826e+02	7.1687	15.794707	0.000295	2.946721	0.499188	-0.000029
1291	1.2835e+02	7.1593	15.763342	0.000315	3.151355	0.533854	-0.000032
1292	1.2845e+02	7.1517	15.737679	0.000258	2.578381	0.436790	-0.000026
1293	1.2855e+02	7.1377	15.705907	0.000319	3.192281	0.540787	-0.000032
1294	1.2865e+02	7.1294	15.680244	0.000258	2.578381	0.436790	-0.000026
1295	1.2875e+02	7.1215	15.650101	0.000303	3.028575	0.513054	-0.000030
1296	1.2885e+02	7.1112	15.622809	0.000274	2.742088	0.464522	-0.000027
1297	1.2895e+02	7.1017	15.592258	0.000307	3.069501	0.519988	-0.000031
1298	1.2905e+02	7.0908	15.564966	0.000274	2.742088	0.464522	-0.000027
1299	1.2915e+02	7.0815	15.538082	0.000270	2.701161	0.457589	-0.000027
1300	1.2925e+02	7.0693	15.501421	0.000368	3.683402	0.623985	-0.000037
1301	1.2935e+02	7.0580	15.475758	0.000258	2.578381	0.436790	-0.000026
1302	1.2945e+02	7.0510	15.442763	0.000332	3.315062	0.561587	-0.000033
1303	1.2955e+02	7.0403	15.415064	0.000278	2.783015	0.471455	-0.000028
1304	1.2965e+02	7.0311	15.384106	0.000311	3.110428	0.526921	-0.000031
1305	1.2975e+02	7.0164	15.353963	0.000303	3.028575	0.513054	-0.000030
1306	1.2985e+02	7.0090	15.327078	0.000270	2.701161	0.457589	-0.000027
1307	1.2995e+02	7.0016	15.296120	0.000311	3.110428	0.526921	-0.000031
1308	1.3005e+02	6.9900	15.268014	0.000282	2.823941	0.478389	-0.000028
1309	1.3015e+02	6.9790	15.241944	0.000262	2.619308	0.443723	-0.000026
1310	1.3025e+02	6.9717	15.210171	0.000319	3.192281	0.540787	-0.000032
1311	1.3034e+02	6.9595	15.180842	0.000295	2.946721	0.499188	-0.000029
1312	1.3044e+02	6.9521	15.149884	0.000311	3.110428	0.526921	-0.000031
1313	1.3054e+02	6.9402	15.117297	0.000327	3.274135	0.554653	-0.000033
1314	1.3064e+02	6.9302	15.087153	0.000303	3.028575	0.513054	-0.000030
1315	1.3074e+02	6.9213	15.056603	0.000307	3.069501	0.519988	-0.000031
1316	1.3084e+02	6.9104	15.024423	0.000323	3.233208	0.547720	-0.000032
1317	1.3094e+02	6.9015	14.992650	0.000319	3.192281	0.540787	-0.000032
1318	1.3104e+02	6.8902	14.960470	0.000323	3.233208	0.547720	-0.000032
1319	1.3114e+02	6.8792	14.931141	0.000295	2.946721	0.499188	-0.000029
1320	1.3124e+02	6.8701	14.899776	0.000315	3.151355	0.533854	-0.000032
1321	1.3134e+02	6.8612	14.869225	0.000307	3.069501	0.519988	-0.000031
1322	1.3144e+02	6.8495	14.841933	0.000274	2.742088	0.464522	-0.000027
1323	1.3154e+02	6.8398	14.808531	0.000336	3.355988	0.568520	-0.000034
1324	1.3164e+02	6.8304	14.776351	0.000323	3.233208	0.547720	-0.000032
1325	1.3174e+02	6.8204	14.744171	0.000323	3.233208	0.547720	-0.000032
1326	1.3184e+02	6.8115	14.715250	0.000291	2.905795	0.492255	-0.000029
1327	1.3194e+02	6.8012	14.685106	0.000303	3.028575	0.513054	-0.000030
1328	1.3204e+02	6.7921	14.652112	0.000332	3.315062	0.561587	-0.000033
1329	1.3214e+02	6.7797	14.622783	0.000295	2.946721	0.499188	-0.000029
1330	1.3224e+02	6.7712	14.590196	0.000327	3.274135	0.554653	-0.000033
1331	1.3234e+02	6.7629	14.560052	0.000303	3.028575	0.513054	-0.000030
1332	1.3243e+02	6.7490	14.526650	0.000336	3.355988	0.568520	-0.000034
1333	1.3253e+02	6.7423	14.495692	0.000311	3.110428	0.526921	-0.000031
1334	1.3263e+02	6.7315	14.465956	0.000299	2.987648	0.506121	-0.000030
1335	1.3273e+02	6.7210	14.434998	0.000311	3.110428	0.526921	-0.000031
1336	1.3283e+02	6.7117	14.400374	0.000348	3.478768	0.589319	-0.000035
1337	1.3293e+02	6.7003	14.370231	0.000303	3.028575	0.513054	-0.000030
1338	1.3303e+02	6.6927	14.337643	0.000327	3.274135	0.554653	-0.000033
1339	1.3313e+02	6.6824	14.306278	0.000315	3.151355	0.533854	-0.000032
1340	1.3323e+02	6.6695	14.274912	0.000315	3.151355	0.533854	-0.000032
1341	1.3333e+02	6.6604	14.241918	0.000332	3.315062	0.561587	-0.000033
1342	1.3343e+02	6.6505	14.206886	0.000352	3.519695	0.596252	-0.000035
1343	1.3353e+02	6.6438	14.170633	0.000364	3.642475	0.617052	-0.000036
1344	1.3363e+02	6.6305	14.135601	0.000352	3.519695	0.596252	-0.000035
1345	1.3373e+02	6.6222	14.104236	0.000315	3.151355	0.533854	-0.000032
1346	1.3383e+02	6.6114	14.065538	0.000389	3.888035	0.658651	-0.000039
1347	1.3393e+02	6.6026	14.036210	0.000295	2.946721	0.499188	-0.000029
1348	1.3403e+02	6.5893	14.000771	0.000356	3.560622	0.603186	-0.000036
1349	1.3413e+02	6.5798	13.971442	0.000295	2.946721	0.499188	-0.000029
1350	1.3423e+02	6.5716	13.938855	0.000327	3.274135	0.554653	-0.000033
1351	1.3432e+02	6.5655	13.901787	0.000372	3.724328	0.630918	-0.000037
1352	1.3442e+02	6.5537	13.871236	0.000307	3.069501	0.519988	-0.000031
1353	1.3452e+02	6.5425	13.838649	0.000327	3.274135	0.554653	-0.000033
1354	1.3462e+02	6.5334	13.801580	0.000372	3.724328	0.630918	-0.000037
1355	1.3472e+02	6.5236	13.770215	0.000315	3.151355	0.533854	-0.000032
1356	1.3482e+02	6.5112	13.728259	0.000422	4.215449	0.714116	-0.000042
1357	1.3492e+02	6.5020	13.692005	0.000364	3.642475	0.617052	-0.000036
1358	1.3502e+02	6.4906	13.656566	0.000356	3.560622	0.603186	-0.000036
1359	1.3512e+02	6.4828	13.624794	0.000319	3.192281	0.540787	-0.000032
1360	1.3522e+02	6.4730	13.588133	0.000368	3.683402	0.623985	-0.000037
1361	1.3532e+02	6.4648	13.554731	0.000336	3.355988	0.568520	-0.000034
1362	1.3542e+02	6.4526	13.522958	0.000319	3.192281	0.540787	-0.000032
1363	1.3552e+02	6.4439	13.488334	0.000348	3.478768	0.589319	-0.000035
1364	1.3562e+02	6.4343	13.456154	0.000323	3.233208	0.547720	-0.000032
1365	1.3572e+02	6.4235	13.424381	0.000319	3.192281	0.540787	-0.000032
1366	1.3582e+02	6.4143	13.389350	0.000352	3.519695	0.596252	-0.000035
1367	1.3592e+02	6.4033	13.359206	0.000303	3.028575	0.513054	-0.000030
1368	1.3602e+02	6.3917	13.326212	0.000332	3.315062	0.561587	-0.000033
1369	1.3612e+02	6.3821	13.289958	0.000364	3.642475	0.617052	-0.000036
1370	1.3622e+02	6.3737	13.257778	0.000323	3.233208	0.547720	-0.000032
1371	1.3631e+02	6.3621	13.221932	0.000360	3.601548	0.610119	-0.000036
1372	1.3641e+02	6.3525	13.190159	0.000319	3.192281	0.540787	-0.000032
1373	1.3651e+02	6.3453	13.153498	0.000368	3.683402	0.623985	-0.000037
1374	1.3661e+02	6.3308	13.124577	0.000291	2.905795	0.492255	-0.000029
1375	1.3671e+02	6.3235	13.091175	0.000336	3.355988	0.568520	-0.000034
1376	1.3681e+02	6.3137	13.058995	0.000323	3.233208	0.547720	-0.000032
1377	1.3691e+02	6.3037	13.026000	0.000332	3.315062	0.561587	-0.000033
1378	1.3701e+02	6.2937	12.999523	0.000266	2.660235	0.450656	-0.000027
1379	1.3711e+02	6.2833	12.967750	0.000319	3.192281	0.540787	-0.000032
1380	1.3721e+02	6.2752	12.932311	0.000356	3.560622	0.603186	-0.000036
1381	1.3731e+02	6.2669	12.901353	0.000311	3.110428	0.526921	-0.000031
1382	1.3741e+02	6.2530	12.867951	0.000336	3.355988	0.568520	-0.000034
1383	1.3751e+02	6.2453	12.840252	0.000278	2.783015	0.471455	-0.000028
1384	1.3761e+02	6.2322	12.804406	0.000360	3.601548	0.610119	-0.000036
1385	1.3771e+02	6.2245	12.776706	0.000278	2.783015	0.471455	-0.000028
1386	1.3781e+02	6.2133	12.745748	0.000311	3.110428	0.526921	-0.000031
1387	1.3791e+02	6.2037	12.709902	0.000360	3.601548	0.610119	-0.000036
1388	1.3801e+02	6.1953	12.679352	0.000307	3.069501	0.519988	-0.000031
1389	1.3811e+02	6.1839	12.650023	0.000295	2.946721	0.499188	-0.000029
1390	1.3821e+02	6.1747	12.618250	0.000319	3.192281	0.540787	-0.000032
1391	1.3831e+02	6.1660	12.584441	0.000340	3.396915	0.575453	-0.000034
1392	1.3840e+02	6.1541	12.555112	0.000295	2.946721	0.499188	-0.000029
1393	1.3850e+02	6.1465	12.524969	0.000303	3.028575	0.513054	-0.000030
1394	1.3860e+02	6.1346	12.490752	0.000344	3.437842	0.582386	-0.000034
1395	1.3870e+02	6.1248	12.462238	0.000286	2.864868	0.485322	-0.000029
1396	1.3880e+02	6.1160	12.430465	0.000319	3.192281	0.540787	-0.000032
1397	1.3890e+02	6.1050	12.397878	0.000327	3.274135	0.554653	-0.000033
1398	1.3900e+02	6.0972	12.366920	0.000311	3.110428	0.526921	-0.000031
1399	1.3910e+02	6.0870	12.337591	0.000295	2.946721	0.499188	-0.000029
1400	1.3920e+02	6.0748	12.307041	0.000307	3.069501	0.519988	-0.000031
1401	1.3930e+02	6.0633	12.276897	0.000303	3.028575	0.513054	-0.000030
1402	1.3940e+02	6.0542	12.247568	0.000295	2.946721	0.499188	-0.000029
1403	1.3950e+02	6.0455	12.214574	0.000332	3.315062	0.561587	-0.000033
1404	1.3960e+02	6.0354	12.183208	0.000315	3.151355	0.533854	-0.000032
1405	1.3970e+02	6.0256	12.154287	0.000291	2.905795	0.492255	-0.000029
1406	1.3980e+02	6.0181	12.120885	0.000336	3.355988	0.568520	-0.000034
1407	1.3990e+02	6.0072	12.089520	0.000315	3.151355	0.533854	-0.000032
1408	1.4000e+02	5.9956	12.058562	0.000311	3.110428	0.526921	-0.000031
1409	1.4010e+02	5.9859	12.025974	0.000327	3.274135	0.554653	-0.000033
1410	1.4020e+02	5.9751	11.996645	0.000295	2.946721	0.499188	-0.000029
1411	1.4029e+02	5.9672	11.966909	0.000299	2.987648	0.506121	-0.000030
1412	1.4039e+02	5.9576	11.938803	0.000282	2.823941	0.478389	-0.000028
1413	1.4049e+02	5.9432	11.905808	0.000332	3.315062	0.561587	-0.000033
1414	1.4059e+02	5.9359	11.875665	0.000303	3.028575	0.513054	-0.000030
1415	1.4069e+02	5.9264	11.845114	0.000307	3.069501	0.519988	-0.000031
1416	1.4079e+02	5.9148	11.813749	0.000315	3.151355	0.533854	-0.000032
1417	1.4089e+02	5.9064	11.785235	0.000286	2.864868	0.485322	-0.000029
1418	1.4099e+02	5.8971	11.751833	0.000336	3.355988	0.568520	-0.000034
1419	1.4109e+02	5.8863	11.720060	0.000319	3.192281	0.540787	-0.000032
1420	1.4119e+02	5.8759	11.687065	0.000332	3.315062	0.561587	-0.000033
1421	1.4129e+02	5.8677	11.654478	0.000327	3.274135	0.554653	-0.000033
1422	1.4139e+02	5.8554	11.625149	0.000295	2.946721	0.499188	-0.000029
1423	1.4149e+02	5.8456	11.596228	0.000291	2.905795	0.492255	-0.000029
1424	1.4159e+02	5.8367	11.564862	0.000315	3.151355	0.533854	-0.000032
1425	1.4169e+02	5.8247	11.536756	0.000282	2.823941	0.478389	-0.000028
1426	1.4179e+02	5.8166	11.502946	0.000340	3.396915	0.575453	-0.000034
1427	1.4189e+02	5.8067	11.474432	0.000286	2.864868	0.485322	-0.000029
1428	1.4199e+02	5.7989	11.449177	0.000254	2.537455	0.429856	-0.000025
1429	1.4209e+02	5.7861	11.414146	0.000352	3.519695	0.596252	-0.000035
1430	1.4219e+02	5.7772	11.385632	0.000286	2.864868	0.485322	-0.000029
1431	1.4228e+02	5.7679	11.353859	0.000319	3.192281	0.540787	-0.000032
1432	1.4238e+02	5.7565	11.324938	0.000291	2.905795	0.492255	-0.000029
1433	1.4248e+02	5.7470	11.294794	0.000303	3.028575	0.513054	-0.000030
1434	1.4258e+02	5.7366	11.265466	0.000295	2.946721	0.499188	-0.000029
1435	1.4268e+02	5.7272	11.231656	0.000340	3.396915	0.575453	-0.000034
1436	1.4278e+02	5.7165	11.206401	0.000254	2.537455	0.429856	-0.000025
1437	1.4288e+02	5.7081	11.177480	0.000291	2.905795	0.492255	-0.000029
1438	1.4298e+02	5.6979	11.147744	0.000299	2.987648	0.506121	-0.000030
1439	1.4308e+02	5.6890	11.120452	0.000274	2.742088	0.464522	-0.000027
1440	1.4318e+02	5.6800	11.092752	0.000278	2.783015	0.471455	-0.000028
1441	1.4328e+02	5.6649	11.064646	0.000282	2.823941	0.478389	-0.000028
1442	1.4338e+02	5.6554	11.032058	0.000327	3.274135	0.554653	-0.000033
1443	1.4348e+02	5.6495	11.003544	0.000286	2.864868	0.485322	-0.000029
1444	1.4358e+02	5.6367	10.972994	0.000307	3.069501	0.519988	-0.000031
1445	1.4368e+02	5.6280	10.942036	0.000311	3.110428	0.526921	-0.000031
1446	1.4378e+02	5.6189	10.912707	0.000295	2.946721	0.499188	-0.000029
1447	1.4388e+02	5.6071	10.882156	0.000307	3.069501	0.519988	-0.000031
1448	1.4398e+02	5.5962	10.851198	0.000311	3.110428	0.526921	-0.000031
1449	1.4408e+02	5.5880	10.817389	0.000340	3.396915	0.575453	-0.000034
1450	1.4418e+02	5.5749	10.790504	0.000270	2.701161	0.457589	-0.000027
1451	1.4428e+02	5.5694	10.757102	0.000336	3.355988	0.568520	-0.000034
1452	1.4437e+02	5.5573	10.725329	0.000319	3.192281	0.540787	-0.000032
1453	1.4447e+02	5.5471	10.697630	0.000278	2.783015	0.471455	-0.000028
1454	1.4457e+02	5.5361	10.668301	0.000295	2.946721	0.499188	-0.000029
1455	1.4467e+02	5.5297	10.637343	0.000311	3.110428	0.526921	-0.000031
1456	1.4477e+02	5.5177	10.606385	0.000311	3.110428	0.526921	-0.000031
1457	1.4487e+02	5.5078	10.575427	0.000311	3.110428	0.526921	-0.000031
1458	1.4497e+02	5.4986	10.540803	0.000348	3.478768	0.589319	-0.000035
1459	1.4507e+02	5.4884	10.509845	0.000311	3.110428	0.526921	-0.000031
1460	1.4517e+02	5.4806	10.476036	0.000340	3.396915	0.575453	-0.000034
1461	1.4527e+02	5.4668	10.442634	0.000336	3.355988	0.568520	-0.000034
1462	1.4537e+02	5.4563	10.409639	0.000332	3.315062	0.561587	-0.000033
1463	1.4547e+02	5.4481	10.374200	0.000356	3.560622	0.603186	-0.000036
1464	1.4557e+02	5.4395	10.340391	0.000340	3.396915	0.575453	-0.000034
1465	1.4567e+02	5.4275	10.304952	0.000356	3.560622	0.603186	-0.000036
1466	1.4577e+02	5.4192	10.268698	0.000364	3.642475	0.617052	-0.000036
1467	1.4587e+02	5.4095	10.235704	0.000332	3.315062	0.561587	-0.000033
1468	1.4597e+02	5.3988	10.202302	0.000336	3.355988	0.568520	-0.000034
1469	1.4607e+02	5.3878	10.167270	0.000352	3.519695	0.596252	-0.000035
1470	1.4617e+02	5.3774	10.133053	0.000344	3.437842	0.582386	-0.000034
1471	1.4626e+02	5.3663	10.098429	0.000348	3.478768	0.589319	-0.000035
1472	1.4636e+02	5.3610	10.065027	0.000336	3.355988	0.568520	-0.000034
1473	1.4646e+02	5.3468	10.032032	0.000332	3.315062	0.561587	-0.000033
1474	1.4656e+02	5.3388	9.993335	0.000389	3.888035	0.658651	-0.000039
1475	1.4666e+02	5.3300	9.959525	0.000340	3.396915	0.575453	-0.000034
1476	1.4676e+02	5.3188	9.927345	0.000323	3.233208	0.547720	-0.000032
1477	1.4686e+02	5.3088	9.892721	0.000348	3.478768	0.589319	-0.000035
1478	1.4696e+02	5.3004	9.857690	0.000352	3.519695	0.596252	-0.000035
1479	1.4706e+02	5.2879	9.823473	0.000344	3.437842	0.582386	-0.000034
1480	1.4716e+02	5.2775	9.782331	0.000413	4.133595	0.700250	-0.000041
1481	1.4726e+02	5.2688	9.748522	0.000340	3.396915	0.575453	-0.000034
1482	1.4736e+02	5.2584	9.713490	0.000352	3.519695	0.596252	-0.000035
1483	1.4746e+02	5.2490	9.675608	0.000381	3.806182	0.644785	-0.000038
1484	1.4756e+02	5.2409	9.644242	0.000315	3.151355	0.533854	-0.000032
1485	1.4766e+02	5.2290	9.602693	0.000417	4.174522	0.707183	-0.000042
1486	1.4776e+02	5.2203	9.571328	0.000315	3.151355	0.533854	-0.000032
1487	1.4786e+02	5.2095	9.537926	0.000336	3.355988	0.568520	-0.000034
1488	1.4796e+02	5.2004	9.501672	0.000364	3.642475	0.617052	-0.000036
1489	1.4806e+02	5.1903	9.465419	0.000364	3.642475	0.617052	-0.000036
1490	1.4816e+02	5.1805	9.425092	0.000405	4.051742	0.686384	-0.000041
1491	1.4825e+02	5.1730	9.391283	0.000340	3.396915	0.575453	-0.000034
1492	1.4835e+02	5.1606	9.355844	0.000356	3.560622	0.603186	-0.000036
1493	1.4845e+02	5.1492	9.320405	0.000356	3.560622	0.603186	-0.000036
1494	1.4855e+02	5.1382	9.281707	0.000389	3.888035	0.658651	-0.000039
1495	1.4865e+02	5.1294	9.247083	0.000348	3.478768	0.589319	-0.000035
1496	1.4875e+02	5.1221	9.207571	0.000397	3.969889	0.672517	-0.000040
1497	1.4885e+02	5.1067	9.172947	0.000348	3.478768	0.589319	-0.000035
1498	1.4895e+02	5.1019	9.131398	0.000417	4.174522	0.707183	-0.000042
1499	1.4905e+02	5.0901	9.096774	0.000348	3.478768	0.589319	-0.000035
1500	1.4915e+02	5.0768	9.061335	0.000356	3.560622	0.603186	-0.000036
1501	1.4925e+02	5.0698	9.025489	0.000360	3.601548	0.610119	-0.000036
1502	1.4935e+02	5.0598	8.992087	0.000336	3.355988	0.568520	-0.000034
1503	1.4945e+02	5.0497	8.955833	0.000364	3.642475	0.617052	-0.000036
1504	1.4955e+02	5.0402	8.921209	0.000348	3.478768	0.589319	-0.000035
1505	1.4965e+02	5.0304	8.883326	0.000381	3.806182	0.644785	-0.000038
1506	1.4975e+02	5.0185	8.843814	0.000397	3.969889	0.672517	-0.000040
1507	1.4985e+02	5.0105	8.805524	0.000385	3.847108	0.651718	-0.000038
1508	1.4995e+02	5.0001	8.770900	0.000348	3.478768	0.589319	-0.000035
1509	1.5005e+02	4.9940	8.731795	0.000393	3.928962	0.665584	-0.000039
1510	1.5015e+02	4.9810	8.689839	0.000422	4.215449	0.714116	-0.000042
1511	1.5025e+02	4.9720	8.653178	0.000368	3.683402	0.623985	-0.000037
1512	1.5034e+02	4.9596	8.613258	0.000401	4.010815	0.679450	-0.000040
1513	1.5044e+02	4.9526	8.576597	0.000368	3.683402	0.623985	-0.000037
1514	1.5054e+02	4.9426	8.536271	0.000405	4.051742	0.686384	-0.000041
1515	1.5064e+02	4.9317	8.497573	0.000389	3.888035	0.658651	-0.000039
1516	1.5074e+02	4.9208	8.462134	0.000356	3.560622	0.603186	-0.000036
1517	1.5084e+02	4.9108	8.421400	0.000409	4.092669	0.693317	-0.000041
1518	1.5094e+02	4.9012	8.386368	0.000352	3.519695	0.596252	-0.000035
1519	1.5104e+02	4.8911	8.347264	0.000393	3.928962	0.665584	-0.000039
1520	1.5114e+02	4.8812	8.303678	0.000438	4.379155	0.741849	-0.000044
1521	1.5124e+02	4.8721	8.267017	0.000368	3.683402	0.623985	-0.000037
1522	1.5134e+02	4.8638	8.228727	0.000385	3.847108	0.651718	-0.000038
1523	1.5144e+02	4.8515	8.188807	0.000401	4.010815	0.679450	-0.000040
1524	1.5154e+02	4.8408	8.142370	0.000467	4.665642	0.790381	-0.000047
1525	1.5164e+02	4.8312	8.100414	0.000422	4.215449	0.714116	-0.000042
1526	1.5174e+02	4.8208	8.064975	0.000356	3.560622	0.603186	-0.000036
1527	1.5184e+02	4.8135	8.023426	0.000417	4.174522	0.707183	-0.000042
1528	1.5194e+02	4.8023	7.984729	0.000389	3.888035	0.658651	-0.000039
1529	1.5204e+02	4.7933	7.948475	0.000364	3.642475	0.617052	-0.000036
1530	1.5214e+02	4.7814	7.908963	0.000397	3.969889	0.672517	-0.000040
1531	1.5224e+02	4.7739	7.873932	0.000352	3.519695	0.596252	-0.000035
1532	1.5233e+02	4.7581	7.834012	0.000401	4.010815	0.679450	-0.000040
1533	1.5243e+02	4.7535	7.794907	0.000393	3.928962	0.665584	-0.000039
1534	1.5253e+02	4.7424	7.754173	0.000409	4.092669	0.693317	-0.000041
1535	1.5263e+02	4.7304	7.718327	0.000360	3.601548	0.610119	-0.000036
1536	1.5273e+02	4.7224	7.677592	0.000409	4.092669	0.693317	-0.000041
1537	1.5283e+02	4.7128	7.635229	0.000426	4.256375	0.721049	-0.000043
1538	1.5293e+02	4.7031	7.599383	0.000360	3.601548	0.610119	-0.000036
1539	1.5303e+02	4.6917	7.561500	0.000381	3.806182	0.644785	-0.000038
1540	1.5313e+02	4.6815	7.520358	0.000413	4.133595	0.700250	-0.000041
1541	1.5323e+02	4.6722	7.489400	0.000311	3.110428	0.526921	-0.000031
1542	1.5333e+02	4.6613	7.451110	0.000385	3.847108	0.651718	-0.000038
1543	1.5343e+02	4.6549	7.414449	0.000368	3.683402	0.623985	-0.000037
1544	1.5353e+02	4.6424	7.374530	0.000401	4.010815	0.679450	-0.000040
1545	1.5363e+02	4.6339	7.339498	0.000352	3.519695	0.596252	-0.000035
1546	1.5373e+02	4.6241	7.297542	0.000422	4.215449	0.714116	-0.000042
1547	1.5383e+02	4.6108	7.263732	0.000340	3.396915	0.575453	-0.000034
1548	1.5393e+02	4.6023	7.225850	0.000381	3.806182	0.644785	-0.000038
1549	1.5403e+02	4.5947	7.188781	0.000372	3.724328	0.630918	-0.000037
1550	1.5413e+02	4.5827	7.150898	0.000381	3.806182	0.644785	-0.000038
1551	1.5422e+02	4.5731	7.113423	0.000377	3.765255	0.637851	-0.000038
1552	1.5432e+02	4.5632	7.077169	0.000364	3.642475	0.617052	-0.000036
1553	1.5442e+02	4.5533	7.043360	0.000340	3.396915	0.575453	-0.000034
1554	1.5452e+02	4.5468	7.005885	0.000377	3.765255	0.637851	-0.000038
1555	1.5462e+02	4.5324	6.968409	0.000377	3.765255	0.637851	-0.000038
1556	1.5472e+02	4.5218	6.930119	0.000385	3.847108	0.651718	-0.000038
1557	1.5482e+02	4.5130	6.896309	0.000340	3.396915	0.575453	-0.000034
1558	1.5492e+02	4.5046	6.858834	0.000377	3.765255	0.637851	-0.000038
1559	1.5502e+02	4.4933	6.818100	0.000409	4.092669	0.693317	-0.000041
1560	1.5512e+02	4.4837	6.786734	0.000315	3.151355	0.533854	-0.000032
1561	1.5522e+02	4.4756	6.750481	0.000364	3.642475	0.617052	-0.000036
1562	1.5532e+02	4.4656	6.710969	0.000397	3.969889	0.672517	-0.000040
1563	1.5542e+02	4.4533	6.675530	0.000356	3.560622	0.603186	-0.000036
1564	1.5552e+02	4.4412	6.638869	0.000368	3.683402	0.623985	-0.000037
1565	1.5562e+02	4.4345	6.603837	0.000352	3.519695	0.596252	-0.000035
1566	1.5572e+02	4.4291	6.567584	0.000364	3.642475	0.617052	-0.000036
1567	1.5582e+02	4.4141	6.532145	0.000356	3.560622	0.603186	-0.000036
1568	1.5592e+02	4.4036	6.495484	0.000368	3.683402	0.623985	-0.000037
1569	1.5602e+02	4.3948	6.462082	0.000336	3.355988	0.568520	-0.000034
1570	1.5612e+02	4.3838	6.422570	0.000397	3.969889	0.672517	-0.000040
1571	1.5622e+02	4.3736	6.388761	0.000340	3.396915	0.575453	-0.000034
1572	1.5631e+02	4.3632	6.351285	0.000377	3.765255	0.637851	-0.000038
1573	1.5641e+02	4.3523	6.312180	0.000393	3.928962	0.665584	-0.000039
1574	1.5651e+02	4.3446	6.275112	0.000372	3.724328	0.630918	-0.000037
1575	1.5661e+02	4.3361	6.240895	0.000344	3.437842	0.582386	-0.000034
1576	1.5671e+02	4.3221	6.204234	0.000368	3.683402	0.623985	-0.000037
1577	1.5681e+02	4.3133	6.169203	0.000352	3.519695	0.596252	-0.000035
1578	1.5691e+02	4.3038	6.133357	0.000360	3.601548	0.610119	-0.000036
1579	1.5701e+02	4.2935	6.098325	0.000352	3.519695	0.596252	-0.000035
1580	1.5711e+02	4.2834	6.061665	0.000368	3.683402	0.623985	-0.000037
1581	1.5721e+02	4.2760	6.027040	0.000348	3.478768	0.589319	-0.000035
1582	1.5731e+02	4.2663	5.988750	0.000385	3.847108	0.651718	-0.000038
1583	1.5741e+02	4.2544	5.952089	0.000368	3.683402	0.623985	-0.000037
1584	1.5751e+02	4.2451	5.914614	0.000377	3.765255	0.637851	-0.000038
1585	1.5761e+02	4.2323	5.878360	0.000364	3.642475	0.617052	-0.000036
1586	1.5771e+02	4.2236	5.841700	0.000368	3.683402	0.623985	-0.000037
1587	1.5781e+02	4.2148	5.805446	0.000364	3.642475	0.617052	-0.000036
1588	1.5791e+02	4.2056	5.770415	0.000352	3.519695	0.596252	-0.000035
1589	1.5801e+02	4.1969	5.737012	0.000336	3.355988	0.568520	-0.000034
1590	1.5811e+02	4.1857	5.695056	0.000422	4.215449	0.714116	-0.000042
1591	1.5821e+02	4.1762	5.659617	0.000356	3.560622	0.603186	-0.000036
1592	1.5830e+02	4.1640	5.623771	0.000360	3.601548	0.610119	-0.000036
1593	1.5840e+02	4.1561	5.592813	0.000311	3.110428	0.526921	-0.000031
1594	1.5850e+02	4.1430	5.555745	0.000372	3.724328	0.630918	-0.000037
1595	1.5860e+02	4.1358	5.522750	0.000332	3.315062	0.561587	-0.000033
1596	1.5870e+02	4.1248	5.483645	0.000393	3.928962	0.665584	-0.000039
1597	1.5880e+02	4.1140	5.448614	0.000352	3.519695	0.596252	-0.000035
1598	1.5890e+02	4.1062	5.413175	0.000356	3.560622	0.603186	-0.000036
1599	1.5900e+02	4.0959	5.376514	0.000368	3.683402	0.623985	-0.000037
1600	1.5910e+02	4.0858	5.341890	0.000348	3.478768	0.589319	-0.000035
1601	1.5920e+02	4.0758	5.309303	0.000327	3.274135	0.554653	-0.000033
1602	1.5930e+02	4.0650	5.272642	0.000368	3.683402	0.623985	-0.000037
1603	1.5940e+02	4.0543	5.237611	0.000352	3.519695	0.596252	-0.000035
1604	1.5950e+02	4.0449	5.200135	0.000377	3.765255	0.637851	-0.000038
1605	1.5960e+02	4.0345	5.165104	0.000352	3.519695	0.596252	-0.000035
1606	1.5970e+02	4.0269	5.130072	0.000352	3.519695	0.596252	-0.000035
1607	1.5980e+02	4.0173	5.093004	0.000372	3.724328	0.630918	-0.000037
1608	1.5990e+02	4.0079	5.060824	0.000323	3.233208	0.547720	-0.000032
1609	1.6000e+02	3.9930	5.030273	0.000307	3.069501	0.519988	-0.000031
1610	1.6010e+02	3.9841	4.997278	0.000332	3.315062	0.561587	-0.000033
1611	1.6019e+02	3.9744	4.961840	0.000356	3.560622	0.603186	-0.000036
1612	1.6029e+02	3.9666	4.921105	0.000409	4.092669	0.693317	-0.000041
1613	1.6039e+02	3.9571	4.889740	0.000315	3.151355	0.533854	-0.000032
1614	1.6049e+02	3.9449	4.852264	0.000377	3.765255	0.637851	-0.000038
1615	1.6059e+02	3.9368	4.814789	0.000377	3.765255	0.637851	-0.000038
1616	1.6069e+02	3.9266	4.774869	0.000401	4.010815	0.679450	-0.000040
1617	1.6079e+02	3.9141	4.740245	0.000348	3.478768	0.589319	-0.000035
1618	1.6089e+02	3.9057	4.704399	0.000360	3.601548	0.610119	-0.000036
1619	1.6099e+02	3.8956	4.668553	0.000360	3.601548	0.610119	-0.000036
1620	1.6109e+02	3.8834	4.634744	0.000340	3.396915	0.575453	-0.000034
1621	1.6119e+02	3.8748	4.595231	0.000397	3.969889	0.672517	-0.000040
1622	1.6129e+02	3.8653	4.562237	0.000332	3.315062	0.561587	-0.000033
1623	1.6139e+02	3.8566	4.526390	0.000360	3.601548	0.610119	-0.000036
1624	1.6149e+02	3.8453	4.486471	0.000401	4.010815	0.679450	-0.000040
1625	1.6159e+02	3.8342	4.449810	0.000368	3.683402	0.623985	-0.000037
1626	1.6169e+02	3.8257	4.410298	0.000397	3.969889	0.672517	-0.000040
1627	1.6179e+02	3.8162	4.371600	0.000389	3.888035	0.658651	-0.000039
1628	1.6189e+02	3.8076	4.329237	0.000426	4.256375	0.721049	-0.000043
1629	1.6199e+02	3.7972	4.292983	0.000364	3.642475	0.617052	-0.000036
1630	1.6209e+02	3.7858	4.252656	0.000405	4.051742	0.686384	-0.000041
1631	1.6219e+02	3.7772	4.211922	0.000409	4.092669	0.693317	-0.000041
1632	1.6228e+02	3.7640	4.173632	0.000385	3.847108	0.651718	-0.000038
1633	1.6238e+02	3.7580	4.140230	0.000336	3.355988	0.568520	-0.000034
1634	1.6248e+02	3.7465	4.094607	0.000458	4.583789	0.776515	-0.000046
1635	1.6258e+02	3.7354	4.051836	0.000430	4.297302	0.727983	-0.000043
1636	1.6268e+02	3.7262	4.015583	0.000364	3.642475	0.617052	-0.000036
1637	1.6278e+02	3.7144	3.974849	0.000409	4.092669	0.693317	-0.000041
1638	1.6288e+02	3.7049	3.932892	0.000422	4.215449	0.714116	-0.000042
1639	1.6298e+02	3.6997	3.894195	0.000389	3.888035	0.658651	-0.000039
1640	1.6308e+02	3.6862	3.855090	0.000393	3.928962	0.665584	-0.000039
1641	1.6318e+02	3.6757	3.811504	0.000438	4.379155	0.741849	-0.000044
1642	1.6328e+02	3.6671	3.771992	0.000397	3.969889	0.672517	-0.000040
1643	1.6338e+02	3.6555	3.736553	0.000356	3.560622	0.603186	-0.000036
1644	1.6348e+02	3.6473	3.690524	0.000462	4.624715	0.783448	-0.000046
1645	1.6358e+02	3.6390	3.650197	0.000405	4.051742	0.686384	-0.000041
1646	1.6368e+02	3.6269	3.609055	0.000413	4.133595	0.700250	-0.000041
1647	1.6378e+02	3.6166	3.565062	0.000442	4.420082	0.748782	-0.000044
1648	1.6388e+02	3.6085	3.524735	0.000405	4.051742	0.686384	-0.000041
1649	1.6398e+02	3.5970	3.484816	0.000401	4.010815	0.679450	-0.000040
1650	1.6408e+02	3.5866	3.442045	0.000430	4.297302	0.727983	-0.000043
1651	1.6418e+02	3.5778	3.400903	0.000413	4.133595	0.700250	-0.000041
1652	1.6427e+02	3.5681	3.358947	0.000422	4.215449	0.714116	-0.000042
1653	1.6437e+02	3.5561	3.321064	0.000381	3.806182	0.644785	-0.000038
1654	1.6447e+02	3.5498	3.274219	0.000471	4.706569	0.797314	-0.000047
1655	1.6457e+02	3.5372	3.235522	0.000389	3.888035	0.658651	-0.000039
1656	1.6467e+02	3.5320	3.195195	0.000405	4.051742	0.686384	-0.000041
1657	1.6477e+02	3.5181	3.150795	0.000446	4.461009	0.755715	-0.000045
1658	1.6487e+02	3.5062	3.112912	0.000381	3.806182	0.644785	-0.000038
1659	1.6497e+02	3.5000	3.066882	0.000462	4.624715	0.783448	-0.000046
1660	1.6507e+02	3.4854	3.026963	0.000401	4.010815	0.679450	-0.000040
1661	1.6517e+02	3.4782	2.982970	0.000442	4.420082	0.748782	-0.000044
1662	1.6527e+02	3.4692	2.939384	0.000438	4.379155	0.741849	-0.000044
1663	1.6537e+02	3.4610	2.897428	0.000422	4.215449	0.714116	-0.000042
1664	1.6547e+02	3.4502	2.855064	0.000426	4.256375	0.721049	-0.000043
1665	1.6557e+02	3.4401	2.810256	0.000450	4.501935	0.762649	-0.000045
1666	1.6567e+02	3.4268	2.770744	0.000397	3.969889	0.672517	-0.000040
1667	1.6577e+02	3.4182	2.727973	0.000430	4.297302	0.727983	-0.000043
1668	1.6587e+02	3.4085	2.684795	0.000434	4.338229	0.734916	-0.000043
1669	1.6597e+02	3.3978	2.639580	0.000454	4.542862	0.769582	-0.000045
1670	1.6607e+02	3.3888	2.602919	0.000368	3.683402	0.623985	-0.000037
1671	1.6616e+02	3.3804	2.560963	0.000422	4.215449	0.714116	-0.000042
1672	1.6626e+02	3.3709	2.513304	0.000479	4.788422	0.811181	-0.000048
1673	1.6636e+02	3.3624	2.472977	0.000405	4.051742	0.686384	-0.000041
1674	1.6646e+02	3.3512	2.428984	0.000442	4.420082	0.748782	-0.000044
1675	1.6656e+02	3.3377	2.388657	0.000405	4.051742	0.686384	-0.000041
1676	1.6666e+02	3.3282	2.342220	0.000467	4.665642	0.790381	-0.000047
1677	1.6676e+02	3.3189	2.294153	0.000483	4.829349	0.818114	-0.000048
1678	1.6686e+02	3.3097	2.248938	0.000454	4.542862	0.769582	-0.000045
1679	1.6696e+02	3.2996	2.204945	0.000442	4.420082	0.748782	-0.000044
1680	1.6706e+02	3.2880	2.161360	0.000438	4.379155	0.741849	-0.000044
1681	1.6716e+02	3.2787	2.115737	0.000458	4.583789	0.776515	-0.000046
1682	1.6726e+02	3.2700	2.067263	0.000487	4.870276	0.825047	-0.000049
1683	1.6736e+02	3.2578	2.030195	0.000372	3.724328	0.630918	-0.000037
1684	1.6746e+02	3.2480	1.984573	0.000458	4.583789	0.776515	-0.000046
1685	1.6756e+02	3.2369	1.937321	0.000475	4.747496	0.804248	-0.000047
1686	1.6766e+02	3.2310	1.893736	0.000438	4.379155	0.741849	-0.000044
1687	1.6776e+02	3.2194	1.845669	0.000483	4.829349	0.818114	-0.000048
1688	1.6786e+02	3.2102	1.802083	0.000438	4.379155	0.741849	-0.000044
1689	1.6796e+02	3.2004	1.758090	0.000442	4.420082	0.748782	-0.000044
1690	1.6806e+02	3.1908	1.710431	0.000479	4.788422	0.811181	-0.000048
1691	1.6816e+02	3.1794	1.661958	0.000487	4.870276	0.825047	-0.000049
1692	1.6825e+02	3.1683	1.615113	0.000471	4.706569	0.797314	-0.000047
1693	1.6835e+02	3.1584	1.567454	0.000479	4.788422	0.811181	-0.000048
1694	1.6845e+02	3.1501	1.521424	0.000462	4.624715	0.783448	-0.000046
1695	1.6855e+02	3.1410	1.477024	0.000446	4.461009	0.755715	-0.000045
1696	1.6865e+02	3.1307	1.434253	0.000430	4.297302	0.727983	-0.000043
1697	1.6875e+02	3.1193	1.387001	0.000475	4.747496	0.804248	-0.000047
1698	1.6885e+02	3.1091	1.346674	0.000405	4.051742	0.686384	-0.000041
1699	1.6895e+02	3.1004	1.299015	0.000479	4.788422	0.811181	-0.000048
1700	1.6905e+02	3.0917	1.252578	0.000467	4.665642	0.790381	-0.000047
1701	1.6915e+02	3.0798	1.211029	0.000417	4.174522	0.707183	-0.000042
1702	1.6925e+02	3.0723	1.166629	0.000446	4.461009	0.755715	-0.000045
1703	1.6935e+02	3.0608	1.117341	0.000495	4.952129	0.838913	-0.000050
1704	1.6945e+02	3.0479	1.072940	0.000446	4.461009	0.755715	-0.000045
1705	1.6955e+02	3.0389	1.026096	0.000471	4.706569	0.797314	-0.000047
1706	1.6965e+02	3.0318	0.981288	0.000450	4.501935	0.762649	-0.000045
1707	1.6975e+02	3.0176	0.937703	0.000438	4.379155	0.741849	-0.000044
1708	1.6985e+02	3.0140	0.896154	0.000417	4.174522	0.707183	-0.000042
1709	1.6995e+02	3.0010	0.850939	0.000454	4.542862	0.769582	-0.000045
1710	1.7005e+02	2.9891	0.804094	0.000471	4.706569	0.797314	-0.000047
1711	1.7015e+02	2.9815	0.760509	0.000438	4.379155	0.741849	-0.000044
1712	1.7024e+02	2.9720	0.717738	0.000430	4.297302	0.727983	-0.000043
1713	1.7034e+02	2.9610	0.675781	0.000422	4.215449	0.714116	-0.000042
1714	1.7044e+02	2.9479	0.631788	0.000442	4.420082	0.748782	-0.000044
1715	1.7054e+02	2.9385	0.585759	0.000462	4.624715	0.783448	-0.000046
1716	1.7064e+02	2.9308	0.546654	0.000393	3.928962	0.665584	-0.000039
1717	1.7074e+02	2.9215	0.501439	0.000454	4.542862	0.769582	-0.000045
1718	1.7084e+02	2.9084	0.459482	0.000422	4.215449	0.714116	-0.000042
1719	1.7094e+02	2.9011	0.411823	0.000479	4.788422	0.811181	-0.000048
1720	1.7104e+02	2.8936	0.367830	0.000442	4.420082	0.748782	-0.000044
1721	1.7114e+02	2.8806	0.324245	0.000438	4.379155	0.741849	-0.000044
1722	1.7124e+02	2.8690	0.282288	0.000422	4.215449	0.714116	-0.000042
1723	1.7134e+02	2.8618	0.240739	0.000417	4.174522	0.707183	-0.000042
1724	1.7144e+02	2.8500	0.195117	0.000458	4.583789	0.776515	-0.000046
1725	1.7154e+02	2.8382	0.151939	0.000434	4.338229	0.734916	-0.000043
1726	1.7164e+02	2.8331	0.112834	0.000393	3.928962	0.665584	-0.000039
1727	1.7174e+02	2.8219	0.067212	0.000458	4.583789	0.776515	-0.000046
1728	1.7184e+02	2.8104	0.023626	0.000438	4.379155	0.741849	-0.000044
1729	1.7194e+02	2.8000	-0.018738	0.000426	4.256375	0.721049	-0.000043
1730	1.7204e+02	2.7918	-0.061916	0.000434	4.338229	0.734916	-0.000043
1731	1.7213e+02	2.7824	-0.105094	0.000434	4.338229	0.734916	-0.000043
1732	1.7223e+02	2.7731	-0.149495	0.000446	4.461009	0.755715	-0.000045
1733	1.7233e+02	2.7605	-0.190229	0.000409	4.092669	0.693317	-0.000041
1734	1.7243e+02	2.7528	-0.233000	0.000430	4.297302	0.727983	-0.000043
1735	1.7253e+02	2.7434	-0.276178	0.000434	4.338229	0.734916	-0.000043
1736	1.7263e+02	2.7320	-0.318949	0.000430	4.297302	0.727983	-0.000043
1737	1.7273e+02	2.7224	-0.359683	0.000409	4.092669	0.693317	-0.000041
1738	1.7283e+02	2.7108	-0.406121	0.000467	4.665642	0.790381	-0.000047
1739	1.7293e+02	2.7016	-0.450521	0.000446	4.461009	0.755715	-0.000045
1740	1.7303e+02	2.6908	-0.494921	0.000446	4.461009	0.755715	-0.000045
1741	1.7313e+02	2.6814	-0.535248	0.000405	4.051742	0.686384	-0.000041
1742	1.7323e+02	2.6713	-0.576797	0.000417	4.174522	0.707183	-0.000042
1743	1.7333e+02	2.6620	-0.621605	0.000450	4.501935	0.762649	-0.000045
1744	1.7343e+02	2.6509	-0.666412	0.000450	4.501935	0.762649	-0.000045
1745	1.7353e+02	2.6415	-0.707961	0.000417	4.174522	0.707183	-0.000042
1746	1.7363e+02	2.6330	-0.746659	0.000389	3.888035	0.658651	-0.000039
1747	1.7373e+02	2.6216	-0.793503	0.000471	4.706569	0.797314	-0.000047
1748	1.7383e+02	2.6118	-0.836274	0.000430	4.297302	0.727983	-0.000043
1749	1.7393e+02	2.6054	-0.878231	0.000422	4.215449	0.714116	-0.000042
1750	1.7403e+02	2.5925	-0.920594	0.000426	4.256375	0.721049	-0.000043
1751	1.7413e+02	2.5819	-0.962143	0.000417	4.174522	0.707183	-0.000042
1752	1.7422e+02	2.5716	-1.008580	0.000467	4.665642	0.790381	-0.000047
1753	1.7432e+02	2.5630	-1.052980	0.000446	4.461009	0.755715	-0.000045
1754	1.7442e+02	2.5504	-1.094937	0.000422	4.215449	0.714116	-0.000042
1755	1.7452e+02	2.5439	-1.139337	0.000446	4.461009	0.755715	-0.000045
1756	1.7462e+02	2.5326	-1.182108	0.000430	4.297302	0.727983	-0.000043
1757	1.7472e+02	2.5227	-1.224879	0.000430	4.297302	0.727983	-0.000043
1758	1.7482e+02	2.5134	-1.268057	0.000434	4.338229	0.734916	-0.000043
1759	1.7492e+02	2.5025	-1.314494	0.000467	4.665642	0.790381	-0.000047
1760	1.7502e+02	2.4928	-1.354414	0.000401	4.010815	0.679450	-0.000040
1761	1.7512e+02	2.4841	-1.390667	0.000364	3.642475	0.617052	-0.000036
1762	1.7522e+02	2.4748	-1.434253	0.000438	4.379155	0.741849	-0.000044
1763	1.7532e+02	2.4622	-1.477024	0.000430	4.297302	0.727983	-0.000043
1764	1.7542e+02	2.4549	-1.519795	0.000430	4.297302	0.727983	-0.000043
1765	1.7552e+02	2.4453	-1.565010	0.000454	4.542862	0.769582	-0.000045
1766	1.7562e+02	2.4344	-1.604115	0.000393	3.928962	0.665584	-0.000039
1767	1.7572e+02	2.4247	-1.650552	0.000467	4.665642	0.790381	-0.000047
1768	1.7582e+02	2.4135	-1.690064	0.000397	3.969889	0.672517	-0.000040
1769	1.7592e+02	2.4052	-1.734872	0.000450	4.501935	0.762649	-0.000045
1770	1.7602e+02	2.3918	-1.778050	0.000434	4.338229	0.734916	-0.000043
1771	1.7612e+02	2.3826	-1.819192	0.000413	4.133595	0.700250	-0.000041
1772	1.7621e+02	2.3723	-1.860741	0.000417	4.174522	0.707183	-0.000042
1773	1.7631e+02	2.3621	-1.906363	0.000458	4.583789	0.776515	-0.000046
1774	1.7641e+02	2.3525	-1.943431	0.000372	3.724328	0.630918	-0.000037
1775	1.7651e+02	2.3451	-1.987832	0.000446	4.461009	0.755715	-0.000045
1776	1.7661e+02	2.3359	-2.028159	0.000405	4.051742	0.686384	-0.000041
1777	1.7671e+02	2.3260	-2.066449	0.000385	3.847108	0.651718	-0.000038
1778	1.7681e+02	2.3135	-2.109220	0.000430	4.297302	0.727983	-0.000043
1779	1.7691e+02	2.3034	-2.156064	0.000471	4.706569	0.797314	-0.000047
1780	1.7701e+02	2.2939	-2.196798	0.000409	4.092669	0.693317	-0.000041
1781	1.7711e+02	2.2874	-2.237533	0.000409	4.092669	0.693317	-0.000041
1782	1.7721e+02	2.2744	-2.283970	0.000467	4.665642	0.790381	-0.000047
1783	1.7731e+02	2.2633	-2.330814	0.000471	4.706569	0.797314	-0.000047
1784	1.7741e+02	2.2538	-2.365846	0.000352	3.519695	0.596252	-0.000035
1785	1.7751e+02	2.2452	-2.412690	0.000471	4.706569	0.797314	-0.000047
1786	1.7761e+02	2.2369	-2.459534	0.000471	4.706569	0.797314	-0.000047
1787	1.7771e+02	2.2245	-2.499861	0.000405	4.051742	0.686384	-0.000041
1788	1.7781e+02	2.2148	-2.545484	0.000458	4.583789	0.776515	-0.000046
1789	1.7791e+02	2.2060	-2.590291	0.000450	4.501935	0.762649	-0.000045
1790	1.7801e+02	2.1931	-2.629396	0.000393	3.928962	0.665584	-0.000039
1791	1.7810e+02	2.1839	-2.676648	0.000475	4.747496	0.804248	-0.000047
1792	1.7820e+02	2.1739	-2.719012	0.000426	4.256375	0.721049	-0.000043
1793	1.7830e+02	2.1668	-2.766671	0.000479	4.788422	0.811181	-0.000048
1794	1.7840e+02	2.1523	-2.812700	0.000462	4.624715	0.783448	-0.000046
1795	1.7850e+02	2.1439	-2.859545	0.000471	4.706569	0.797314	-0.000047
1796	1.7860e+02	2.1353	-2.904352	0.000450	4.501935	0.762649	-0.000045
1797	1.7870e+02	2.1230	-2.952011	0.000479	4.788422	0.811181	-0.000048
1798	1.7880e+02	2.1140	-3.000078	0.000483	4.829349	0.818114	-0.000048
1799	1.7890e+02	2.1066	-3.042442	0.000426	4.256375	0.721049	-0.000043
1800	1.7900e+02	2.0942	-3.093767	0.000516	5.156762	0.873579	-0.000052
1801	1.7910e+02	2.0870	-3.139796	0.000462	4.624715	0.783448	-0.000046
1802	1.7920e+02	2.0752	-3.189085	0.000495	4.952129	0.838913	-0.000050
1803	1.7930e+02	2.0628	-3.237966	0.000491	4.911202	0.831980	-0.000049
1804	1.7940e+02	2.0544	-3.284403	0.000467	4.665642	0.790381	-0.000047
1805	1.7950e+02	2.0438	-3.334506	0.000503	5.033982	0.852780	-0.000050
1806	1.7960e+02	2.0343	-3.382980	0.000487	4.870276	0.825047	-0.000049
1807	1.7970e+02	2.0232	-3.430639	0.000479	4.788422	0.811181	-0.000048
1808	1.7980e+02	2.0168	-3.475447	0.000450	4.501935	0.762649	-0.000045
1809	1.7990e+02	2.0053	-3.522291	0.000471	4.706569	0.797314	-0.000047
1810	1.8000e+02	1.9986	-3.572394	0.000503	5.033982	0.852780	-0.000050
1811	1.8009e+02	1.9852	-3.618424	0.000462	4.624715	0.783448	-0.000046
1812	1.8019e+02	1.9755	-3.665676	0.000475	4.747496	0.804248	-0.000047
1813	1.8029e+02	1.9640	-3.716186	0.000507	5.074909	0.859713	-0.000051
1814	1.8039e+02	1.9524	-3.765475	0.000495	4.952129	0.838913	-0.000050
1815	1.8049e+02	1.9448	-3.813948	0.000487	4.870276	0.825047	-0.000049
1816	1.8059e+02	1.9383	-3.865273	0.000516	5.156762	0.873579	-0.000052
1817	1.8069e+02	1.9277	-3.913747	0.000487	4.870276	0.825047	-0.000049
1818	1.8079e+02	1.9170	-3.963036	0.000495	4.952129	0.838913	-0.000050
1819	1.8089e+02	1.9070	-4.012324	0.000495	4.952129	0.838913	-0.000050
1820	1.8099e+02	1.8958	-4.059169	0.000471	4.706569	0.797314	-0.000047
1821	1.8109e+02	1.8874	-4.107235	0.000483	4.829349	0.818114	-0.000048
1822	1.8119e+02	1.8745	-4.156523	0.000495	4.952129	0.838913	-0.000050
1823	1.8129e+02	1.8652	-4.208256	0.000520	5.197689	0.880512	-0.000052
1824	1.8139e+02	1.8565	-4.255508	0.000475	4.747496	0.804248	-0.000047
1825	1.8149e+02	1.8460	-4.308870	0.000536	5.361396	0.908245	-0.000054
1826	1.8159e+02	1.8344	-4.354492	0.000458	4.583789	0.776515	-0.000046
1827	1.8169e+02	1.8259	-4.405002	0.000507	5.074909	0.859713	-0.000051
1828	1.8179e+02	1.8150	-4.455105	0.000503	5.033982	0.852780	-0.000050
1829	1.8189e+02	1.8052	-4.504394	0.000495	4.952129	0.838913	-0.000050
1830	1.8199e+02	1.7953	-4.556941	0.000528	5.279542	0.894379	-0.000053
1831	1.8209e+02	1.7862	-4.607452	0.000507	5.074909	0.859713	-0.000051
1832	1.8218e+02	1.7769	-4.657962	0.000507	5.074909	0.859713	-0.000051
1833	1.8228e+02	1.7668	-4.708473	0.000507	5.074909	0.859713	-0.000051
1834	1.8238e+02	1.7556	-4.760205	0.000520	5.197689	0.880512	-0.000052
1835	1.8248e+02	1.7442	-4.807457	0.000475	4.747496	0.804248	-0.000047
1836	1.8258e+02	1.7381	-4.857153	0.000499	4.993056	0.845847	-0.000050
1837	1.8268e+02	1.7261	-4.903590	0.000467	4.665642	0.790381	-0.000047
1838	1.8278e+02	1.7150	-4.958174	0.000548	5.484176	0.929045	-0.000055
1839	1.8288e+02	1.7089	-5.009906	0.000520	5.197689	0.880512	-0.000052
1840	1.8298e+02	1.6951	-5.056343	0.000467	4.665642	0.790381	-0.000047
1841	1.8308e+02	1.6867	-5.109298	0.000532	5.320469	0.901312	-0.000053
1842	1.8318e+02	1.6769	-5.159808	0.000507	5.074909	0.859713	-0.000051
1843	1.8328e+02	1.6667	-5.214392	0.000548	5.484176	0.929045	-0.000055
1844	1.8338e+02	1.6584	-5.262458	0.000483	4.829349	0.818114	-0.000048
1845	1.8348e+02	1.6455	-5.322338	0.000602	6.016223	1.019176	-0.000060
1846	1.8358e+02	1.6394	-5.373256	0.000512	5.115836	0.866646	-0.000051
1847	1.8368e+02	1.6280	-5.426617	0.000536	5.361396	0.908245	-0.000054
1848	1.8378e+02	1.6169	-5.479572	0.000532	5.320469	0.901312	-0.000053
1849	1.8388e+02	1.6061	-5.533341	0.000540	5.402322	0.915178	-0.000054
1850	1.8398e+02	1.5986	-5.584259	0.000512	5.115836	0.866646	-0.000051
1851	1.8407e+02	1.5878	-5.634362	0.000503	5.033982	0.852780	-0.000050
1852	1.8417e+02	1.5755	-5.685687	0.000516	5.156762	0.873579	-0.000052
1853	1.8427e+02	1.5643	-5.738642	0.000532	5.320469	0.901312	-0.000053
1854	1.8437e+02	1.5575	-5.789152	0.000507	5.074909	0.859713	-0.000051
1855	1.8447e+02	1.5455	-5.847402	0.000585	5.852516	0.991443	-0.000059
1856	1.8457e+02	1.5391	-5.899135	0.000520	5.197689	0.880512	-0.000052
1857	1.8467e+02	1.5288	-5.954533	0.000557	5.566029	0.942911	-0.000056
1858	1.8477e+02	1.5163	-6.011969	0.000577	5.770663	0.977577	-0.000058
1859	1.8487e+02	1.5100	-6.064923	0.000532	5.320469	0.901312	-0.000053
1860	1.8497e+02	1.4965	-6.121137	0.000565	5.647883	0.956777	-0.000056
1861	1.8507e+02	1.4865	-6.174498	0.000536	5.361396	0.908245	-0.000054
1862	1.8517e+02	1.4769	-6.226231	0.000520	5.197689	0.880512	-0.000052
1863	1.8527e+02	1.4669	-6.278371	0.000524	5.238616	0.887446	-0.000052
1864	1.8537e+02	1.4598	-6.333362	0.000553	5.525103	0.935978	-0.000055
1865	1.8547e+02	1.4482	-6.389983	0.000569	5.688809	0.963710	-0.000057
1866	1.8557e+02	1.4402	-6.439678	0.000499	4.993056	0.845847	-0.000050
1867	1.8567e+02	1.4269	-6.493448	0.000540	5.402322	0.915178	-0.000054
1868	1.8577e+02	1.4243	-6.544365	0.000512	5.115836	0.866646	-0.000051
1869	1.8587e+02	1.4086	-6.596098	0.000520	5.197689	0.880512	-0.000052
1870	1.8597e+02	1.3977	-6.648645	0.000528	5.279542	0.894379	-0.000053
1871	1.8606e+02	1.3895	-6.704044	0.000557	5.566029	0.942911	-0.000056
1872	1.8616e+02	1.3776	-6.759850	0.000561	5.606956	0.949844	-0.000056
1873	1.8626e+02	1.3679	-6.811175	0.000516	5.156762	0.873579	-0.000052
1874	1.8636e+02	1.3573	-6.863315	0.000524	5.238616	0.887446	-0.000052
1875	1.8646e+02	1.3471	-6.915454	0.000524	5.238616	0.887446	-0.000052
1876	1.8656e+02	1.3377	-6.971260	0.000561	5.606956	0.949844	-0.000056
1877	1.8666e+02	1.3337	-7.018105	0.000471	4.706569	0.797314	-0.000047
1878	1.8676e+02	1.3185	-7.070652	0.000528	5.279542	0.894379	-0.000053
1879	1.8686e+02	1.3066	-7.122385	0.000520	5.197689	0.880512	-0.000052
1880	1.8696e+02	1.2992	-7.174524	0.000524	5.238616	0.887446	-0.000052
1881	1.8706e+02	1.2906	-7.227479	0.000532	5.320469	0.901312	-0.000053
1882	1.8716e+02	1.2798	-7.276767	0.000495	4.952129	0.838913	-0.000050
1883	1.8726e+02	1.2674	-7.332166	0.000557	5.566029	0.942911	-0.000056
1884	1.8736e+02	1.2595	-7.379418	0.000475	4.747496	0.804248	-0.000047
1885	1.8746e+02	1.2508	-7.427484	0.000483	4.829349	0.818114	-0.000048
1886	1.8756e+02	1.2397	-7.482068	0.000548	5.484176	0.929045	-0.000055
1887	1.8766e+02	1.2297	-7.534208	0.000524	5.238616	0.887446	-0.000052
1888	1.8776e+02	1.2212	-7.584718	0.000507	5.074909	0.859713	-0.000051
1889	1.8786e+02	1.2101	-7.638488	0.000540	5.402322	0.915178	-0.000054
1890	1.8796e+02	1.1988	-7.686961	0.000487	4.870276	0.825047	-0.000049
1891	1.8806e+02	1.1860	-7.738694	0.000520	5.197689	0.880512	-0.000052
1892	1.8815e+02	1.1784	-7.792870	0.000544	5.443249	0.922111	-0.000054
1893	1.8825e+02	1.1674	-7.840937	0.000483	4.829349	0.818114	-0.000048
1894	1.8835e+02	1.1624	-7.893077	0.000524	5.238616	0.887446	-0.000052
1895	1.8845e+02	1.1508	-7.947253	0.000544	5.443249	0.922111	-0.000054
1896	1.8855e+02	1.1414	-7.996949	0.000499	4.993056	0.845847	-0.000050
1897	1.8865e+02	1.1265	-8.046645	0.000499	4.993056	0.845847	-0.000050
1898	1.8875e+02	1.1214	-8.098785	0.000524	5.238616	0.887446	-0.000052
1899	1.8885e+02	1.1111	-8.150110	0.000516	5.156762	0.873579	-0.000052
1900	1.8895e+02	1.0986	-8.204694	0.000548	5.484176	0.929045	-0.000055
1901	1.8905e+02	1.0905	-8.253575	0.000491	4.911202	0.831980	-0.000049
1902	1.8915e+02	1.0821	-8.303678	0.000503	5.033982	0.852780	-0.000050
1903	1.8925e+02	1.0711	-8.355003	0.000516	5.156762	0.873579	-0.000052
1904	1.8935e+02	1.0616	-8.404292	0.000495	4.952129	0.838913	-0.000050
1905	1.8945e+02	1.0517	-8.456431	0.000524	5.238616	0.887446	-0.000052
1906	1.8955e+02	1.0440	-8.506127	0.000499	4.993056	0.845847	-0.000050
1907	1.8965e+02	1.0321	-8.559896	0.000540	5.402322	0.915178	-0.000054
1908	1.8975e+02	1.0197	-8.612851	0.000532	5.320469	0.901312	-0.000053
1909	1.8985e+02	1.0089	-8.660917	0.000483	4.829349	0.818114	-0.000048
1910	1.8995e+02	0.9978	-8.715094	0.000544	5.443249	0.922111	-0.000054
1911	1.9004e+02	0.9911	-8.769678	0.000548	5.484176	0.929045	-0.000055
1912	1.9014e+02	0.9808	-8.818152	0.000487	4.870276	0.825047	-0.000049
1913	1.9024e+02	0.9730	-8.868255	0.000503	5.033982	0.852780	-0.000050
1914	1.9034e+02	0.9606	-8.916321	0.000483	4.829349	0.818114	-0.000048
1915	1.9044e+02	0.9523	-8.965610	0.000495	4.952129	0.838913	-0.000050
1916	1.9054e+02	0.9386	-9.021823	0.000565	5.647883	0.956777	-0.000056
1917	1.9064e+02	0.9304	-9.076407	0.000548	5.484176	0.929045	-0.000055
1918	1.9074e+02	0.9217	-9.123658	0.000475	4.747496	0.804248	-0.000047
1919	1.9084e+02	0.9117	-9.172540	0.000491	4.911202	0.831980	-0.000049
1920	1.9094e+02	0.8998	-9.229568	0.000573	5.729736	0.970644	-0.000057
1921	1.9104e+02	0.8939	-9.281300	0.000520	5.197689	0.880512	-0.000052
1922	1.9114e+02	0.8782	-9.332625	0.000516	5.156762	0.873579	-0.000052
1923	1.9124e+02	0.8707	-9.384358	0.000520	5.197689	0.880512	-0.000052
1924	1.9134e+02	0.8633	-9.435683	0.000516	5.156762	0.873579	-0.000052
1925	1.9144e+02	0.8488	-9.488637	0.000532	5.320469	0.901312	-0.000053
1926	1.9154e+02	0.8413	-9.539963	0.000516	5.156762	0.873579	-0.000052
1927	1.9164e+02	0.8336	-9.592917	0.000532	5.320469	0.901312	-0.000053
1928	1.9174e+02	0.8211	-9.643428	0.000507	5.074909	0.859713	-0.000051
1929	1.9184e+02	0.8119	-9.690272	0.000471	4.706569	0.797314	-0.000047
1930	1.9194e+02	0.8016	-9.738746	0.000487	4.870276	0.825047	-0.000049
1931	1.9203e+02	0.7938	-9.789256	0.000507	5.074909	0.859713	-0.000051
1932	1.9213e+02	0.7879	-9.838952	0.000499	4.993056	0.845847	-0.000050
1933	1.9223e+02	0.7744	-9.893943	0.000553	5.525103	0.935978	-0.000055
1934	1.9233e+02	0.7615	-9.942417	0.000487	4.870276	0.825047	-0.000049
1935	1.9243e+02	0.7505	-9.991298	0.000491	4.911202	0.831980	-0.000049
1936	1.9253e+02	0.7411	-10.043438	0.000524	5.238616	0.887446	-0.000052
1937	1.9263e+02	0.7328	-10.095578	0.000524	5.238616	0.887446	-0.000052
1938	1.9273e+02	0.7230	-10.150976	0.000557	5.566029	0.942911	-0.000056
1939	1.9283e+02	0.7100	-10.196191	0.000454	4.542862	0.769582	-0.000045
1940	1.9293e+02	0.7023	-10.249146	0.000532	5.320469	0.901312	-0.000053
1941	1.9303e+02	0.6935	-10.296398	0.000475	4.747496	0.804248	-0.000047
1942	1.9313e+02	0.6817	-10.352611	0.000565	5.647883	0.956777	-0.000056
1943	1.9323e+02	0.6734	-10.395789	0.000434	4.338229	0.734916	-0.000043
1944	1.9333e+02	0.6625	-10.442226	0.000467	4.665642	0.790381	-0.000047
1945	1.9343e+02	0.6502	-10.496403	0.000544	5.443249	0.922111	-0.000054
1946	1.9353e+02	0.6423	-10.547728	0.000516	5.156762	0.873579	-0.000052
1947	1.9363e+02	0.6331	-10.596202	0.000487	4.870276	0.825047	-0.000049
1948	1.9373e+02	0.6216	-10.652822	0.000569	5.688809	0.963710	-0.000057
1949	1.9383e+02	0.6140	-10.702926	0.000503	5.033982	0.852780	-0.000050
1950	1.9393e+02	0.6049	-10.754251	0.000516	5.156762	0.873579	-0.000052
1951	1.9403e+02	0.5961	-10.807613	0.000536	5.361396	0.908245	-0.000054
1952	1.9412e+02	0.5824	-10.858123	0.000507	5.074909	0.859713	-0.000051
1953	1.9422e+02	0.5765	-10.910670	0.000528	5.279542	0.894379	-0.000053
1954	1.9432e+02	0.5614	-10.957107	0.000467	4.665642	0.790381	-0.000047
1955	1.9442e+02	0.5520	-11.016579	0.000598	5.975296	1.012243	-0.000060
1956	1.9452e+02	0.5459	-11.063831	0.000475	4.747496	0.804248	-0.000047
1957	1.9462e+02	0.5341	-11.117193	0.000536	5.361396	0.908245	-0.000054
1958	1.9472e+02	0.5193	-11.170147	0.000532	5.320469	0.901312	-0.000053
1959	1.9482e+02	0.5115	-11.222695	0.000528	5.279542	0.894379	-0.000053
1960	1.9492e+02	0.5043	-11.274020	0.000516	5.156762	0.873579	-0.000052
1961	1.9502e+02	0.4923	-11.328604	0.000548	5.484176	0.929045	-0.000055
1962	1.9512e+02	0.4833	-11.384817	0.000565	5.647883	0.956777	-0.000056
1963	1.9522e+02	0.4736	-11.439808	0.000553	5.525103	0.935978	-0.000055
1964	1.9532e+02	0.4619	-11.496836	0.000573	5.729736	0.970644	-0.000057
1965	1.9542e+02	0.4527	-11.551013	0.000544	5.443249	0.922111	-0.000054
1966	1.9552e+02	0.4441	-11.604375	0.000536	5.361396	0.908245	-0.000054
1967	1.9562e+02	0.4336	-11.661810	0.000577	5.770663	0.977577	-0.000058
1968	1.9572e+02	0.4224	-11.720060	0.000585	5.852516	0.991443	-0.000059
1969	1.9582e+02	0.4133	-11.773014	0.000532	5.320469	0.901312	-0.000053
1970	1.9592e+02	0.4048	-11.829228	0.000565	5.647883	0.956777	-0.000056
1971	1.9601e+02	0.3958	-11.882997	0.000540	5.402322	0.915178	-0.000054
1972	1.9611e+02	0.3812	-11.939210	0.000565	5.647883	0.956777	-0.000056
1973	1.9621e+02	0.3748	-11.997868	0.000589	5.893443	0.998376	-0.000059
1974	1.9631e+02	0.3640	-12.053266	0.000557	5.566029	0.942911	-0.000056
1975	1.9641e+02	0.3530	-12.107443	0.000544	5.443249	0.922111	-0.000054
1976	1.9651e+02	0.3439	-12.163249	0.000561	5.606956	0.949844	-0.000056
1977	1.9661e+02	0.3342	-12.217425	0.000544	5.443249	0.922111	-0.000054
1978	1.9671e+02	0.3233	-12.276897	0.000598	5.975296	1.012243	-0.000060
1979	1.9681e+02	0.3168	-12.332703	0.000561	5.606956	0.949844	-0.000056
1980	1.9691e+02	0.3051	-12.390138	0.000577	5.770663	0.977577	-0.000058
1981	1.9701e+02	0.2940	-12.446352	0.000565	5.647883	0.956777	-0.000056
1982	1.9711e+02	0.2861	-12.502972	0.000569	5.688809	0.963710	-0.000057
1983	1.9721e+02	0.2714	-12.560815	0.000581	5.811589	0.984510	-0.000058
1984	1.9731e+02	0.2670	-12.617436	0.000569	5.688809	0.963710	-0.000057
1985	1.9741e+02	0.2573	-12.676093	0.000589	5.893443	0.998376	-0.000059
1986	1.9751e+02	0.2412	-12.733528	0.000577	5.770663	0.977577	-0.000058
1987	1.9761e+02	0.2357	-12.789334	0.000561	5.606956	0.949844	-0.000056
1988	1.9771e+02	0.2237	-12.846362	0.000573	5.729736	0.970644	-0.000057
1989	1.9781e+02	0.2153	-12.904612	0.000585	5.852516	0.991443	-0.000059
1990	1.9791e+02	0.2062	-12.958789	0.000544	5.443249	0.922111	-0.000054
1991	1.9800e+02	0.1936	-13.016631	0.000581	5.811589	0.984510	-0.000058
1992	1.9810e+02	0.1848	-13.076103	0.000598	5.975296	1.012243	-0.000060
1993	1.9820e+02	0.1749	-13.133539	0.000577	5.770663	0.977577	-0.000058
1994	1.9830e+02	0.1630	-13.190567	0.000573	5.729736	0.970644	-0.000057
1995	1.9840e+02	0.1539	-13.247594	0.000573	5.729736	0.970644	-0.000057
1996	1.9850e+02	0.1440	-13.309918	0.000626	6.261783	1.060775	-0.000063
1997	1.9860e+02	0.1342	-13.369390	0.000598	5.975296	1.012243	-0.000060
1998	1.9870e+02	0.1262	-13.426825	0.000577	5.770663	0.977577	-0.000058
1999	1.9880e+02	0.1145	-13.486297	0.000598	5.975296	1.012243	-0.000060
2000	1.9890e+02	0.1040	-13.544140	0.000581	5.811589	0.984510	-0.000058
2001	1.9900e+02	0.0961	-13.604427	0.000606	6.057149	1.026109	-0.000061
2002	1.9910e+02	0.0848	-13.657788	0.000536	5.361396	0.908245	-0.000054
2003	1.9920e+02	0.0758	-13.716853	0.000593	5.934369	1.005309	-0.000059
2004	1.9930e+02	0.0659	-13.777140	0.000606	6.057149	1.026109	-0.000061
2005	1.9940e+02	0.0529	-13.833760	0.000569	5.688809	0.963710	-0.000057
2006	1.9950e+02	0.0458	-13.891196	0.000577	5.770663	0.977577	-0.000058
2007	1.9960e+02	0.0391	-13.951482	0.000606	6.057149	1.026109	-0.000061
2008	1.9970e+02	0.0234	-14.008103	0.000569	5.688809	0.963710	-0.000057
2009	1.9980e+02	0.0163	-14.065946	0.000581	5.811589	0.984510	-0.000058
2010	1.9990e+02	0.0059	-14.127862	0.000622	6.220856	1.053842	-0.000062
2011	2.0000e+02	-0.0053	-14.184075	0.000622	6.220856	1.053842	-0.000056

PMax (uC/cm2):	4.23e+01
Pr (uC/cm2):	6.95e+00
-Pr (uC/cm2):	0.00e+00
PLoss (uC/cm2):	0.00e+00
C (Max-Eff) (nF):	4.23e-01
K (Eff):	7.17e+02
Vert. (+/-Pr) Shift (uC/cm2):	3.48e+00
Offset (uC/cm2):	2.11e+01

A (Loop Area - uC/cm2·Volts):	-6.92e-02



Hysteresis Version: 5.48.1 - Radiant Technologies, Inc., 1999 - 9/12/24

