»»»»»»»»»»»»»»»»»»»»»»»»»»»»»»»»»»»» Hysteresis ««««««««««««««««««««««««««««««««««««
»»»  Executed Version:	5.48.1
»»»  Vision Version:	5.48.4 (R)
»»»  Vision Compiled:	9/18/24
»»»  Driver Version:	5.47.0
»»»  Windows Version:	Windows 8 or 8.1
»»»  Processor Information:	x86 (AMD or Intel) - 32 Processors
»»»  Tester Name:	PMF21124-494 (100V)
»»»  Tester S/N:	PMF21124-494
»»»  Internal Amp Type:	100V RevK 270k
»»»  Internal Amp S/N:	iAB2-596/K     
»»»  Execution Count:	1
»»»»»»»»»»»»»»»»»»»»»»»»»»»»»»»»»»»»»»»»»»««««««««««««««««««««««««««««««««««««««««««

Stored:	6/30/2025 - 14:46:26
Configured:	06/30/25 10:19:58 AM
Executed:	06/30/25 02:45:43 PM

»»»»»»»»»»»»»»»»»»»»»»»»»»»»»»»»»»» Sample Info ««««««««««««««««««««««««««««««««««««
Sample Name:	
Lot Name:	
Wafer Name:	
Die Row/Column:	0/0
Capacitor Number:	0
Sample Area (cm2):	1.00e-04
Sample Thickness (microns):	1.50e-01

Amplifier:	Internal

»»»»»»»»»»»»»»»»»»»»»»»»»»»»»»»»»»» Tester Info «««««««««««««««««««««««««««««««««««
Tester Name:	PMF21124-494 (100V)
Tester Serial Number:	PMF21124-494
Return Signal Amp. Level:	1.9 [Index: 2]

»»»»»»»»»»»»»»»»»»»»»»»»»»»»»»»» Hysteresis Info ««««««««««««««««««««««««««««««««««
Task Name:	Hyst-1804
Volts:	10.00
Field:	666.67 (kV/cm)
DCBias:	0.00
DCField:	0.00 (kV/cm)
Hysteresis Period (ms):	2.00e+02
Preset:	Enabled
Preset Delay (ms):	1.00e+03
Profile:	Standard Monopolar

»»»»»»»»»»»»»»»»»»»»»»»»»»»»»»»»»»»»»» Data «««««««««««««««««««««««««««««««««««««««
Points:	2011

Valid Data

Point	Time (ms)	Drive Voltage	Measured Polarization (uC/cm2)	Capacitance (uF)	Normalized Capacitance (uF/cm2)	Dielectric Constant	Instantaneous Current (mA)
   1	0.0000e+00	-0.0079	-21.765331	0.000479	4.788532	0.811199	0.000048
   2	9.9500e-02	0.0054	-21.717672	0.000479	4.788532	0.811199	0.000048
   3	1.9900e-01	0.0141	-21.664717	0.000532	5.320591	0.901332	0.000053
   4	2.9850e-01	0.0242	-21.614207	0.000508	5.075025	0.859733	0.000051
   5	3.9800e-01	0.0362	-21.562067	0.000524	5.238736	0.887466	0.000052
   6	4.9750e-01	0.0441	-21.512371	0.000499	4.993170	0.845866	0.000050
   7	5.9700e-01	0.0546	-21.455751	0.000569	5.688939	0.963732	0.000057
   8	6.9650e-01	0.0637	-21.406462	0.000495	4.952242	0.838933	0.000050
   9	7.9600e-01	0.0755	-21.353915	0.000528	5.279663	0.894399	0.000053
  10	8.9550e-01	0.0861	-21.297294	0.000569	5.688939	0.963732	0.000057
  11	9.9500e-01	0.0949	-21.242303	0.000553	5.525229	0.935999	0.000055
  12	1.0945e+00	0.1057	-21.187312	0.000553	5.525229	0.935999	0.000055
  13	1.1940e+00	0.1128	-21.129877	0.000577	5.770795	0.977599	0.000058
  14	1.2935e+00	0.1253	-21.080995	0.000491	4.911315	0.831999	0.000049
  15	1.3930e+00	0.1347	-21.021931	0.000593	5.934505	1.005332	0.000059
  16	1.4925e+00	0.1450	-20.968976	0.000532	5.320591	0.901332	0.000053
  17	1.5920e+00	0.1537	-20.915614	0.000536	5.361518	0.908266	0.000054
  18	1.6915e+00	0.1662	-20.859401	0.000565	5.648012	0.956799	0.000056
  19	1.7910e+00	0.1746	-20.810113	0.000495	4.952242	0.838933	0.000050
  20	1.8905e+00	0.1842	-20.755529	0.000548	5.484301	0.929066	0.000055
  21	1.9900e+00	0.1950	-20.695242	0.000606	6.057288	1.026132	0.000061
  22	2.0895e+00	0.2038	-20.644324	0.000512	5.115953	0.866666	0.000051
  23	2.1890e+00	0.2148	-20.592184	0.000524	5.238736	0.887466	0.000052
  24	2.2885e+00	0.2248	-20.535564	0.000569	5.688939	0.963732	0.000057
  25	2.3880e+00	0.2351	-20.480165	0.000557	5.566157	0.942932	0.000056
  26	2.4875e+00	0.2451	-20.425581	0.000548	5.484301	0.929066	0.000055
  27	2.5870e+00	0.2557	-20.373441	0.000524	5.238736	0.887466	0.000052
  28	2.6865e+00	0.2659	-20.317228	0.000565	5.648012	0.956799	0.000056
  29	2.7860e+00	0.2752	-20.267532	0.000499	4.993170	0.845866	0.000050
  30	2.8855e+00	0.2850	-20.211726	0.000561	5.607084	0.949866	0.000056
  31	2.9850e+00	0.2947	-20.158365	0.000536	5.361518	0.908266	0.000054
  32	3.0845e+00	0.3031	-20.104188	0.000544	5.443374	0.922132	0.000054
  33	3.1840e+00	0.3111	-20.050826	0.000536	5.361518	0.908266	0.000054
  34	3.2835e+00	0.3237	-19.998279	0.000528	5.279663	0.894399	0.000053
  35	3.3830e+00	0.3354	-19.942473	0.000561	5.607084	0.949866	0.000056
  36	3.4825e+00	0.3437	-19.892777	0.000499	4.993170	0.845866	0.000050
  37	3.5820e+00	0.3541	-19.838193	0.000548	5.484301	0.929066	0.000055
  38	3.6815e+00	0.3634	-19.787275	0.000512	5.115953	0.866666	0.000051
  39	3.7810e+00	0.3725	-19.733914	0.000536	5.361518	0.908266	0.000054
  40	3.8805e+00	0.3800	-19.683403	0.000508	5.075025	0.859733	0.000051
  41	3.9800e+00	0.3954	-19.625968	0.000577	5.770795	0.977599	0.000058
  42	4.0795e+00	0.4051	-19.574643	0.000516	5.156880	0.873599	0.000052
  43	4.1790e+00	0.4152	-19.520059	0.000548	5.484301	0.929066	0.000055
  44	4.2785e+00	0.4240	-19.469141	0.000512	5.115953	0.866666	0.000051
  45	4.3780e+00	0.4353	-19.419445	0.000499	4.993170	0.845866	0.000050
  46	4.4775e+00	0.4431	-19.362417	0.000573	5.729867	0.970666	0.000057
  47	4.5770e+00	0.4533	-19.312721	0.000499	4.993170	0.845866	0.000050
  48	4.6765e+00	0.4628	-19.261396	0.000516	5.156880	0.873599	0.000052
  49	4.7760e+00	0.4723	-19.204776	0.000569	5.688939	0.963732	0.000057
  50	4.8755e+00	0.4856	-19.151821	0.000532	5.320591	0.901332	0.000053
  51	4.9750e+00	0.4899	-19.095608	0.000565	5.648012	0.956799	0.000056
  52	5.0745e+00	0.5036	-19.044283	0.000516	5.156880	0.873599	0.000052
  53	5.1740e+00	0.5128	-18.988884	0.000557	5.566157	0.942932	0.000056
  54	5.2735e+00	0.5214	-18.942854	0.000462	4.624821	0.783466	0.000046
  55	5.3730e+00	0.5350	-18.892344	0.000508	5.075025	0.859733	0.000051
  56	5.4725e+00	0.5466	-18.835316	0.000573	5.729867	0.970666	0.000057
  57	5.5720e+00	0.5529	-18.784398	0.000512	5.115953	0.866666	0.000051
  58	5.6715e+00	0.5631	-18.731444	0.000532	5.320591	0.901332	0.000053
  59	5.7710e+00	0.5733	-18.677674	0.000540	5.402446	0.915199	0.000054
  60	5.8705e+00	0.5844	-18.623090	0.000548	5.484301	0.929066	0.000055
  61	5.9700e+00	0.5931	-18.571765	0.000516	5.156880	0.873599	0.000052
  62	6.0695e+00	0.6026	-18.516367	0.000557	5.566157	0.942932	0.000056
  63	6.1690e+00	0.6140	-18.466671	0.000499	4.993170	0.845866	0.000050
  64	6.2685e+00	0.6223	-18.406792	0.000602	6.016360	1.019199	0.000060
  65	6.3680e+00	0.6332	-18.354244	0.000528	5.279663	0.894399	0.000053
  66	6.4675e+00	0.6418	-18.299660	0.000548	5.484301	0.929066	0.000055
  67	6.5670e+00	0.6501	-18.247928	0.000520	5.197808	0.880533	0.000052
  68	6.6665e+00	0.6619	-18.196195	0.000520	5.197808	0.880533	0.000052
  69	6.7660e+00	0.6718	-18.142426	0.000540	5.402446	0.915199	0.000054
  70	6.8655e+00	0.6828	-18.089064	0.000536	5.361518	0.908266	0.000054
  71	6.9650e+00	0.6934	-18.035295	0.000540	5.402446	0.915199	0.000054
  72	7.0645e+00	0.7021	-17.980711	0.000548	5.484301	0.929066	0.000055
  73	7.1640e+00	0.7084	-17.926535	0.000544	5.443374	0.922132	0.000054
  74	7.2635e+00	0.7203	-17.871543	0.000553	5.525229	0.935999	0.000055
  75	7.3630e+00	0.7315	-17.818996	0.000528	5.279663	0.894399	0.000053
  76	7.4625e+00	0.7417	-17.761561	0.000577	5.770795	0.977599	0.000058
  77	7.5620e+00	0.7492	-17.710236	0.000516	5.156880	0.873599	0.000052
  78	7.6615e+00	0.7608	-17.658096	0.000524	5.238736	0.887466	0.000052
  79	7.7610e+00	0.7725	-17.610844	0.000475	4.747604	0.804266	0.000047
  80	7.8605e+00	0.7819	-17.552594	0.000585	5.852650	0.991466	0.000059
  81	7.9600e+00	0.7897	-17.502898	0.000499	4.993170	0.845866	0.000050
  82	8.0595e+00	0.8019	-17.453203	0.000499	4.993170	0.845866	0.000050
  83	8.1590e+00	0.8131	-17.396175	0.000573	5.729867	0.970666	0.000057
  84	8.2585e+00	0.8225	-17.347701	0.000487	4.870387	0.825066	0.000049
  85	8.3580e+00	0.8299	-17.295561	0.000524	5.238736	0.887466	0.000052
  86	8.4575e+00	0.8411	-17.243421	0.000524	5.238736	0.887466	0.000052
  87	8.5570e+00	0.8498	-17.194133	0.000495	4.952242	0.838933	0.000050
  88	8.6565e+00	0.8599	-17.142400	0.000520	5.197808	0.880533	0.000052
  89	8.7560e+00	0.8723	-17.087002	0.000557	5.566157	0.942932	0.000056
  90	8.8555e+00	0.8805	-17.036491	0.000508	5.075025	0.859733	0.000051
  91	8.9550e+00	0.8886	-16.986795	0.000499	4.993170	0.845866	0.000050
  92	9.0545e+00	0.9004	-16.938729	0.000483	4.829459	0.818133	0.000048
  93	9.1540e+00	0.9114	-16.884960	0.000540	5.402446	0.915199	0.000054
  94	9.2535e+00	0.9206	-16.836486	0.000487	4.870387	0.825066	0.000049
  95	9.3530e+00	0.9325	-16.786790	0.000499	4.993170	0.845866	0.000050
  96	9.4525e+00	0.9418	-16.736280	0.000508	5.075025	0.859733	0.000051
  97	9.5520e+00	0.9508	-16.688621	0.000479	4.788532	0.811199	0.000048
  98	9.6515e+00	0.9644	-16.640147	0.000487	4.870387	0.825066	0.000049
  99	9.7510e+00	0.9721	-16.592080	0.000483	4.829459	0.818133	0.000048
 100	9.8505e+00	0.9831	-16.541977	0.000503	5.034098	0.852799	0.000050
 101	9.9500e+00	0.9916	-16.491060	0.000512	5.115953	0.866666	0.000051
 102	1.0050e+01	1.0017	-16.438512	0.000528	5.279663	0.894399	0.000053
 103	1.0149e+01	1.0119	-16.389224	0.000495	4.952242	0.838933	0.000050
 104	1.0248e+01	1.0187	-16.340750	0.000487	4.870387	0.825066	0.000049
 105	1.0348e+01	1.0310	-16.293498	0.000475	4.747604	0.804266	0.000047
 106	1.0447e+01	1.0387	-16.243395	0.000503	5.034098	0.852799	0.000050
 107	1.0547e+01	1.0517	-16.194921	0.000487	4.870387	0.825066	0.000049
 108	1.0646e+01	1.0589	-16.145226	0.000499	4.993170	0.845866	0.000050
 109	1.0746e+01	1.0671	-16.098381	0.000471	4.706677	0.797333	0.000047
 110	1.0845e+01	1.0825	-16.049908	0.000487	4.870387	0.825066	0.000049
 111	1.0945e+01	1.0921	-15.996953	0.000532	5.320591	0.901332	0.000053
 112	1.1044e+01	1.1000	-15.948479	0.000487	4.870387	0.825066	0.000049
 113	1.1144e+01	1.1131	-15.896339	0.000524	5.238736	0.887466	0.000052
 114	1.1243e+01	1.1191	-15.844200	0.000524	5.238736	0.887466	0.000052
 115	1.1343e+01	1.1310	-15.799392	0.000450	4.502038	0.762666	0.000045
 116	1.1443e+01	1.1394	-15.749289	0.000503	5.034098	0.852799	0.000050
 117	1.1542e+01	1.1508	-15.699593	0.000499	4.993170	0.845866	0.000050
 118	1.1642e+01	1.1623	-15.647860	0.000520	5.197808	0.880533	0.000052
 119	1.1741e+01	1.1706	-15.601016	0.000471	4.706677	0.797333	0.000047
 120	1.1841e+01	1.1805	-15.549284	0.000520	5.197808	0.880533	0.000052
 121	1.1940e+01	1.1892	-15.496329	0.000532	5.320591	0.901332	0.000053
 122	1.2040e+01	1.2012	-15.447855	0.000487	4.870387	0.825066	0.000049
 123	1.2139e+01	1.2097	-15.395308	0.000528	5.279663	0.894399	0.000053
 124	1.2239e+01	1.2207	-15.346834	0.000487	4.870387	0.825066	0.000049
 125	1.2338e+01	1.2287	-15.293880	0.000532	5.320591	0.901332	0.000053
 126	1.2438e+01	1.2399	-15.247850	0.000462	4.624821	0.783466	0.000046
 127	1.2537e+01	1.2512	-15.194896	0.000532	5.320591	0.901332	0.000053
 128	1.2636e+01	1.2577	-15.147644	0.000475	4.747604	0.804266	0.000047
 129	1.2736e+01	1.2711	-15.098355	0.000495	4.952242	0.838933	0.000050
 130	1.2835e+01	1.2786	-15.048660	0.000499	4.993170	0.845866	0.000050
 131	1.2935e+01	1.2894	-14.996520	0.000524	5.238736	0.887466	0.000052
 132	1.3034e+01	1.2993	-14.948453	0.000483	4.829459	0.818133	0.000048
 133	1.3134e+01	1.3082	-14.895091	0.000536	5.361518	0.908266	0.000054
 134	1.3233e+01	1.3174	-14.846210	0.000491	4.911315	0.831999	0.000049
 135	1.3333e+01	1.3312	-14.793663	0.000528	5.279663	0.894399	0.000053
 136	1.3432e+01	1.3359	-14.746411	0.000475	4.747604	0.804266	0.000047
 137	1.3532e+01	1.3474	-14.695086	0.000516	5.156880	0.873599	0.000052
 138	1.3632e+01	1.3618	-14.645390	0.000499	4.993170	0.845866	0.000050
 139	1.3731e+01	1.3671	-14.594880	0.000508	5.075025	0.859733	0.000051
 140	1.3831e+01	1.3760	-14.543147	0.000520	5.197808	0.880533	0.000052
 141	1.3930e+01	1.3885	-14.491008	0.000524	5.238736	0.887466	0.000052
 142	1.4030e+01	1.4015	-14.438460	0.000528	5.279663	0.894399	0.000053
 143	1.4129e+01	1.4079	-14.393653	0.000450	4.502038	0.762666	0.000045
 144	1.4229e+01	1.4196	-14.343550	0.000503	5.034098	0.852799	0.000050
 145	1.4328e+01	1.4299	-14.291002	0.000528	5.279663	0.894399	0.000053
 146	1.4428e+01	1.4402	-14.240085	0.000512	5.115953	0.866666	0.000051
 147	1.4527e+01	1.4470	-14.195277	0.000450	4.502038	0.762666	0.000045
 148	1.4627e+01	1.4603	-14.145988	0.000495	4.952242	0.838933	0.000050
 149	1.4726e+01	1.4695	-14.099144	0.000471	4.706677	0.797333	0.000047
 150	1.4825e+01	1.4764	-14.048634	0.000508	5.075025	0.859733	0.000051
 151	1.4925e+01	1.4900	-13.996086	0.000528	5.279663	0.894399	0.000053
 152	1.5024e+01	1.4970	-13.946391	0.000499	4.993170	0.845866	0.000050
 153	1.5124e+01	1.5064	-13.897917	0.000487	4.870387	0.825066	0.000049
 154	1.5223e+01	1.5146	-13.849443	0.000487	4.870387	0.825066	0.000049
 155	1.5323e+01	1.5269	-13.801377	0.000483	4.829459	0.818133	0.000048
 156	1.5422e+01	1.5388	-13.750866	0.000508	5.075025	0.859733	0.000051
 157	1.5522e+01	1.5485	-13.704836	0.000462	4.624821	0.783466	0.000046
 158	1.5621e+01	1.5571	-13.653104	0.000520	5.197808	0.880533	0.000052
 159	1.5721e+01	1.5666	-13.606667	0.000467	4.665749	0.790399	0.000047
 160	1.5820e+01	1.5777	-13.559415	0.000475	4.747604	0.804266	0.000047
 161	1.5920e+01	1.5874	-13.509719	0.000499	4.993170	0.845866	0.000050
 162	1.6020e+01	1.5975	-13.460838	0.000491	4.911315	0.831999	0.000049
 163	1.6119e+01	1.6085	-13.411142	0.000499	4.993170	0.845866	0.000050
 164	1.6218e+01	1.6139	-13.358595	0.000528	5.279663	0.894399	0.000053
 165	1.6318e+01	1.6309	-13.309714	0.000491	4.911315	0.831999	0.000049
 166	1.6418e+01	1.6369	-13.255945	0.000540	5.402446	0.915199	0.000054
 167	1.6517e+01	1.6470	-13.208286	0.000479	4.788532	0.811199	0.000048
 168	1.6616e+01	1.6569	-13.155739	0.000528	5.279663	0.894399	0.000053
 169	1.6716e+01	1.6655	-13.100340	0.000557	5.566157	0.942932	0.000056
 170	1.6816e+01	1.6772	-13.055125	0.000454	4.542966	0.769599	0.000045
 171	1.6915e+01	1.6834	-13.004207	0.000512	5.115953	0.866666	0.000051
 172	1.7015e+01	1.6970	-12.952882	0.000516	5.156880	0.873599	0.000052
 173	1.7114e+01	1.7068	-12.903594	0.000495	4.952242	0.838933	0.000050
 174	1.7213e+01	1.7173	-12.851861	0.000520	5.197808	0.880533	0.000052
 175	1.7313e+01	1.7270	-12.797685	0.000544	5.443374	0.922132	0.000054
 176	1.7413e+01	1.7398	-12.747174	0.000508	5.075025	0.859733	0.000051
 177	1.7512e+01	1.7477	-12.699515	0.000479	4.788532	0.811199	0.000048
 178	1.7611e+01	1.7582	-12.642487	0.000573	5.729867	0.970666	0.000057
 179	1.7711e+01	1.7676	-12.590755	0.000520	5.197808	0.880533	0.000052
 180	1.7811e+01	1.7770	-12.536171	0.000548	5.484301	0.929066	0.000055
 181	1.7910e+01	1.7846	-12.485660	0.000508	5.075025	0.859733	0.000051
 182	1.8009e+01	1.7939	-12.433520	0.000524	5.238736	0.887466	0.000052
 183	1.8109e+01	1.8066	-12.378122	0.000557	5.566157	0.942932	0.000056
 184	1.8209e+01	1.8182	-12.331277	0.000471	4.706677	0.797333	0.000047
 185	1.8308e+01	1.8249	-12.276693	0.000548	5.484301	0.929066	0.000055
 186	1.8407e+01	1.8372	-12.223739	0.000532	5.320591	0.901332	0.000053
 187	1.8507e+01	1.8451	-12.175673	0.000483	4.829459	0.818133	0.000048
 188	1.8607e+01	1.8560	-12.121496	0.000544	5.443374	0.922132	0.000054
 189	1.8706e+01	1.8655	-12.069763	0.000520	5.197808	0.880533	0.000052
 190	1.8805e+01	1.8763	-12.017624	0.000524	5.238736	0.887466	0.000052
 191	1.8905e+01	1.8884	-11.963447	0.000544	5.443374	0.922132	0.000054
 192	1.9005e+01	1.8976	-11.911715	0.000520	5.197808	0.880533	0.000052
 193	1.9104e+01	1.9097	-11.859575	0.000524	5.238736	0.887466	0.000052
 194	1.9203e+01	1.9139	-11.811916	0.000479	4.788532	0.811199	0.000048
 195	1.9303e+01	1.9270	-11.756517	0.000557	5.566157	0.942932	0.000056
 196	1.9402e+01	1.9355	-11.703970	0.000528	5.279663	0.894399	0.000053
 197	1.9502e+01	1.9487	-11.657940	0.000462	4.624821	0.783466	0.000046
 198	1.9602e+01	1.9564	-11.606615	0.000516	5.156880	0.873599	0.000052
 199	1.9701e+01	1.9611	-11.557327	0.000495	4.952242	0.838933	0.000050
 200	1.9800e+01	1.9747	-11.505187	0.000524	5.238736	0.887466	0.000052
 201	1.9900e+01	1.9855	-11.458750	0.000467	4.665749	0.790399	0.000047
 202	2.0000e+01	1.9955	-11.404166	0.000548	5.484301	0.929066	0.000055
 203	2.0099e+01	2.0047	-11.355692	0.000487	4.870387	0.825066	0.000049
 204	2.0198e+01	2.0165	-11.305589	0.000503	5.034098	0.852799	0.000050
 205	2.0298e+01	2.0245	-11.257930	0.000479	4.788532	0.811199	0.000048
 206	2.0398e+01	2.0340	-11.207419	0.000508	5.075025	0.859733	0.000051
 207	2.0497e+01	2.0455	-11.155687	0.000520	5.197808	0.880533	0.000052
 208	2.0596e+01	2.0575	-11.108842	0.000471	4.706677	0.797333	0.000047
 209	2.0696e+01	2.0661	-11.058739	0.000503	5.034098	0.852799	0.000050
 210	2.0796e+01	2.0744	-11.011080	0.000479	4.788532	0.811199	0.000048
 211	2.0895e+01	2.0889	-10.957718	0.000536	5.361518	0.908266	0.000054
 212	2.0994e+01	2.0937	-10.910059	0.000479	4.788532	0.811199	0.000048
 213	2.1094e+01	2.1042	-10.858327	0.000520	5.197808	0.880533	0.000052
 214	2.1194e+01	2.1151	-10.810668	0.000479	4.788532	0.811199	0.000048
 215	2.1293e+01	2.1246	-10.759750	0.000512	5.115953	0.866666	0.000051
 216	2.1392e+01	2.1362	-10.710869	0.000491	4.911315	0.831999	0.000049
 217	2.1492e+01	2.1455	-10.661173	0.000499	4.993170	0.845866	0.000050
 218	2.1591e+01	2.1523	-10.609848	0.000516	5.156880	0.873599	0.000052
 219	2.1691e+01	2.1661	-10.563818	0.000462	4.624821	0.783466	0.000046
 220	2.1791e+01	2.1739	-10.512493	0.000516	5.156880	0.873599	0.000052
 221	2.1890e+01	2.1847	-10.463204	0.000495	4.952242	0.838933	0.000050
 222	2.1989e+01	2.1938	-10.416767	0.000467	4.665749	0.790399	0.000047
 223	2.2089e+01	2.2054	-10.366664	0.000503	5.034098	0.852799	0.000050
 224	2.2189e+01	2.2146	-10.319005	0.000479	4.788532	0.811199	0.000048
 225	2.2288e+01	2.2228	-10.270531	0.000487	4.870387	0.825066	0.000049
 226	2.2387e+01	2.2353	-10.220428	0.000503	5.034098	0.852799	0.000050
 227	2.2487e+01	2.2437	-10.171547	0.000491	4.911315	0.831999	0.000049
 228	2.2587e+01	2.2528	-10.121444	0.000503	5.034098	0.852799	0.000050
 229	2.2686e+01	2.2613	-10.070934	0.000508	5.075025	0.859733	0.000051
 230	2.2785e+01	2.2747	-10.021238	0.000499	4.993170	0.845866	0.000050
 231	2.2885e+01	2.2851	-9.970727	0.000508	5.075025	0.859733	0.000051
 232	2.2985e+01	2.2912	-9.921439	0.000495	4.952242	0.838933	0.000050
 233	2.3084e+01	2.3026	-9.876224	0.000454	4.542966	0.769599	0.000045
 234	2.3183e+01	2.3133	-9.820011	0.000565	5.648012	0.956799	0.000056
 235	2.3283e+01	2.3251	-9.776018	0.000442	4.420183	0.748799	0.000044
 236	2.3383e+01	2.3326	-9.725100	0.000512	5.115953	0.866666	0.000051
 237	2.3482e+01	2.3437	-9.677033	0.000483	4.829459	0.818133	0.000048
 238	2.3581e+01	2.3547	-9.625708	0.000516	5.156880	0.873599	0.000052
 239	2.3681e+01	2.3638	-9.580493	0.000454	4.542966	0.769599	0.000045
 240	2.3780e+01	2.3717	-9.527946	0.000528	5.279663	0.894399	0.000053
 241	2.3880e+01	2.3829	-9.475399	0.000528	5.279663	0.894399	0.000053
 242	2.3980e+01	2.3961	-9.425703	0.000499	4.993170	0.845866	0.000050
 243	2.4079e+01	2.4044	-9.378859	0.000471	4.706677	0.797333	0.000047
 244	2.4178e+01	2.4139	-9.329977	0.000491	4.911315	0.831999	0.000049
 245	2.4278e+01	2.4247	-9.277430	0.000528	5.279663	0.894399	0.000053
 246	2.4378e+01	2.4359	-9.235067	0.000426	4.256473	0.721066	0.000043
 247	2.4477e+01	2.4426	-9.181297	0.000540	5.402446	0.915199	0.000054
 248	2.4576e+01	2.4508	-9.138119	0.000434	4.338328	0.734933	0.000043
 249	2.4676e+01	2.4654	-9.090053	0.000483	4.829459	0.818133	0.000048
 250	2.4776e+01	2.4720	-9.046060	0.000442	4.420183	0.748799	0.000044
 251	2.4875e+01	2.4813	-8.995549	0.000508	5.075025	0.859733	0.000051
 252	2.4974e+01	2.4937	-8.949520	0.000462	4.624821	0.783466	0.000046
 253	2.5074e+01	2.5027	-8.902268	0.000475	4.747604	0.804266	0.000047
 254	2.5174e+01	2.5130	-8.858682	0.000438	4.379256	0.741866	0.000044
 255	2.5273e+01	2.5235	-8.813060	0.000458	4.583894	0.776533	0.000046
 256	2.5372e+01	2.5321	-8.763771	0.000495	4.952242	0.838933	0.000050
 257	2.5472e+01	2.5385	-8.721815	0.000422	4.215545	0.714133	0.000042
 258	2.5572e+01	2.5521	-8.669675	0.000524	5.238736	0.887466	0.000052
 259	2.5671e+01	2.5626	-8.622831	0.000471	4.706677	0.797333	0.000047
 260	2.5770e+01	2.5742	-8.580060	0.000430	4.297400	0.727999	0.000043
 261	2.5870e+01	2.5809	-8.533215	0.000471	4.706677	0.797333	0.000047
 262	2.5970e+01	2.5958	-8.485556	0.000479	4.788532	0.811199	0.000048
 263	2.6069e+01	2.6042	-8.447674	0.000381	3.806269	0.644799	0.000038
 264	2.6169e+01	2.6131	-8.399200	0.000487	4.870387	0.825066	0.000049
 265	2.6268e+01	2.6213	-8.354799	0.000446	4.461111	0.755733	0.000045
 266	2.6367e+01	2.6339	-8.312843	0.000422	4.215545	0.714133	0.000042
 267	2.6467e+01	2.6440	-8.269665	0.000434	4.338328	0.734933	0.000043
 268	2.6567e+01	2.6556	-8.224042	0.000458	4.583894	0.776533	0.000046
 269	2.6666e+01	2.6612	-8.177605	0.000467	4.665749	0.790399	0.000047
 270	2.6765e+01	2.6727	-8.135242	0.000426	4.256473	0.721066	0.000043
 271	2.6865e+01	2.6815	-8.088805	0.000467	4.665749	0.790399	0.000047
 272	2.6965e+01	2.6932	-8.046848	0.000422	4.215545	0.714133	0.000042
 273	2.7064e+01	2.7033	-8.003263	0.000438	4.379256	0.741866	0.000044
 274	2.7163e+01	2.7105	-7.958048	0.000454	4.542966	0.769599	0.000045
 275	2.7263e+01	2.7248	-7.916091	0.000422	4.215545	0.714133	0.000042
 276	2.7363e+01	2.7317	-7.873321	0.000430	4.297400	0.727999	0.000043
 277	2.7462e+01	2.7420	-7.827698	0.000458	4.583894	0.776533	0.000046
 278	2.7561e+01	2.7534	-7.781261	0.000467	4.665749	0.790399	0.000047
 279	2.7661e+01	2.7637	-7.736861	0.000446	4.461111	0.755733	0.000045
 280	2.7761e+01	2.7700	-7.692460	0.000446	4.461111	0.755733	0.000045
 281	2.7860e+01	2.7796	-7.652134	0.000405	4.051835	0.686399	0.000041
 282	2.7959e+01	2.7908	-7.604474	0.000479	4.788532	0.811199	0.000048
 283	2.8059e+01	2.8008	-7.558852	0.000458	4.583894	0.776533	0.000046
 284	2.8159e+01	2.8139	-7.513230	0.000458	4.583894	0.776533	0.000046
 285	2.8258e+01	2.8239	-7.466793	0.000467	4.665749	0.790399	0.000047
 286	2.8358e+01	2.8310	-7.425244	0.000417	4.174617	0.707199	0.000042
 287	2.8457e+01	2.8404	-7.380843	0.000446	4.461111	0.755733	0.000045
 288	2.8556e+01	2.8532	-7.338072	0.000430	4.297400	0.727999	0.000043
 289	2.8656e+01	2.8609	-7.291635	0.000467	4.665749	0.790399	0.000047
 290	2.8756e+01	2.8714	-7.245198	0.000467	4.665749	0.790399	0.000047
 291	2.8855e+01	2.8825	-7.201205	0.000442	4.420183	0.748799	0.000044
 292	2.8954e+01	2.8912	-7.154361	0.000471	4.706677	0.797333	0.000047
 293	2.9054e+01	2.9016	-7.110368	0.000442	4.420183	0.748799	0.000044
 294	2.9154e+01	2.9106	-7.064746	0.000458	4.583894	0.776533	0.000046
 295	2.9253e+01	2.9208	-7.019938	0.000450	4.502038	0.762666	0.000045
 296	2.9352e+01	2.9319	-6.973501	0.000467	4.665749	0.790399	0.000047
 297	2.9452e+01	2.9406	-6.931952	0.000417	4.174617	0.707199	0.000042
 298	2.9552e+01	2.9522	-6.886737	0.000454	4.542966	0.769599	0.000045
 299	2.9651e+01	2.9588	-6.841929	0.000450	4.502038	0.762666	0.000045
 300	2.9750e+01	2.9684	-6.797936	0.000442	4.420183	0.748799	0.000044
 301	2.9850e+01	2.9811	-6.751092	0.000471	4.706677	0.797333	0.000047
 302	2.9950e+01	2.9917	-6.704655	0.000467	4.665749	0.790399	0.000047
 303	3.0049e+01	3.0025	-6.666772	0.000381	3.806269	0.644799	0.000038
 304	3.0148e+01	3.0128	-6.614225	0.000528	5.279663	0.894399	0.000053
 305	3.0248e+01	3.0244	-6.571046	0.000434	4.338328	0.734933	0.000043
 306	3.0348e+01	3.0303	-6.525424	0.000458	4.583894	0.776533	0.000046
 307	3.0447e+01	3.0408	-6.482653	0.000430	4.297400	0.727999	0.000043
 308	3.0547e+01	3.0506	-6.437845	0.000450	4.502038	0.762666	0.000045
 309	3.0646e+01	3.0633	-6.392630	0.000454	4.542966	0.769599	0.000045
 310	3.0745e+01	3.0715	-6.348637	0.000442	4.420183	0.748799	0.000044
 311	3.0845e+01	3.0818	-6.303422	0.000454	4.542966	0.769599	0.000045
 312	3.0945e+01	3.0910	-6.261059	0.000426	4.256473	0.721066	0.000043
 313	3.1044e+01	3.0986	-6.216251	0.000450	4.502038	0.762666	0.000045
 314	3.1143e+01	3.1079	-6.173887	0.000426	4.256473	0.721066	0.000043
 315	3.1243e+01	3.1196	-6.130709	0.000434	4.338328	0.734933	0.000043
 316	3.1343e+01	3.1291	-6.088345	0.000426	4.256473	0.721066	0.000043
 317	3.1442e+01	3.1401	-6.045167	0.000434	4.338328	0.734933	0.000043
 318	3.1541e+01	3.1499	-6.001581	0.000438	4.379256	0.741866	0.000044
 319	3.1641e+01	3.1612	-5.956774	0.000450	4.502038	0.762666	0.000045
 320	3.1741e+01	3.1709	-5.916854	0.000401	4.010907	0.679466	0.000040
 321	3.1840e+01	3.1789	-5.870825	0.000462	4.624821	0.783466	0.000046
 322	3.1939e+01	3.1908	-5.828054	0.000430	4.297400	0.727999	0.000043
 323	3.2039e+01	3.1963	-5.785283	0.000430	4.297400	0.727999	0.000043
 324	3.2139e+01	3.2092	-5.743734	0.000417	4.174617	0.707199	0.000042
 325	3.2238e+01	3.2214	-5.702999	0.000409	4.092762	0.693333	0.000041
 326	3.2337e+01	3.2296	-5.657377	0.000458	4.583894	0.776533	0.000046
 327	3.2437e+01	3.2389	-5.614199	0.000434	4.338328	0.734933	0.000043
 328	3.2536e+01	3.2520	-5.571020	0.000434	4.338328	0.734933	0.000043
 329	3.2636e+01	3.2643	-5.527435	0.000438	4.379256	0.741866	0.000044
 330	3.2736e+01	3.2708	-5.482220	0.000454	4.542966	0.769599	0.000045
 331	3.2835e+01	3.2787	-5.440263	0.000422	4.215545	0.714133	0.000042
 332	3.2934e+01	3.2885	-5.395048	0.000454	4.542966	0.769599	0.000045
 333	3.3034e+01	3.3001	-5.351055	0.000442	4.420183	0.748799	0.000044
 334	3.3133e+01	3.3099	-5.303804	0.000475	4.747604	0.804266	0.000047
 335	3.3233e+01	3.3176	-5.259811	0.000442	4.420183	0.748799	0.000044
 336	3.3333e+01	3.3288	-5.215410	0.000446	4.461111	0.755733	0.000045
 337	3.3432e+01	3.3364	-5.173861	0.000417	4.174617	0.707199	0.000042
 338	3.3532e+01	3.3491	-5.127424	0.000467	4.665749	0.790399	0.000047
 339	3.3631e+01	3.3585	-5.082617	0.000450	4.502038	0.762666	0.000045
 340	3.3730e+01	3.3694	-5.039031	0.000438	4.379256	0.741866	0.000044
 341	3.3830e+01	3.3784	-4.994631	0.000446	4.461111	0.755733	0.000045
 342	3.3929e+01	3.3901	-4.951045	0.000438	4.379256	0.741866	0.000044
 343	3.4029e+01	3.3987	-4.906237	0.000450	4.502038	0.762666	0.000045
 344	3.4129e+01	3.4097	-4.856949	0.000495	4.952242	0.838933	0.000050
 345	3.4228e+01	3.4176	-4.812141	0.000450	4.502038	0.762666	0.000045
 346	3.4328e+01	3.4286	-4.762038	0.000503	5.034098	0.852799	0.000050
 347	3.4427e+01	3.4388	-4.719674	0.000426	4.256473	0.721066	0.000043
 348	3.4526e+01	3.4489	-4.671201	0.000487	4.870387	0.825066	0.000049
 349	3.4626e+01	3.4583	-4.624356	0.000471	4.706677	0.797333	0.000047
 350	3.4725e+01	3.4702	-4.579549	0.000450	4.502038	0.762666	0.000045
 351	3.4825e+01	3.4795	-4.533519	0.000462	4.624821	0.783466	0.000046
 352	3.4925e+01	3.4894	-4.487082	0.000467	4.665749	0.790399	0.000047
 353	3.5024e+01	3.4975	-4.441460	0.000458	4.583894	0.776533	0.000046
 354	3.5123e+01	3.5094	-4.395837	0.000458	4.583894	0.776533	0.000046
 355	3.5223e+01	3.5165	-4.348585	0.000475	4.747604	0.804266	0.000047
 356	3.5322e+01	3.5281	-4.304185	0.000446	4.461111	0.755733	0.000045
 357	3.5422e+01	3.5381	-4.257341	0.000471	4.706677	0.797333	0.000047
 358	3.5522e+01	3.5516	-4.210089	0.000475	4.747604	0.804266	0.000047
 359	3.5621e+01	3.5564	-4.164467	0.000458	4.583894	0.776533	0.000046
 360	3.5721e+01	3.5686	-4.122510	0.000422	4.215545	0.714133	0.000042
 361	3.5820e+01	3.5798	-4.073222	0.000495	4.952242	0.838933	0.000050
 362	3.5919e+01	3.5902	-4.028822	0.000446	4.461111	0.755733	0.000045
 363	3.6019e+01	3.5983	-3.985643	0.000434	4.338328	0.734933	0.000043
 364	3.6118e+01	3.6087	-3.940021	0.000458	4.583894	0.776533	0.000046
 365	3.6218e+01	3.6182	-3.897250	0.000430	4.297400	0.727999	0.000043
 366	3.6318e+01	3.6309	-3.850405	0.000471	4.706677	0.797333	0.000047
 367	3.6417e+01	3.6361	-3.806820	0.000438	4.379256	0.741866	0.000044
 368	3.6517e+01	3.6455	-3.761605	0.000454	4.542966	0.769599	0.000045
 369	3.6616e+01	3.6557	-3.718426	0.000434	4.338328	0.734933	0.000043
 370	3.6715e+01	3.6657	-3.678914	0.000397	3.969979	0.672533	0.000040
 371	3.6815e+01	3.6802	-3.634107	0.000450	4.502038	0.762666	0.000045
 372	3.6914e+01	3.6898	-3.593372	0.000409	4.092762	0.693333	0.000041
 373	3.7014e+01	3.6982	-3.546528	0.000471	4.706677	0.797333	0.000047
 374	3.7114e+01	3.7041	-3.504164	0.000426	4.256473	0.721066	0.000043
 375	3.7213e+01	3.7176	-3.460171	0.000442	4.420183	0.748799	0.000044
 376	3.7313e+01	3.7256	-3.420659	0.000397	3.969979	0.672533	0.000040
 377	3.7412e+01	3.7345	-3.376259	0.000446	4.461111	0.755733	0.000045
 378	3.7511e+01	3.7466	-3.331858	0.000446	4.461111	0.755733	0.000045
 379	3.7611e+01	3.7576	-3.289087	0.000430	4.297400	0.727999	0.000043
 380	3.7711e+01	3.7681	-3.246724	0.000426	4.256473	0.721066	0.000043
 381	3.7810e+01	3.7772	-3.199472	0.000475	4.747604	0.804266	0.000047
 382	3.7910e+01	3.7843	-3.158738	0.000409	4.092762	0.693333	0.000041
 383	3.8009e+01	3.7960	-3.111079	0.000479	4.788532	0.811199	0.000048
 384	3.8108e+01	3.8072	-3.071974	0.000393	3.929052	0.665599	0.000039
 385	3.8208e+01	3.8174	-3.027981	0.000442	4.420183	0.748799	0.000044
 386	3.8307e+01	3.8239	-2.988061	0.000401	4.010907	0.679466	0.000040
 387	3.8407e+01	3.8348	-2.947327	0.000409	4.092762	0.693333	0.000041
 388	3.8507e+01	3.8477	-2.899668	0.000479	4.788532	0.811199	0.000048
 389	3.8606e+01	3.8580	-2.858934	0.000409	4.092762	0.693333	0.000041
 390	3.8706e+01	3.8667	-2.815755	0.000434	4.338328	0.734933	0.000043
 391	3.8805e+01	3.8757	-2.775021	0.000409	4.092762	0.693333	0.000041
 392	3.8904e+01	3.8850	-2.730213	0.000450	4.502038	0.762666	0.000045
 393	3.9004e+01	3.8980	-2.688257	0.000422	4.215545	0.714133	0.000042
 394	3.9103e+01	3.9068	-2.643857	0.000446	4.461111	0.755733	0.000045
 395	3.9203e+01	3.9155	-2.602308	0.000417	4.174617	0.707199	0.000042
 396	3.9303e+01	3.9236	-2.556686	0.000458	4.583894	0.776533	0.000046
 397	3.9402e+01	3.9339	-2.513915	0.000430	4.297400	0.727999	0.000043
 398	3.9502e+01	3.9468	-2.472366	0.000417	4.174617	0.707199	0.000042
 399	3.9601e+01	3.9547	-2.425114	0.000475	4.747604	0.804266	0.000047
 400	3.9700e+01	3.9645	-2.383565	0.000417	4.174617	0.707199	0.000042
 401	3.9800e+01	3.9748	-2.340387	0.000434	4.338328	0.734933	0.000043
 402	3.9900e+01	3.9846	-2.297616	0.000430	4.297400	0.727999	0.000043
 403	3.9999e+01	3.9931	-2.256067	0.000417	4.174617	0.707199	0.000042
 404	4.0099e+01	4.0044	-2.210444	0.000458	4.583894	0.776533	0.000046
 405	4.0198e+01	4.0148	-2.170117	0.000405	4.051835	0.686399	0.000041
 406	4.0297e+01	4.0250	-2.127346	0.000430	4.297400	0.727999	0.000043
 407	4.0397e+01	4.0343	-2.082946	0.000446	4.461111	0.755733	0.000045
 408	4.0496e+01	4.0449	-2.038138	0.000450	4.502038	0.762666	0.000045
 409	4.0596e+01	4.0540	-1.993331	0.000450	4.502038	0.762666	0.000045
 410	4.0696e+01	4.0633	-1.953004	0.000405	4.051835	0.686399	0.000041
 411	4.0795e+01	4.0747	-1.908604	0.000446	4.461111	0.755733	0.000045
 412	4.0895e+01	4.0839	-1.866240	0.000426	4.256473	0.721066	0.000043
 413	4.0994e+01	4.0948	-1.822654	0.000438	4.379256	0.741866	0.000044
 414	4.1093e+01	4.1041	-1.783957	0.000389	3.888124	0.658666	0.000039
 415	4.1193e+01	4.1143	-1.743630	0.000405	4.051835	0.686399	0.000041
 416	4.1292e+01	4.1271	-1.702896	0.000409	4.092762	0.693333	0.000041
 417	4.1392e+01	4.1354	-1.662569	0.000405	4.051835	0.686399	0.000041
 418	4.1492e+01	4.1433	-1.621020	0.000417	4.174617	0.707199	0.000042
 419	4.1591e+01	4.1550	-1.579878	0.000413	4.133690	0.700266	0.000041
 420	4.1691e+01	4.1667	-1.537107	0.000430	4.297400	0.727999	0.000043
 421	4.1790e+01	4.1756	-1.497188	0.000401	4.010907	0.679466	0.000040
 422	4.1889e+01	4.1851	-1.456861	0.000405	4.051835	0.686399	0.000041
 423	4.1989e+01	4.1961	-1.414497	0.000426	4.256473	0.721066	0.000043
 424	4.2089e+01	4.2049	-1.375392	0.000393	3.929052	0.665599	0.000039
 425	4.2188e+01	4.2149	-1.333843	0.000417	4.174617	0.707199	0.000042
 426	4.2288e+01	4.2253	-1.294738	0.000393	3.929052	0.665599	0.000039
 427	4.2387e+01	4.2388	-1.253597	0.000413	4.133690	0.700266	0.000041
 428	4.2486e+01	4.2484	-1.215307	0.000385	3.847196	0.651733	0.000038
 429	4.2586e+01	4.2554	-1.175794	0.000397	3.969979	0.672533	0.000040
 430	4.2685e+01	4.2660	-1.141170	0.000348	3.478848	0.589333	0.000035
 431	4.2785e+01	4.2731	-1.100436	0.000409	4.092762	0.693333	0.000041
 432	4.2885e+01	4.2847	-1.063368	0.000372	3.724414	0.630933	0.000037
 433	4.2984e+01	4.2948	-1.025892	0.000377	3.765341	0.637866	0.000038
 434	4.3084e+01	4.3023	-0.984343	0.000417	4.174617	0.707199	0.000042
 435	4.3183e+01	4.3151	-0.950127	0.000344	3.437920	0.582399	0.000034
 436	4.3282e+01	4.3238	-0.908985	0.000413	4.133690	0.700266	0.000041
 437	4.3382e+01	4.3334	-0.871509	0.000377	3.765341	0.637866	0.000038
 438	4.3481e+01	4.3442	-0.832405	0.000393	3.929052	0.665599	0.000039
 439	4.3581e+01	4.3537	-0.793707	0.000389	3.888124	0.658666	0.000039
 440	4.3681e+01	4.3668	-0.758268	0.000356	3.560703	0.603199	0.000036
 441	4.3780e+01	4.3740	-0.719163	0.000393	3.929052	0.665599	0.000039
 442	4.3880e+01	4.3884	-0.682910	0.000364	3.642558	0.617066	0.000036
 443	4.3979e+01	4.3945	-0.644620	0.000385	3.847196	0.651733	0.000038
 444	4.4078e+01	4.4036	-0.607551	0.000372	3.724414	0.630933	0.000037
 445	4.4178e+01	4.4161	-0.570076	0.000377	3.765341	0.637866	0.000038
 446	4.4278e+01	4.4252	-0.531786	0.000385	3.847196	0.651733	0.000038
 447	4.4377e+01	4.4326	-0.491051	0.000409	4.092762	0.693333	0.000041
 448	4.4477e+01	4.4433	-0.454391	0.000368	3.683486	0.623999	0.000037
 449	4.4576e+01	4.4531	-0.411212	0.000434	4.338328	0.734933	0.000043
 450	4.4675e+01	4.4616	-0.377403	0.000340	3.396993	0.575466	0.000034
 451	4.4775e+01	4.4756	-0.337076	0.000405	4.051835	0.686399	0.000041
 452	4.4874e+01	4.4822	-0.300822	0.000364	3.642558	0.617066	0.000036
 453	4.4974e+01	4.4929	-0.259274	0.000417	4.174617	0.707199	0.000042
 454	4.5074e+01	4.5016	-0.223427	0.000360	3.601631	0.610133	0.000036
 455	4.5173e+01	4.5148	-0.185137	0.000385	3.847196	0.651733	0.000038
 456	4.5273e+01	4.5222	-0.143996	0.000413	4.133690	0.700266	0.000041
 457	4.5372e+01	4.5345	-0.105705	0.000385	3.847196	0.651733	0.000038
 458	4.5471e+01	4.5399	-0.068637	0.000372	3.724414	0.630933	0.000037
 459	4.5571e+01	4.5543	-0.028310	0.000405	4.051835	0.686399	0.000041
 460	4.5670e+01	4.5621	0.008351	0.000368	3.683486	0.623999	0.000037
 461	4.5770e+01	4.5742	0.052751	0.000446	4.461111	0.755733	0.000045
 462	4.5870e+01	4.5820	0.086560	0.000340	3.396993	0.575466	0.000034
 463	4.5969e+01	4.5915	0.127702	0.000413	4.133690	0.700266	0.000041
 464	4.6069e+01	4.6002	0.165992	0.000385	3.847196	0.651733	0.000038
 465	4.6168e+01	4.6117	0.205097	0.000393	3.929052	0.665599	0.000039
 466	4.6267e+01	4.6203	0.244609	0.000397	3.969979	0.672533	0.000040
 467	4.6367e+01	4.6313	0.280455	0.000360	3.601631	0.610133	0.000036
 468	4.6467e+01	4.6430	0.320782	0.000405	4.051835	0.686399	0.000041
 469	4.6566e+01	4.6513	0.364368	0.000438	4.379256	0.741866	0.000044
 470	4.6666e+01	4.6610	0.397363	0.000332	3.315137	0.561599	0.000033
 471	4.6765e+01	4.6741	0.439319	0.000422	4.215545	0.714133	0.000042
 472	4.6864e+01	4.6815	0.476387	0.000372	3.724414	0.630933	0.000037
 473	4.6964e+01	4.6898	0.515899	0.000397	3.969979	0.672533	0.000040
 474	4.7063e+01	4.7025	0.558670	0.000430	4.297400	0.727999	0.000043
 475	4.7163e+01	4.7117	0.596146	0.000377	3.765341	0.637866	0.000038
 476	4.7263e+01	4.7223	0.633214	0.000372	3.724414	0.630933	0.000037
 477	4.7362e+01	4.7356	0.667838	0.000348	3.478848	0.589333	0.000035
 478	4.7462e+01	4.7427	0.708980	0.000413	4.133690	0.700266	0.000041
 479	4.7561e+01	4.7530	0.749307	0.000405	4.051835	0.686399	0.000041
 480	4.7660e+01	4.7610	0.785153	0.000360	3.601631	0.610133	0.000036
 481	4.7760e+01	4.7727	0.820999	0.000360	3.601631	0.610133	0.000036
 482	4.7859e+01	4.7851	0.856845	0.000360	3.601631	0.610133	0.000036
 483	4.7959e+01	4.7913	0.898394	0.000417	4.174617	0.707199	0.000042
 484	4.8059e+01	4.8036	0.932203	0.000340	3.396993	0.575466	0.000034
 485	4.8158e+01	4.8107	0.971308	0.000393	3.929052	0.665599	0.000039
 486	4.8258e+01	4.8228	1.005932	0.000348	3.478848	0.589333	0.000035
 487	4.8357e+01	4.8290	1.047481	0.000417	4.174617	0.707199	0.000042
 488	4.8456e+01	4.8408	1.084142	0.000368	3.683486	0.623999	0.000037
 489	4.8556e+01	4.8499	1.120803	0.000368	3.683486	0.623999	0.000037
 490	4.8656e+01	4.8621	1.159501	0.000389	3.888124	0.658666	0.000039
 491	4.8755e+01	4.8731	1.194532	0.000352	3.519775	0.596266	0.000035
 492	4.8855e+01	4.8821	1.230378	0.000360	3.601631	0.610133	0.000036
 493	4.8954e+01	4.8922	1.267446	0.000372	3.724414	0.630933	0.000037
 494	4.9053e+01	4.9004	1.304515	0.000372	3.724414	0.630933	0.000037
 495	4.9153e+01	4.9093	1.343619	0.000393	3.929052	0.665599	0.000039
 496	4.9252e+01	4.9210	1.379873	0.000364	3.642558	0.617066	0.000036
 497	4.9352e+01	4.9293	1.416534	0.000368	3.683486	0.623999	0.000037
 498	4.9452e+01	4.9412	1.456453	0.000401	4.010907	0.679466	0.000040
 499	4.9551e+01	4.9499	1.495966	0.000397	3.969979	0.672533	0.000040
 500	4.9651e+01	4.9627	1.534256	0.000385	3.847196	0.651733	0.000038
 501	4.9750e+01	4.9723	1.572546	0.000385	3.847196	0.651733	0.000038
 502	4.9849e+01	4.9809	1.612873	0.000405	4.051835	0.686399	0.000041
 503	4.9949e+01	4.9911	1.650756	0.000381	3.806269	0.644799	0.000038
 504	5.0048e+01	5.0022	1.691083	0.000405	4.051835	0.686399	0.000041
 505	5.0148e+01	5.0105	1.729780	0.000389	3.888124	0.658666	0.000039
 506	5.0248e+01	5.0228	1.768885	0.000393	3.929052	0.665599	0.000039
 507	5.0347e+01	5.0304	1.806361	0.000377	3.765341	0.637866	0.000038
 508	5.0447e+01	5.0388	1.845058	0.000389	3.888124	0.658666	0.000039
 509	5.0546e+01	5.0512	1.880497	0.000356	3.560703	0.603199	0.000036
 510	5.0645e+01	5.0622	1.921638	0.000413	4.133690	0.700266	0.000041
 511	5.0745e+01	5.0706	1.958299	0.000368	3.683486	0.623999	0.000037
 512	5.0844e+01	5.0805	1.999441	0.000413	4.133690	0.700266	0.000041
 513	5.0944e+01	5.0867	2.041397	0.000422	4.215545	0.714133	0.000042
 514	5.1044e+01	5.1022	2.085390	0.000442	4.420183	0.748799	0.000044
 515	5.1143e+01	5.1124	2.124495	0.000393	3.929052	0.665599	0.000039
 516	5.1242e+01	5.1217	2.166044	0.000417	4.174617	0.707199	0.000042
 517	5.1342e+01	5.1295	2.208408	0.000426	4.256473	0.721066	0.000043
 518	5.1441e+01	5.1415	2.249957	0.000417	4.174617	0.707199	0.000042
 519	5.1541e+01	5.1516	2.287432	0.000377	3.765341	0.637866	0.000038
 520	5.1641e+01	5.1613	2.328166	0.000409	4.092762	0.693333	0.000041
 521	5.1740e+01	5.1691	2.366457	0.000385	3.847196	0.651733	0.000038
 522	5.1840e+01	5.1791	2.405154	0.000389	3.888124	0.658666	0.000039
 523	5.1939e+01	5.1905	2.445074	0.000401	4.010907	0.679466	0.000040
 524	5.2038e+01	5.2003	2.486623	0.000417	4.174617	0.707199	0.000042
 525	5.2138e+01	5.2099	2.530208	0.000438	4.379256	0.741866	0.000044
 526	5.2237e+01	5.2187	2.569720	0.000397	3.969979	0.672533	0.000040
 527	5.2337e+01	5.2298	2.613306	0.000438	4.379256	0.741866	0.000044
 528	5.2437e+01	5.2389	2.648338	0.000352	3.519775	0.596266	0.000035
 529	5.2536e+01	5.2492	2.690294	0.000422	4.215545	0.714133	0.000042
 530	5.2636e+01	5.2585	2.730213	0.000401	4.010907	0.679466	0.000040
 531	5.2735e+01	5.2699	2.768504	0.000385	3.847196	0.651733	0.000038
 532	5.2834e+01	5.2778	2.806387	0.000381	3.806269	0.644799	0.000038
 533	5.2934e+01	5.2895	2.843047	0.000368	3.683486	0.623999	0.000037
 534	5.3033e+01	5.2990	2.887040	0.000442	4.420183	0.748799	0.000044
 535	5.3133e+01	5.3070	2.920850	0.000340	3.396993	0.575466	0.000034
 536	5.3233e+01	5.3170	2.963213	0.000426	4.256473	0.721066	0.000043
 537	5.3332e+01	5.3291	2.997838	0.000348	3.478848	0.589333	0.000035
 538	5.3431e+01	5.3396	3.039794	0.000422	4.215545	0.714133	0.000042
 539	5.3531e+01	5.3493	3.076862	0.000372	3.724414	0.630933	0.000037
 540	5.3630e+01	5.3585	3.113930	0.000372	3.724414	0.630933	0.000037
 541	5.3730e+01	5.3677	3.150591	0.000368	3.683486	0.623999	0.000037
 542	5.3830e+01	5.3786	3.190103	0.000397	3.969979	0.672533	0.000040
 543	5.3929e+01	5.3876	3.225949	0.000360	3.601631	0.610133	0.000036
 544	5.4029e+01	5.3986	3.264647	0.000389	3.888124	0.658666	0.000039
 545	5.4128e+01	5.4112	3.304159	0.000397	3.969979	0.672533	0.000040
 546	5.4227e+01	5.4176	3.339598	0.000356	3.560703	0.603199	0.000036
 547	5.4327e+01	5.4275	3.377888	0.000385	3.847196	0.651733	0.000038
 548	5.4426e+01	5.4394	3.413734	0.000360	3.601631	0.610133	0.000036
 549	5.4526e+01	5.4494	3.454469	0.000409	4.092762	0.693333	0.000041
 550	5.4626e+01	5.4575	3.489093	0.000348	3.478848	0.589333	0.000035
 551	5.4725e+01	5.4693	3.531049	0.000422	4.215545	0.714133	0.000042
 552	5.4825e+01	5.4778	3.565266	0.000344	3.437920	0.582399	0.000034
 553	5.4924e+01	5.4890	3.603556	0.000385	3.847196	0.651733	0.000038
 554	5.5023e+01	5.4969	3.645512	0.000422	4.215545	0.714133	0.000042
 555	5.5123e+01	5.5079	3.681358	0.000360	3.601631	0.610133	0.000036
 556	5.5222e+01	5.5207	3.713946	0.000327	3.274210	0.554666	0.000033
 557	5.5322e+01	5.5258	3.755087	0.000413	4.133690	0.700266	0.000041
 558	5.5422e+01	5.5370	3.793785	0.000389	3.888124	0.658666	0.000039
 559	5.5521e+01	5.5475	3.828002	0.000344	3.437920	0.582399	0.000034
 560	5.5620e+01	5.5592	3.866699	0.000389	3.888124	0.658666	0.000039
 561	5.5720e+01	5.5665	3.904175	0.000377	3.765341	0.637866	0.000038
 562	5.5819e+01	5.5782	3.944094	0.000401	4.010907	0.679466	0.000040
 563	5.5919e+01	5.5863	3.979126	0.000352	3.519775	0.596266	0.000035
 564	5.6019e+01	5.5993	4.020675	0.000417	4.174617	0.707199	0.000042
 565	5.6118e+01	5.6069	4.060187	0.000397	3.969979	0.672533	0.000040
 566	5.6218e+01	5.6170	4.094811	0.000348	3.478848	0.589333	0.000035
 567	5.6317e+01	5.6286	4.129435	0.000348	3.478848	0.589333	0.000035
 568	5.6416e+01	5.6367	4.172206	0.000430	4.297400	0.727999	0.000043
 569	5.6516e+01	5.6475	4.212533	0.000405	4.051835	0.686399	0.000041
 570	5.6615e+01	5.6568	4.246750	0.000344	3.437920	0.582399	0.000034
 571	5.6715e+01	5.6661	4.283003	0.000364	3.642558	0.617066	0.000036
 572	5.6815e+01	5.6770	4.323330	0.000405	4.051835	0.686399	0.000041
 573	5.6914e+01	5.6886	4.365286	0.000422	4.215545	0.714133	0.000042
 574	5.7014e+01	5.6981	4.399503	0.000344	3.437920	0.582399	0.000034
 575	5.7113e+01	5.7057	4.433720	0.000344	3.437920	0.582399	0.000034
 576	5.7212e+01	5.7180	4.477713	0.000442	4.420183	0.748799	0.000044
 577	5.7312e+01	5.7279	4.517225	0.000397	3.969979	0.672533	0.000040
 578	5.7411e+01	5.7373	4.551035	0.000340	3.396993	0.575466	0.000034
 579	5.7511e+01	5.7504	4.588918	0.000381	3.806269	0.644799	0.000038
 580	5.7611e+01	5.7564	4.621912	0.000332	3.315137	0.561599	0.000033
 581	5.7710e+01	5.7671	4.660610	0.000389	3.888124	0.658666	0.000039
 582	5.7809e+01	5.7788	4.698900	0.000385	3.847196	0.651733	0.000038
 583	5.7909e+01	5.7874	4.735561	0.000368	3.683486	0.623999	0.000037
 584	5.8008e+01	5.7937	4.772629	0.000372	3.724414	0.630933	0.000037
 585	5.8108e+01	5.8060	4.804402	0.000319	3.192355	0.540799	0.000032
 586	5.8208e+01	5.8172	4.841063	0.000368	3.683486	0.623999	0.000037
 587	5.8307e+01	5.8289	4.877723	0.000368	3.683486	0.623999	0.000037
 588	5.8407e+01	5.8360	4.912755	0.000352	3.519775	0.596266	0.000035
 589	5.8506e+01	5.8511	4.953896	0.000413	4.133690	0.700266	0.000041
 590	5.8605e+01	5.8576	4.987706	0.000340	3.396993	0.575466	0.000034
 591	5.8705e+01	5.8694	5.023145	0.000356	3.560703	0.603199	0.000036
 592	5.8804e+01	5.8764	5.062250	0.000393	3.929052	0.665599	0.000039
 593	5.8904e+01	5.8868	5.092800	0.000307	3.069572	0.520000	0.000031
 594	5.9004e+01	5.8961	5.127424	0.000348	3.478848	0.589333	0.000035
 595	5.9103e+01	5.9061	5.165715	0.000385	3.847196	0.651733	0.000038
 596	5.9203e+01	5.9161	5.197080	0.000315	3.151427	0.533866	0.000032
 597	5.9302e+01	5.9275	5.229667	0.000327	3.274210	0.554666	0.000033
 598	5.9401e+01	5.9357	5.262255	0.000327	3.274210	0.554666	0.000033
 599	5.9501e+01	5.9432	5.298101	0.000360	3.601631	0.610133	0.000036
 600	5.9600e+01	5.9548	5.328652	0.000307	3.069572	0.520000	0.000031
 601	5.9700e+01	5.9638	5.361646	0.000332	3.315137	0.561599	0.000033
 602	5.9800e+01	5.9750	5.393012	0.000315	3.151427	0.533866	0.000032
 603	5.9899e+01	5.9861	5.430080	0.000372	3.724414	0.630933	0.000037
 604	5.9998e+01	5.9962	5.463075	0.000332	3.315137	0.561599	0.000033
 605	6.0098e+01	6.0100	5.495662	0.000327	3.274210	0.554666	0.000033
 606	6.0197e+01	6.0159	5.527435	0.000319	3.192355	0.540799	0.000032
 607	6.0297e+01	6.0242	5.563688	0.000364	3.642558	0.617066	0.000036
 608	6.0397e+01	6.0346	5.594646	0.000311	3.110499	0.526933	0.000031
 609	6.0496e+01	6.0487	5.627234	0.000327	3.274210	0.554666	0.000033
 610	6.0596e+01	6.0560	5.659821	0.000327	3.274210	0.554666	0.000033
 611	6.0695e+01	6.0648	5.693631	0.000340	3.396993	0.575466	0.000034
 612	6.0794e+01	6.0755	5.729884	0.000364	3.642558	0.617066	0.000036
 613	6.0894e+01	6.0853	5.760027	0.000303	3.028644	0.513066	0.000030
 614	6.0993e+01	6.0973	5.792207	0.000323	3.233282	0.547733	0.000032
 615	6.1093e+01	6.1031	5.827646	0.000356	3.560703	0.603199	0.000036
 616	6.1193e+01	6.1166	5.861048	0.000336	3.356065	0.568533	0.000034
 617	6.1292e+01	6.1265	5.899339	0.000385	3.847196	0.651733	0.000038
 618	6.1392e+01	6.1346	5.927038	0.000278	2.783078	0.471466	0.000028
 619	6.1491e+01	6.1442	5.962884	0.000360	3.601631	0.610133	0.000036
 620	6.1590e+01	6.1562	5.999137	0.000364	3.642558	0.617066	0.000036
 621	6.1690e+01	6.1627	6.033354	0.000344	3.437920	0.582399	0.000034
 622	6.1789e+01	6.1739	6.065534	0.000323	3.233282	0.547733	0.000032
 623	6.1889e+01	6.1852	6.100158	0.000348	3.478848	0.589333	0.000035
 624	6.1989e+01	6.1948	6.133560	0.000336	3.356065	0.568533	0.000034
 625	6.2088e+01	6.2041	6.171036	0.000377	3.765341	0.637866	0.000038
 626	6.2188e+01	6.2136	6.200365	0.000295	2.946789	0.499200	0.000029
 627	6.2287e+01	6.2283	6.233767	0.000336	3.356065	0.568533	0.000034
 628	6.2386e+01	6.2354	6.270020	0.000364	3.642558	0.617066	0.000036
 629	6.2486e+01	6.2435	6.302608	0.000327	3.274210	0.554666	0.000033
 630	6.2586e+01	6.2557	6.338861	0.000364	3.642558	0.617066	0.000036
 631	6.2685e+01	6.2640	6.372671	0.000340	3.396993	0.575466	0.000034
 632	6.2785e+01	6.2724	6.408109	0.000356	3.560703	0.603199	0.000036
 633	6.2884e+01	6.2849	6.441511	0.000336	3.356065	0.568533	0.000034
 634	6.2983e+01	6.2949	6.477765	0.000364	3.642558	0.617066	0.000036
 635	6.3083e+01	6.3022	6.510352	0.000327	3.274210	0.554666	0.000033
 636	6.3182e+01	6.3164	6.544162	0.000340	3.396993	0.575466	0.000034
 637	6.3282e+01	6.3250	6.580415	0.000364	3.642558	0.617066	0.000036
 638	6.3382e+01	6.3329	6.613817	0.000336	3.356065	0.568533	0.000034
 639	6.3481e+01	6.3433	6.648441	0.000348	3.478848	0.589333	0.000035
 640	6.3581e+01	6.3540	6.681844	0.000336	3.356065	0.568533	0.000034
 641	6.3680e+01	6.3618	6.716060	0.000344	3.437920	0.582399	0.000034
 642	6.3779e+01	6.3744	6.753128	0.000372	3.724414	0.630933	0.000037
 643	6.3879e+01	6.3827	6.786123	0.000332	3.315137	0.561599	0.000033
 644	6.3978e+01	6.3929	6.821969	0.000360	3.601631	0.610133	0.000036
 645	6.4078e+01	6.4014	6.853742	0.000319	3.192355	0.540799	0.000032
 646	6.4177e+01	6.4124	6.886737	0.000332	3.315137	0.561599	0.000033
 647	6.4277e+01	6.4234	6.919732	0.000332	3.315137	0.561599	0.000033
 648	6.4376e+01	6.4336	6.950690	0.000311	3.110499	0.526933	0.000031
 649	6.4476e+01	6.4492	6.984092	0.000336	3.356065	0.568533	0.000034
 650	6.4576e+01	6.4538	7.016679	0.000327	3.274210	0.554666	0.000033
 651	6.4675e+01	6.4617	7.048859	0.000323	3.233282	0.547733	0.000032
 652	6.4775e+01	6.4754	7.086335	0.000377	3.765341	0.637866	0.000038
 653	6.4874e+01	6.4807	7.118515	0.000323	3.233282	0.547733	0.000032
 654	6.4974e+01	6.4941	7.151510	0.000332	3.315137	0.561599	0.000033
 655	6.5073e+01	6.5023	7.187763	0.000364	3.642558	0.617066	0.000036
 656	6.5172e+01	6.5139	7.222794	0.000352	3.519775	0.596266	0.000035
 657	6.5272e+01	6.5260	7.255382	0.000327	3.274210	0.554666	0.000033
 658	6.5371e+01	6.5305	7.285118	0.000299	2.987716	0.506133	0.000030
 659	6.5471e+01	6.5434	7.314854	0.000299	2.987716	0.506133	0.000030
 660	6.5570e+01	6.5504	7.348663	0.000340	3.396993	0.575466	0.000034
 661	6.5670e+01	6.5643	7.381658	0.000332	3.315137	0.561599	0.000033
 662	6.5769e+01	6.5740	7.415060	0.000336	3.356065	0.568533	0.000034
 663	6.5869e+01	6.5809	7.446018	0.000311	3.110499	0.526933	0.000031
 664	6.5969e+01	6.5911	7.482272	0.000364	3.642558	0.617066	0.000036
 665	6.6068e+01	6.6005	7.516488	0.000344	3.437920	0.582399	0.000034
 666	6.6168e+01	6.6120	7.552335	0.000360	3.601631	0.610133	0.000036
 667	6.6267e+01	6.6213	7.585737	0.000336	3.356065	0.568533	0.000034
 668	6.6367e+01	6.6319	7.624027	0.000385	3.847196	0.651733	0.000038
 669	6.6466e+01	6.6415	7.656614	0.000327	3.274210	0.554666	0.000033
 670	6.6566e+01	6.6561	7.692460	0.000360	3.601631	0.610133	0.000036
 671	6.6665e+01	6.6606	7.727085	0.000348	3.478848	0.589333	0.000035
 672	6.6764e+01	6.6714	7.762116	0.000352	3.519775	0.596266	0.000035
 673	6.6864e+01	6.6821	7.797555	0.000356	3.560703	0.603199	0.000036
 674	6.6963e+01	6.6923	7.832586	0.000352	3.519775	0.596266	0.000035
 675	6.7063e+01	6.6991	7.868432	0.000360	3.601631	0.610133	0.000036
 676	6.7162e+01	6.7139	7.900205	0.000319	3.192355	0.540799	0.000032
 677	6.7262e+01	6.7212	7.937273	0.000372	3.724414	0.630933	0.000037
 678	6.7362e+01	6.7335	7.971083	0.000340	3.396993	0.575466	0.000034
 679	6.7461e+01	6.7424	8.010595	0.000397	3.969979	0.672533	0.000040
 680	6.7561e+01	6.7519	8.044812	0.000344	3.437920	0.582399	0.000034
 681	6.7660e+01	6.7608	8.081880	0.000372	3.724414	0.630933	0.000037
 682	6.7760e+01	6.7683	8.120985	0.000393	3.929052	0.665599	0.000039
 683	6.7859e+01	6.7814	8.153165	0.000323	3.233282	0.547733	0.000032
 684	6.7959e+01	6.7889	8.195121	0.000422	4.215545	0.714133	0.000042
 685	6.8058e+01	6.7987	8.230153	0.000352	3.519775	0.596266	0.000035
 686	6.8157e+01	6.8101	8.266406	0.000364	3.642558	0.617066	0.000036
 687	6.8257e+01	6.8238	8.302660	0.000364	3.642558	0.617066	0.000036
 688	6.8356e+01	6.8316	8.340542	0.000381	3.806269	0.644799	0.000038
 689	6.8456e+01	6.8410	8.377611	0.000372	3.724414	0.630933	0.000037
 690	6.8555e+01	6.8520	8.413864	0.000364	3.642558	0.617066	0.000036
 691	6.8655e+01	6.8609	8.451747	0.000381	3.806269	0.644799	0.000038
 692	6.8754e+01	6.8704	8.488408	0.000368	3.683486	0.623999	0.000037
 693	6.8854e+01	6.8813	8.523847	0.000356	3.560703	0.603199	0.000036
 694	6.8954e+01	6.8910	8.557249	0.000336	3.356065	0.568533	0.000034
 695	6.9053e+01	6.8984	8.598390	0.000413	4.133690	0.700266	0.000041
 696	6.9153e+01	6.9114	8.634644	0.000364	3.642558	0.617066	0.000036
 697	6.9252e+01	6.9195	8.668453	0.000340	3.396993	0.575466	0.000034
 698	6.9352e+01	6.9303	8.707558	0.000393	3.929052	0.665599	0.000039
 699	6.9451e+01	6.9401	8.740960	0.000336	3.356065	0.568533	0.000034
 700	6.9550e+01	6.9501	8.779250	0.000385	3.847196	0.651733	0.000038
 701	6.9650e+01	6.9588	8.812652	0.000336	3.356065	0.568533	0.000034
 702	6.9749e+01	6.9712	8.848499	0.000360	3.601631	0.610133	0.000036
 703	6.9849e+01	6.9792	8.881493	0.000332	3.315137	0.561599	0.000033
 704	6.9948e+01	6.9900	8.917747	0.000364	3.642558	0.617066	0.000036
 705	7.0048e+01	7.0024	8.951149	0.000336	3.356065	0.568533	0.000034
 706	7.0147e+01	7.0107	8.984958	0.000340	3.396993	0.575466	0.000034
 707	7.0247e+01	7.0208	9.022434	0.000377	3.765341	0.637866	0.000038
 708	7.0347e+01	7.0286	9.057058	0.000348	3.478848	0.589333	0.000035
 709	7.0446e+01	7.0410	9.093311	0.000364	3.642558	0.617066	0.000036
 710	7.0546e+01	7.0491	9.124677	0.000315	3.151427	0.533866	0.000032
 711	7.0645e+01	7.0599	9.160523	0.000360	3.601631	0.610133	0.000036
 712	7.0745e+01	7.0676	9.196776	0.000364	3.642558	0.617066	0.000036
 713	7.0844e+01	7.0796	9.231808	0.000352	3.519775	0.596266	0.000035
 714	7.0944e+01	7.0901	9.265210	0.000336	3.356065	0.568533	0.000034
 715	7.1043e+01	7.1023	9.301463	0.000364	3.642558	0.617066	0.000036
 716	7.1142e+01	7.1095	9.335273	0.000340	3.396993	0.575466	0.000034
 717	7.1242e+01	7.1248	9.372341	0.000372	3.724414	0.630933	0.000037
 718	7.1341e+01	7.1325	9.404114	0.000319	3.192355	0.540799	0.000032
 719	7.1441e+01	7.1401	9.436294	0.000323	3.233282	0.547733	0.000032
 720	7.1540e+01	7.1502	9.475399	0.000393	3.929052	0.665599	0.000039
 721	7.1640e+01	7.1590	9.507579	0.000323	3.233282	0.547733	0.000032
 722	7.1740e+01	7.1717	9.544240	0.000368	3.683486	0.623999	0.000037
 723	7.1839e+01	7.1781	9.579271	0.000352	3.519775	0.596266	0.000035
 724	7.1939e+01	7.1905	9.610636	0.000315	3.151427	0.533866	0.000032
 725	7.2038e+01	7.2002	9.645261	0.000348	3.478848	0.589333	0.000035
 726	7.2138e+01	7.2083	9.681921	0.000368	3.683486	0.623999	0.000037
 727	7.2237e+01	7.2210	9.714509	0.000327	3.274210	0.554666	0.000033
 728	7.2337e+01	7.2328	9.749948	0.000356	3.560703	0.603199	0.000036
 729	7.2436e+01	7.2392	9.785794	0.000360	3.601631	0.610133	0.000036
 730	7.2535e+01	7.2468	9.821233	0.000356	3.560703	0.603199	0.000036
 731	7.2635e+01	7.2608	9.855857	0.000348	3.478848	0.589333	0.000035
 732	7.2734e+01	7.2688	9.896591	0.000409	4.092762	0.693333	0.000041
 733	7.2834e+01	7.2791	9.930808	0.000344	3.437920	0.582399	0.000034
 734	7.2933e+01	7.2891	9.969913	0.000393	3.929052	0.665599	0.000039
 735	7.3033e+01	7.2996	9.999649	0.000299	2.987716	0.506133	0.000030
 736	7.3132e+01	7.3083	10.034680	0.000352	3.519775	0.596266	0.000035
 737	7.3232e+01	7.3188	10.071341	0.000368	3.683486	0.623999	0.000037
 738	7.3332e+01	7.3295	10.103521	0.000323	3.233282	0.547733	0.000032
 739	7.3431e+01	7.3411	10.138145	0.000348	3.478848	0.589333	0.000035
 740	7.3531e+01	7.3473	10.176435	0.000385	3.847196	0.651733	0.000038
 741	7.3630e+01	7.3594	10.211874	0.000356	3.560703	0.603199	0.000036
 742	7.3730e+01	7.3695	10.247720	0.000360	3.601631	0.610133	0.000036
 743	7.3829e+01	7.3798	10.285603	0.000381	3.806269	0.644799	0.000038
 744	7.3928e+01	7.3862	10.322264	0.000368	3.683486	0.623999	0.000037
 745	7.4028e+01	7.3962	10.356073	0.000340	3.396993	0.575466	0.000034
 746	7.4127e+01	7.4081	10.393956	0.000381	3.806269	0.644799	0.000038
 747	7.4227e+01	7.4206	10.430210	0.000364	3.642558	0.617066	0.000036
 748	7.4326e+01	7.4307	10.464426	0.000344	3.437920	0.582399	0.000034
 749	7.4426e+01	7.4374	10.494977	0.000307	3.069572	0.520000	0.000031
 750	7.4525e+01	7.4473	10.532045	0.000372	3.724414	0.630933	0.000037
 751	7.4625e+01	7.4587	10.564225	0.000323	3.233282	0.547733	0.000032
 752	7.4725e+01	7.4671	10.602108	0.000381	3.806269	0.644799	0.000038
 753	7.4824e+01	7.4756	10.635510	0.000336	3.356065	0.568533	0.000034
 754	7.4924e+01	7.4883	10.666468	0.000311	3.110499	0.526933	0.000031
 755	7.5023e+01	7.4970	10.701500	0.000352	3.519775	0.596266	0.000035
 756	7.5123e+01	7.5079	10.731236	0.000299	2.987716	0.506133	0.000030
 757	7.5222e+01	7.5161	10.770341	0.000393	3.929052	0.665599	0.000039
 758	7.5322e+01	7.5294	10.804558	0.000344	3.437920	0.582399	0.000034
 759	7.5421e+01	7.5359	10.834294	0.000299	2.987716	0.506133	0.000030
 760	7.5520e+01	7.5473	10.869732	0.000356	3.560703	0.603199	0.000036
 761	7.5620e+01	7.5586	10.903949	0.000344	3.437920	0.582399	0.000034
 762	7.5719e+01	7.5649	10.938573	0.000348	3.478848	0.589333	0.000035
 763	7.5819e+01	7.5758	10.969531	0.000311	3.110499	0.526933	0.000031
 764	7.5918e+01	7.5921	11.000489	0.000311	3.110499	0.526933	0.000031
 765	7.6018e+01	7.5957	11.032262	0.000319	3.192355	0.540799	0.000032
 766	7.6118e+01	7.6055	11.061591	0.000295	2.946789	0.499200	0.000029
 767	7.6217e+01	7.6164	11.095807	0.000344	3.437920	0.582399	0.000034
 768	7.6317e+01	7.6302	11.129617	0.000340	3.396993	0.575466	0.000034
 769	7.6416e+01	7.6374	11.161390	0.000319	3.192355	0.540799	0.000032
 770	7.6516e+01	7.6462	11.195606	0.000344	3.437920	0.582399	0.000034
 771	7.6615e+01	7.6571	11.224935	0.000295	2.946789	0.499200	0.000029
 772	7.6715e+01	7.6669	11.259152	0.000344	3.437920	0.582399	0.000034
 773	7.6814e+01	7.6762	11.291332	0.000323	3.233282	0.547733	0.000032
 774	7.6913e+01	7.6870	11.325141	0.000340	3.396993	0.575466	0.000034
 775	7.7013e+01	7.6971	11.354063	0.000291	2.905861	0.492266	0.000029
 776	7.7112e+01	7.7069	11.385428	0.000315	3.151427	0.533866	0.000032
 777	7.7212e+01	7.7152	11.418423	0.000332	3.315137	0.561599	0.000033
 778	7.7311e+01	7.7263	11.448973	0.000307	3.069572	0.520000	0.000031
 779	7.7411e+01	7.7352	11.483598	0.000348	3.478848	0.589333	0.000035
 780	7.7510e+01	7.7459	11.512112	0.000286	2.864934	0.485333	0.000029
 781	7.7610e+01	7.7576	11.549587	0.000377	3.765341	0.637866	0.000038
 782	7.7710e+01	7.7673	11.583804	0.000344	3.437920	0.582399	0.000034
 783	7.7809e+01	7.7743	11.615169	0.000315	3.151427	0.533866	0.000032
 784	7.7909e+01	7.7861	11.648571	0.000336	3.356065	0.568533	0.000034
 785	7.8008e+01	7.7966	11.679122	0.000307	3.069572	0.520000	0.000031
 786	7.8108e+01	7.8071	11.713746	0.000348	3.478848	0.589333	0.000035
 787	7.8207e+01	7.8159	11.746333	0.000327	3.274210	0.554666	0.000033
 788	7.8306e+01	7.8271	11.783402	0.000372	3.724414	0.630933	0.000037
 789	7.8406e+01	7.8370	11.814767	0.000315	3.151427	0.533866	0.000032
 790	7.8505e+01	7.8460	11.849391	0.000348	3.478848	0.589333	0.000035
 791	7.8605e+01	7.8574	11.878720	0.000295	2.946789	0.499200	0.000029
 792	7.8704e+01	7.8642	11.917417	0.000389	3.888124	0.658666	0.000039
 793	7.8804e+01	7.8784	11.951227	0.000340	3.396993	0.575466	0.000034
 794	7.8903e+01	7.8828	11.983814	0.000327	3.274210	0.554666	0.000033
 795	7.9003e+01	7.8922	12.020068	0.000364	3.642558	0.617066	0.000036
 796	7.9103e+01	7.9053	12.055506	0.000356	3.560703	0.603199	0.000036
 797	7.9202e+01	7.9143	12.085650	0.000303	3.028644	0.513066	0.000030
 798	7.9302e+01	7.9258	12.121903	0.000364	3.642558	0.617066	0.000036
 799	7.9401e+01	7.9333	12.155713	0.000340	3.396993	0.575466	0.000034
 800	7.9501e+01	7.9451	12.189522	0.000340	3.396993	0.575466	0.000034
 801	7.9600e+01	7.9565	12.225368	0.000360	3.601631	0.610133	0.000036
 802	7.9700e+01	7.9663	12.263659	0.000385	3.847196	0.651733	0.000038
 803	7.9799e+01	7.9765	12.296246	0.000327	3.274210	0.554666	0.000033
 804	7.9898e+01	7.9840	12.330870	0.000348	3.478848	0.589333	0.000035
 805	7.9998e+01	7.9950	12.363457	0.000327	3.274210	0.554666	0.000033
 806	8.0097e+01	8.0050	12.399711	0.000364	3.642558	0.617066	0.000036
 807	8.0197e+01	8.0183	12.437186	0.000377	3.765341	0.637866	0.000038
 808	8.0296e+01	8.0228	12.473033	0.000360	3.601631	0.610133	0.000036
 809	8.0396e+01	8.0328	12.507249	0.000344	3.437920	0.582399	0.000034
 810	8.0496e+01	8.0460	12.544725	0.000377	3.765341	0.637866	0.000038
 811	8.0595e+01	8.0534	12.573646	0.000291	2.905861	0.492266	0.000029
 812	8.0695e+01	8.0648	12.616417	0.000430	4.297400	0.727999	0.000043
 813	8.0794e+01	8.0737	12.646561	0.000303	3.028644	0.513066	0.000030
 814	8.0894e+01	8.0848	12.678333	0.000319	3.192355	0.540799	0.000032
 815	8.0993e+01	8.0943	12.711328	0.000332	3.315137	0.561599	0.000033
 816	8.1093e+01	8.1038	12.744323	0.000332	3.315137	0.561599	0.000033
 817	8.1192e+01	8.1164	12.779354	0.000352	3.519775	0.596266	0.000035
 818	8.1291e+01	8.1265	12.818052	0.000389	3.888124	0.658666	0.000039
 819	8.1391e+01	8.1338	12.849417	0.000315	3.151427	0.533866	0.000032
 820	8.1490e+01	8.1451	12.888115	0.000389	3.888124	0.658666	0.000039
 821	8.1590e+01	8.1531	12.921109	0.000332	3.315137	0.561599	0.000033
 822	8.1689e+01	8.1635	12.953697	0.000327	3.274210	0.554666	0.000033
 823	8.1789e+01	8.1744	12.992394	0.000389	3.888124	0.658666	0.000039
 824	8.1888e+01	8.1840	13.029870	0.000377	3.765341	0.637866	0.000038
 825	8.1988e+01	8.1938	13.060421	0.000307	3.069572	0.520000	0.000031
 826	8.2088e+01	8.2041	13.096674	0.000364	3.642558	0.617066	0.000036
 827	8.2187e+01	8.2152	13.131706	0.000352	3.519775	0.596266	0.000035
 828	8.2287e+01	8.2264	13.158997	0.000274	2.742151	0.464533	0.000027
 829	8.2386e+01	8.2362	13.196066	0.000372	3.724414	0.630933	0.000037
 830	8.2486e+01	8.2443	13.232319	0.000364	3.642558	0.617066	0.000036
 831	8.2585e+01	8.2551	13.267351	0.000352	3.519775	0.596266	0.000035
 832	8.2684e+01	8.2642	13.304826	0.000377	3.765341	0.637866	0.000038
 833	8.2784e+01	8.2740	13.343116	0.000385	3.847196	0.651733	0.000038
 834	8.2883e+01	8.2864	13.381406	0.000385	3.847196	0.651733	0.000038
 835	8.2983e+01	8.2939	13.421326	0.000401	4.010907	0.679466	0.000040
 836	8.3082e+01	8.3041	13.451469	0.000303	3.028644	0.513066	0.000030
 837	8.3182e+01	8.3154	13.491796	0.000405	4.051835	0.686399	0.000041
 838	8.3281e+01	8.3237	13.530087	0.000385	3.847196	0.651733	0.000038
 839	8.3381e+01	8.3337	13.566747	0.000368	3.683486	0.623999	0.000037
 840	8.3481e+01	8.3424	13.607482	0.000409	4.092762	0.693333	0.000041
 841	8.3580e+01	8.3543	13.639662	0.000323	3.233282	0.547733	0.000032
 842	8.3680e+01	8.3643	13.678359	0.000389	3.888124	0.658666	0.000039
 843	8.3779e+01	8.3730	13.717871	0.000397	3.969979	0.672533	0.000040
 844	8.3879e+01	8.3833	13.754940	0.000372	3.724414	0.630933	0.000037
 845	8.3978e+01	8.3923	13.795674	0.000409	4.092762	0.693333	0.000041
 846	8.4078e+01	8.4034	13.833149	0.000377	3.765341	0.637866	0.000038
 847	8.4177e+01	8.4146	13.871847	0.000389	3.888124	0.658666	0.000039
 848	8.4276e+01	8.4216	13.912989	0.000413	4.133690	0.700266	0.000041
 849	8.4376e+01	8.4281	13.954945	0.000422	4.215545	0.714133	0.000042
 850	8.4475e+01	8.4424	13.994864	0.000401	4.010907	0.679466	0.000040
 851	8.4575e+01	8.4534	14.038450	0.000438	4.379256	0.741866	0.000044
 852	8.4674e+01	8.4641	14.078777	0.000405	4.051835	0.686399	0.000041
 853	8.4774e+01	8.4721	14.117474	0.000389	3.888124	0.658666	0.000039
 854	8.4874e+01	8.4824	14.158209	0.000409	4.092762	0.693333	0.000041
 855	8.4973e+01	8.4921	14.198128	0.000401	4.010907	0.679466	0.000040
 856	8.5073e+01	8.5011	14.237233	0.000393	3.929052	0.665599	0.000039
 857	8.5172e+01	8.5142	14.280819	0.000438	4.379256	0.741866	0.000044
 858	8.5272e+01	8.5197	14.321146	0.000405	4.051835	0.686399	0.000041
 859	8.5371e+01	8.5312	14.363102	0.000422	4.215545	0.714133	0.000042
 860	8.5471e+01	8.5440	14.401392	0.000385	3.847196	0.651733	0.000038
 861	8.5570e+01	8.5517	14.444978	0.000438	4.379256	0.741866	0.000044
 862	8.5669e+01	8.5612	14.489378	0.000446	4.461111	0.755733	0.000045
 863	8.5769e+01	8.5709	14.529705	0.000405	4.051835	0.686399	0.000041
 864	8.5868e+01	8.5856	14.570847	0.000413	4.133690	0.700266	0.000041
 865	8.5968e+01	8.5928	14.614025	0.000434	4.338328	0.734933	0.000043
 866	8.6067e+01	8.6036	14.651908	0.000381	3.806269	0.644799	0.000038
 867	8.6167e+01	8.6138	14.691827	0.000401	4.010907	0.679466	0.000040
 868	8.6266e+01	8.6213	14.730932	0.000393	3.929052	0.665599	0.000039
 869	8.6366e+01	8.6307	14.771667	0.000409	4.092762	0.693333	0.000041
 870	8.6466e+01	8.6410	14.817696	0.000462	4.624821	0.783466	0.000046
 871	8.6565e+01	8.6534	14.853542	0.000360	3.601631	0.610133	0.000036
 872	8.6665e+01	8.6597	14.894684	0.000413	4.133690	0.700266	0.000041
 873	8.6764e+01	8.6747	14.935011	0.000405	4.051835	0.686399	0.000041
 874	8.6864e+01	8.6829	14.979004	0.000442	4.420183	0.748799	0.000044
 875	8.6963e+01	8.6929	15.016072	0.000372	3.724414	0.630933	0.000037
 876	8.7063e+01	8.7042	15.060472	0.000446	4.461111	0.755733	0.000045
 877	8.7162e+01	8.7127	15.099170	0.000389	3.888124	0.658666	0.000039
 878	8.7261e+01	8.7207	15.138682	0.000397	3.969979	0.672533	0.000040
 879	8.7361e+01	8.7305	15.181453	0.000430	4.297400	0.727999	0.000043
 880	8.7460e+01	8.7412	15.221373	0.000401	4.010907	0.679466	0.000040
 881	8.7560e+01	8.7507	15.263736	0.000426	4.256473	0.721066	0.000043
 882	8.7659e+01	8.7614	15.309359	0.000458	4.583894	0.776533	0.000046
 883	8.7759e+01	8.7696	15.345612	0.000364	3.642558	0.617066	0.000036
 884	8.7859e+01	8.7815	15.385939	0.000405	4.051835	0.686399	0.000041
 885	8.7958e+01	8.7920	15.431154	0.000454	4.542966	0.769599	0.000045
 886	8.8058e+01	8.8028	15.473110	0.000422	4.215545	0.714133	0.000042
 887	8.8157e+01	8.8096	15.518326	0.000454	4.542966	0.769599	0.000045
 888	8.8257e+01	8.8184	15.556208	0.000381	3.806269	0.644799	0.000038
 889	8.8356e+01	8.8281	15.599794	0.000438	4.379256	0.741866	0.000044
 890	8.8456e+01	8.8391	15.638899	0.000393	3.929052	0.665599	0.000039
 891	8.8555e+01	8.8480	15.679226	0.000405	4.051835	0.686399	0.000041
 892	8.8654e+01	8.8601	15.726885	0.000479	4.788532	0.811199	0.000048
 893	8.8754e+01	8.8699	15.762731	0.000360	3.601631	0.610133	0.000036
 894	8.8853e+01	8.8818	15.807539	0.000450	4.502038	0.762666	0.000045
 895	8.8953e+01	8.8888	15.848273	0.000409	4.092762	0.693333	0.000041
 896	8.9052e+01	8.9004	15.895525	0.000475	4.747604	0.804266	0.000047
 897	8.9152e+01	8.9110	15.936666	0.000413	4.133690	0.700266	0.000041
 898	8.9251e+01	8.9191	15.979437	0.000430	4.297400	0.727999	0.000043
 899	8.9351e+01	8.9311	16.028318	0.000491	4.911315	0.831999	0.000049
 900	8.9451e+01	8.9398	16.071904	0.000438	4.379256	0.741866	0.000044
 901	8.9550e+01	8.9520	16.118748	0.000471	4.706677	0.797333	0.000047
 902	8.9650e+01	8.9606	16.163556	0.000450	4.502038	0.762666	0.000045
 903	8.9749e+01	8.9697	16.209586	0.000462	4.624821	0.783466	0.000046
 904	8.9849e+01	8.9809	16.253986	0.000446	4.461111	0.755733	0.000045
 905	8.9948e+01	8.9899	16.299609	0.000458	4.583894	0.776533	0.000046
 906	9.0047e+01	8.9971	16.340343	0.000409	4.092762	0.693333	0.000041
 907	9.0147e+01	9.0092	16.384336	0.000442	4.420183	0.748799	0.000044
 908	9.0246e+01	9.0170	16.428736	0.000446	4.461111	0.755733	0.000045
 909	9.0346e+01	9.0269	16.473951	0.000454	4.542966	0.769599	0.000045
 910	9.0445e+01	9.0404	16.521610	0.000479	4.788532	0.811199	0.000048
 911	9.0545e+01	9.0504	16.568455	0.000471	4.706677	0.797333	0.000047
 912	9.0644e+01	9.0562	16.620187	0.000520	5.197808	0.880533	0.000052
 913	9.0744e+01	9.0715	16.662551	0.000426	4.256473	0.721066	0.000043
 914	9.0844e+01	9.0774	16.711432	0.000491	4.911315	0.831999	0.000049
 915	9.0943e+01	9.0894	16.755832	0.000446	4.461111	0.755733	0.000045
 916	9.1043e+01	9.0991	16.798603	0.000430	4.297400	0.727999	0.000043
 917	9.1142e+01	9.1095	16.845448	0.000471	4.706677	0.797333	0.000047
 918	9.1242e+01	9.1175	16.885774	0.000405	4.051835	0.686399	0.000041
 919	9.1341e+01	9.1269	16.934248	0.000487	4.870387	0.825066	0.000049
 920	9.1441e+01	9.1406	16.979871	0.000458	4.583894	0.776533	0.000046
 921	9.1540e+01	9.1468	17.025086	0.000454	4.542966	0.769599	0.000045
 922	9.1639e+01	9.1592	17.071115	0.000462	4.624821	0.783466	0.000046
 923	9.1739e+01	9.1675	17.117960	0.000471	4.706677	0.797333	0.000047
 924	9.1838e+01	9.1768	17.163989	0.000462	4.624821	0.783466	0.000046
 925	9.1938e+01	9.1885	17.213685	0.000499	4.993170	0.845866	0.000050
 926	9.2037e+01	9.2010	17.254012	0.000405	4.051835	0.686399	0.000041
 927	9.2137e+01	9.2065	17.307781	0.000540	5.402446	0.915199	0.000054
 928	9.2237e+01	9.2210	17.349738	0.000422	4.215545	0.714133	0.000042
 929	9.2336e+01	9.2285	17.398211	0.000487	4.870387	0.825066	0.000049
 930	9.2436e+01	9.2383	17.443834	0.000458	4.583894	0.776533	0.000046
 931	9.2535e+01	9.2467	17.484975	0.000413	4.133690	0.700266	0.000041
 932	9.2635e+01	9.2586	17.528968	0.000442	4.420183	0.748799	0.000044
 933	9.2734e+01	9.2688	17.572961	0.000442	4.420183	0.748799	0.000044
 934	9.2834e+01	9.2783	17.619806	0.000471	4.706677	0.797333	0.000047
 935	9.2933e+01	9.2863	17.663391	0.000438	4.379256	0.741866	0.000044
 936	9.3032e+01	9.2953	17.709014	0.000458	4.583894	0.776533	0.000046
 937	9.3132e+01	9.3084	17.756265	0.000475	4.747604	0.804266	0.000047
 938	9.3231e+01	9.3166	17.801481	0.000454	4.542966	0.769599	0.000045
 939	9.3331e+01	9.3286	17.844659	0.000434	4.338328	0.734933	0.000043
 940	9.3430e+01	9.3396	17.895169	0.000508	5.075025	0.859733	0.000051
 941	9.3530e+01	9.3474	17.939977	0.000450	4.502038	0.762666	0.000045
 942	9.3629e+01	9.3582	17.987229	0.000475	4.747604	0.804266	0.000047
 943	9.3729e+01	9.3701	18.031629	0.000446	4.461111	0.755733	0.000045
 944	9.3829e+01	9.3769	18.078473	0.000471	4.706677	0.797333	0.000047
 945	9.3928e+01	9.3851	18.125318	0.000471	4.706677	0.797333	0.000047
 946	9.4028e+01	9.3973	18.171755	0.000467	4.665749	0.790399	0.000047
 947	9.4127e+01	9.4067	18.219414	0.000479	4.788532	0.811199	0.000048
 948	9.4227e+01	9.4159	18.265036	0.000458	4.583894	0.776533	0.000046
 949	9.4326e+01	9.4288	18.315547	0.000508	5.075025	0.859733	0.000051
 950	9.4425e+01	9.4375	18.364428	0.000491	4.911315	0.831999	0.000049
 951	9.4525e+01	9.4476	18.412902	0.000487	4.870387	0.825066	0.000049
 952	9.4624e+01	9.4580	18.464634	0.000520	5.197808	0.880533	0.000052
 953	9.4724e+01	9.4659	18.513923	0.000495	4.952242	0.838933	0.000050
 954	9.4823e+01	9.4764	18.561174	0.000475	4.747604	0.804266	0.000047
 955	9.4923e+01	9.4864	18.614536	0.000536	5.361518	0.908266	0.000054
 956	9.5022e+01	9.4947	18.665454	0.000512	5.115953	0.866666	0.000051
 957	9.5122e+01	9.5060	18.713113	0.000479	4.788532	0.811199	0.000048
 958	9.5222e+01	9.5197	18.768104	0.000553	5.525229	0.935999	0.000055
 959	9.5321e+01	9.5255	18.817800	0.000499	4.993170	0.845866	0.000050
 960	9.5421e+01	9.5364	18.872384	0.000548	5.484301	0.929066	0.000055
 961	9.5520e+01	9.5461	18.922080	0.000499	4.993170	0.845866	0.000050
 962	9.5620e+01	9.5557	18.972998	0.000512	5.115953	0.866666	0.000051
 963	9.5719e+01	9.5670	19.024323	0.000516	5.156880	0.873599	0.000052
 964	9.5819e+01	9.5770	19.082165	0.000581	5.811722	0.984532	0.000058
 965	9.5918e+01	9.5844	19.137564	0.000557	5.566157	0.942932	0.000056
 966	9.6017e+01	9.5940	19.188075	0.000508	5.075025	0.859733	0.000051
 967	9.6117e+01	9.6072	19.243473	0.000557	5.566157	0.942932	0.000056
 968	9.6216e+01	9.6179	19.297650	0.000544	5.443374	0.922132	0.000054
 969	9.6316e+01	9.6247	19.352641	0.000553	5.525229	0.935999	0.000055
 970	9.6415e+01	9.6342	19.409262	0.000569	5.688939	0.963732	0.000057
 971	9.6515e+01	9.6445	19.463845	0.000548	5.484301	0.929066	0.000055
 972	9.6615e+01	9.6548	19.519244	0.000557	5.566157	0.942932	0.000056
 973	9.6714e+01	9.6655	19.575050	0.000561	5.607084	0.949866	0.000056
 974	9.6814e+01	9.6761	19.633300	0.000585	5.852650	0.991466	0.000059
 975	9.6913e+01	9.6875	19.688291	0.000553	5.525229	0.935999	0.000055
 976	9.7013e+01	9.6973	19.749393	0.000614	6.139143	1.039999	0.000061
 977	9.7112e+01	9.7036	19.804384	0.000553	5.525229	0.935999	0.000055
 978	9.7212e+01	9.7175	19.863041	0.000589	5.893578	0.998399	0.000059
 979	9.7311e+01	9.7266	19.916810	0.000540	5.402446	0.915199	0.000054
 980	9.7410e+01	9.7347	19.973024	0.000565	5.648012	0.956799	0.000056
 981	9.7510e+01	9.7461	20.030866	0.000581	5.811722	0.984532	0.000058
 982	9.7609e+01	9.7561	20.089116	0.000585	5.852650	0.991466	0.000059
 983	9.7709e+01	9.7628	20.141663	0.000528	5.279663	0.894399	0.000053
 984	9.7808e+01	9.7744	20.203172	0.000618	6.180071	1.046932	0.000062
 985	9.7908e+01	9.7855	20.262644	0.000598	5.975433	1.012266	0.000060
 986	9.8007e+01	9.7949	20.323746	0.000614	6.139143	1.039999	0.000061
 987	9.8107e+01	9.8047	20.379144	0.000557	5.566157	0.942932	0.000056
 988	9.8207e+01	9.8170	20.438616	0.000598	5.975433	1.012266	0.000060
 989	9.8306e+01	9.8242	20.496051	0.000577	5.770795	0.977599	0.000058
 990	9.8406e+01	9.8364	20.555524	0.000598	5.975433	1.012266	0.000060
 991	9.8505e+01	9.8449	20.616625	0.000614	6.139143	1.039999	0.000061
 992	9.8605e+01	9.8535	20.680170	0.000638	6.384709	1.081599	0.000064
 993	9.8704e+01	9.8635	20.740050	0.000602	6.016360	1.019199	0.000060
 994	9.8803e+01	9.8737	20.797485	0.000577	5.770795	0.977599	0.000058
 995	9.8903e+01	9.8861	20.856550	0.000593	5.934505	1.005332	0.000059
 996	9.9002e+01	9.8936	20.915207	0.000589	5.893578	0.998399	0.000059
 997	9.9102e+01	9.9048	20.975086	0.000602	6.016360	1.019199	0.000060
 998	9.9201e+01	9.9131	21.037410	0.000626	6.261926	1.060799	0.000063
 999	9.9301e+01	9.9255	21.099326	0.000622	6.220999	1.053866	0.000062
1000	9.9400e+01	9.9345	21.162057	0.000630	6.302854	1.067732	0.000063
1001	9.9500e+01	9.9445	21.227639	0.000659	6.589347	1.116266	0.000066
1002	9.9600e+01	9.9548	21.292814	0.000655	6.548420	1.109332	0.000066
1003	9.9699e+01	9.9638	21.359210	0.000667	6.671202	1.130132	0.000067
1004	9.9799e+01	9.9767	21.423978	0.000651	6.507492	1.102399	0.000065
1005	9.9898e+01	9.9854	21.489967	0.000663	6.630275	1.123199	0.000066
1006	9.9998e+01	9.9951	21.557179	0.000675	6.753058	1.143999	0.000068
1007	1.0010e+02	9.9863	21.575102	-0.000180	-1.800815	-0.305066	0.000018
1008	1.0020e+02	9.9741	21.584471	-0.000094	-0.941335	-0.159467	0.000009
1009	1.0030e+02	9.9641	21.601987	-0.000176	-1.759888	-0.298133	0.000018
1010	1.0040e+02	9.9522	21.612985	-0.000111	-1.105046	-0.187200	0.000011
1011	1.0050e+02	9.9463	21.627242	-0.000143	-1.432467	-0.242666	0.000014
1012	1.0059e+02	9.9342	21.642721	-0.000156	-1.555250	-0.263466	0.000016
1013	1.0069e+02	9.9273	21.655756	-0.000131	-1.309684	-0.221866	0.000013
1014	1.0079e+02	9.9123	21.664310	-0.000086	-0.859480	-0.145600	0.000009
1015	1.0089e+02	9.9030	21.674901	-0.000106	-1.064118	-0.180266	0.000011
1016	1.0099e+02	9.8933	21.686714	-0.000119	-1.186901	-0.201066	0.000012
1017	1.0109e+02	9.8840	21.698527	-0.000119	-1.186901	-0.201066	0.000012
1018	1.0119e+02	9.8746	21.706674	-0.000082	-0.818552	-0.138667	0.000008
1019	1.0129e+02	9.8651	21.711969	-0.000053	-0.532059	-0.090133	0.000005
1020	1.0139e+02	9.8537	21.716857	-0.000049	-0.491131	-0.083200	0.000005
1021	1.0149e+02	9.8438	21.725004	-0.000082	-0.818552	-0.138667	0.000008
1022	1.0159e+02	9.8352	21.730299	-0.000053	-0.532059	-0.090133	0.000005
1023	1.0169e+02	9.8252	21.738854	-0.000086	-0.859480	-0.145600	0.000009
1024	1.0179e+02	9.8145	21.740483	-0.000016	-0.163710	-0.027733	0.000002
1025	1.0189e+02	9.8061	21.741705	-0.000012	-0.122783	-0.020800	0.000001
1026	1.0199e+02	9.7966	21.747815	-0.000061	-0.613914	-0.104000	0.000006
1027	1.0209e+02	9.7839	21.755147	-0.000074	-0.736697	-0.124800	0.000007
1028	1.0219e+02	9.7730	21.755962	-0.000008	-0.081855	-0.013867	0.000001
1029	1.0229e+02	9.7639	21.761257	-0.000053	-0.532059	-0.090133	0.000005
1030	1.0239e+02	9.7535	21.761665	-0.000004	-0.040928	-0.006933	0.000000
1031	1.0248e+02	9.7449	21.761665	-0.000000	-0.000000	-0.000000	0.000000
1032	1.0258e+02	9.7355	21.763294	-0.000016	-0.163710	-0.027733	0.000002
1033	1.0268e+02	9.7260	21.765331	-0.000020	-0.204638	-0.034667	0.000002
1034	1.0278e+02	9.7146	21.760850	0.000045	0.450204	0.076267	-0.000005
1035	1.0288e+02	9.7051	21.762479	-0.000016	-0.163710	-0.027733	0.000002
1036	1.0298e+02	9.6938	21.757591	0.000049	0.491131	0.083200	-0.000005
1037	1.0308e+02	9.6859	21.756777	0.000008	0.081855	0.013867	-0.000001
1038	1.0318e+02	9.6783	21.751889	0.000049	0.491131	0.083200	-0.000005
1039	1.0328e+02	9.6680	21.748630	0.000033	0.327421	0.055467	-0.000003
1040	1.0338e+02	9.6552	21.744964	0.000037	0.368349	0.062400	-0.000004
1041	1.0348e+02	9.6448	21.738039	0.000070	0.695770	0.117867	-0.000007
1042	1.0358e+02	9.6366	21.733558	0.000045	0.450204	0.076267	-0.000005
1043	1.0368e+02	9.6244	21.729485	0.000041	0.409276	0.069333	-0.000004
1044	1.0378e+02	9.6162	21.724189	0.000053	0.532059	0.090133	-0.000005
1045	1.0388e+02	9.6045	21.721338	0.000029	0.286493	0.048533	-0.000003
1046	1.0398e+02	9.5947	21.714006	0.000074	0.736697	0.124800	-0.000007
1047	1.0408e+02	9.5850	21.707081	0.000070	0.695770	0.117867	-0.000007
1048	1.0418e+02	9.5746	21.696083	0.000111	1.105046	0.187200	-0.000011
1049	1.0428e+02	9.5658	21.688343	0.000078	0.777625	0.131733	-0.000008
1050	1.0438e+02	9.5559	21.684677	0.000037	0.368349	0.062400	-0.000004
1051	1.0447e+02	9.5472	21.674493	0.000102	1.023191	0.173333	-0.000010
1052	1.0457e+02	9.5350	21.665532	0.000090	0.900408	0.152533	-0.000009
1053	1.0467e+02	9.5286	21.657792	0.000078	0.777625	0.131733	-0.000008
1054	1.0477e+02	9.5166	21.645572	0.000123	1.227829	0.208000	-0.000012
1055	1.0487e+02	9.5068	21.638647	0.000070	0.695770	0.117867	-0.000007
1056	1.0497e+02	9.4972	21.630908	0.000078	0.777625	0.131733	-0.000008
1057	1.0507e+02	9.4859	21.620724	0.000102	1.023191	0.173333	-0.000010
1058	1.0517e+02	9.4763	21.607689	0.000131	1.309684	0.221866	-0.000013
1059	1.0527e+02	9.4668	21.596284	0.000115	1.145973	0.194133	-0.000011
1060	1.0537e+02	9.4556	21.590581	0.000057	0.572987	0.097067	-0.000006
1061	1.0547e+02	9.4467	21.577546	0.000131	1.309684	0.221866	-0.000013
1062	1.0557e+02	9.4350	21.564511	0.000131	1.309684	0.221866	-0.000013
1063	1.0567e+02	9.4303	21.554735	0.000098	0.982263	0.166400	-0.000010
1064	1.0577e+02	9.4176	21.542515	0.000123	1.227829	0.208000	-0.000012
1065	1.0587e+02	9.4067	21.533553	0.000090	0.900408	0.152533	-0.000009
1066	1.0597e+02	9.3970	21.520925	0.000127	1.268756	0.214933	-0.000013
1067	1.0607e+02	9.3888	21.510334	0.000106	1.064118	0.180266	-0.000011
1068	1.0617e+02	9.3793	21.501780	0.000086	0.859480	0.145600	-0.000009
1069	1.0627e+02	9.3710	21.487523	0.000143	1.432467	0.242666	-0.000014
1070	1.0637e+02	9.3573	21.472859	0.000147	1.473394	0.249600	-0.000015
1071	1.0647e+02	9.3463	21.462268	0.000106	1.064118	0.180266	-0.000011
1072	1.0656e+02	9.3397	21.450048	0.000123	1.227829	0.208000	-0.000012
1073	1.0666e+02	9.3262	21.435383	0.000147	1.473394	0.249600	-0.000015
1074	1.0676e+02	9.3183	21.421126	0.000143	1.432467	0.242666	-0.000014
1075	1.0686e+02	9.3097	21.412165	0.000090	0.900408	0.152533	-0.000009
1076	1.0696e+02	9.2950	21.395464	0.000168	1.678033	0.284266	-0.000017
1077	1.0706e+02	9.2905	21.382429	0.000131	1.309684	0.221866	-0.000013
1078	1.0716e+02	9.2788	21.370616	0.000119	1.186901	0.201066	-0.000012
1079	1.0726e+02	9.2667	21.354730	0.000160	1.596177	0.270400	-0.000016
1080	1.0736e+02	9.2559	21.342917	0.000119	1.186901	0.201066	-0.000012
1081	1.0746e+02	9.2474	21.329067	0.000139	1.391539	0.235733	-0.000014
1082	1.0756e+02	9.2407	21.316847	0.000123	1.227829	0.208000	-0.000012
1083	1.0766e+02	9.2297	21.294036	0.000229	2.291947	0.388266	-0.000023
1084	1.0776e+02	9.2194	21.281408	0.000127	1.268756	0.214933	-0.000013
1085	1.0786e+02	9.2084	21.265114	0.000164	1.637105	0.277333	-0.000016
1086	1.0796e+02	9.2010	21.250043	0.000151	1.514322	0.256533	-0.000015
1087	1.0806e+02	9.1858	21.232934	0.000172	1.718960	0.291200	-0.000017
1088	1.0816e+02	9.1779	21.212160	0.000209	2.087309	0.353600	-0.000021
1089	1.0826e+02	9.1705	21.195459	0.000168	1.678033	0.284266	-0.000017
1090	1.0836e+02	9.1586	21.177943	0.000176	1.759888	0.298133	-0.000018
1091	1.0845e+02	9.1495	21.162464	0.000156	1.555250	0.263466	-0.000016
1092	1.0855e+02	9.1382	21.143726	0.000188	1.882671	0.318933	-0.000019
1093	1.0865e+02	9.1281	21.126210	0.000176	1.759888	0.298133	-0.000018
1094	1.0875e+02	9.1199	21.109102	0.000172	1.718960	0.291200	-0.000017
1095	1.0885e+02	9.1098	21.089142	0.000201	2.005453	0.339733	-0.000020
1096	1.0895e+02	9.0979	21.067553	0.000217	2.169164	0.367466	-0.000022
1097	1.0905e+02	9.0881	21.049630	0.000180	1.800815	0.305066	-0.000018
1098	1.0915e+02	9.0799	21.032114	0.000176	1.759888	0.298133	-0.000018
1099	1.0925e+02	9.0710	21.010118	0.000221	2.210092	0.374400	-0.000022
1100	1.0935e+02	9.0626	20.989343	0.000209	2.087309	0.353600	-0.000021
1101	1.0945e+02	9.0504	20.966939	0.000225	2.251019	0.381333	-0.000023
1102	1.0955e+02	9.0390	20.948202	0.000188	1.882671	0.318933	-0.000019
1103	1.0965e+02	9.0296	20.922946	0.000254	2.537513	0.429866	-0.000025
1104	1.0975e+02	9.0191	20.903394	0.000196	1.964526	0.332800	-0.000020
1105	1.0985e+02	9.0104	20.884656	0.000188	1.882671	0.318933	-0.000019
1106	1.0995e+02	8.9990	20.863067	0.000217	2.169164	0.367466	-0.000022
1107	1.1005e+02	8.9916	20.841071	0.000221	2.210092	0.374400	-0.000022
1108	1.1015e+02	8.9803	20.816630	0.000246	2.455657	0.416000	-0.000025
1109	1.1025e+02	8.9690	20.799114	0.000176	1.759888	0.298133	-0.000018
1110	1.1035e+02	8.9600	20.775896	0.000233	2.332874	0.395200	-0.000023
1111	1.1044e+02	8.9483	20.752270	0.000237	2.373802	0.402133	-0.000024
1112	1.1054e+02	8.9391	20.731088	0.000213	2.128236	0.360533	-0.000021
1113	1.1064e+02	8.9294	20.707870	0.000233	2.332874	0.395200	-0.000023
1114	1.1074e+02	8.9215	20.685058	0.000229	2.291947	0.388266	-0.000023
1115	1.1084e+02	8.9099	20.663062	0.000221	2.210092	0.374400	-0.000022
1116	1.1094e+02	8.8967	20.641880	0.000213	2.128236	0.360533	-0.000021
1117	1.1104e+02	8.8870	20.621920	0.000201	2.005453	0.339733	-0.000020
1118	1.1114e+02	8.8788	20.598702	0.000233	2.332874	0.395200	-0.000023
1119	1.1124e+02	8.8714	20.573854	0.000250	2.496585	0.422933	-0.000025
1120	1.1134e+02	8.8638	20.553487	0.000205	2.046381	0.346666	-0.000020
1121	1.1144e+02	8.8496	20.532305	0.000213	2.128236	0.360533	-0.000021
1122	1.1154e+02	8.8397	20.510716	0.000217	2.169164	0.367466	-0.000022
1123	1.1164e+02	8.8311	20.486275	0.000246	2.455657	0.416000	-0.000025
1124	1.1174e+02	8.8204	20.466723	0.000196	1.964526	0.332800	-0.000020
1125	1.1184e+02	8.8114	20.445134	0.000217	2.169164	0.367466	-0.000022
1126	1.1194e+02	8.8029	20.426396	0.000188	1.882671	0.318933	-0.000019
1127	1.1204e+02	8.7917	20.403992	0.000225	2.251019	0.381333	-0.000023
1128	1.1214e+02	8.7815	20.379144	0.000250	2.496585	0.422933	-0.000025
1129	1.1224e+02	8.7722	20.358370	0.000209	2.087309	0.353600	-0.000021
1130	1.1234e+02	8.7611	20.338410	0.000201	2.005453	0.339733	-0.000020
1131	1.1244e+02	8.7511	20.315191	0.000233	2.332874	0.395200	-0.000023
1132	1.1253e+02	8.7393	20.289121	0.000262	2.619368	0.443733	-0.000026
1133	1.1263e+02	8.7323	20.268347	0.000209	2.087309	0.353600	-0.000021
1134	1.1273e+02	8.7207	20.245536	0.000229	2.291947	0.388266	-0.000023
1135	1.1283e+02	8.7138	20.221095	0.000246	2.455657	0.416000	-0.000025
1136	1.1293e+02	8.7025	20.196655	0.000246	2.455657	0.416000	-0.000025
1137	1.1303e+02	8.6924	20.173844	0.000229	2.291947	0.388266	-0.000023
1138	1.1313e+02	8.6829	20.154698	0.000192	1.923598	0.325866	-0.000019
1139	1.1323e+02	8.6745	20.128221	0.000266	2.660295	0.450666	-0.000027
1140	1.1333e+02	8.6607	20.110705	0.000176	1.759888	0.298133	-0.000018
1141	1.1343e+02	8.6499	20.084636	0.000262	2.619368	0.443733	-0.000026
1142	1.1353e+02	8.6427	20.063046	0.000217	2.169164	0.367466	-0.000022
1143	1.1363e+02	8.6346	20.042679	0.000205	2.046381	0.346666	-0.000020
1144	1.1373e+02	8.6230	20.016202	0.000266	2.660295	0.450666	-0.000027
1145	1.1383e+02	8.6127	19.990132	0.000262	2.619368	0.443733	-0.000026
1146	1.1393e+02	8.6014	19.970580	0.000196	1.964526	0.332800	-0.000020
1147	1.1403e+02	8.5889	19.944102	0.000266	2.660295	0.450666	-0.000027
1148	1.1413e+02	8.5807	19.923735	0.000205	2.046381	0.346666	-0.000020
1149	1.1423e+02	8.5735	19.896851	0.000270	2.701223	0.457600	-0.000027
1150	1.1433e+02	8.5624	19.872003	0.000250	2.496585	0.422933	-0.000025
1151	1.1442e+02	8.5509	19.842674	0.000295	2.946789	0.499200	-0.000029
1152	1.1452e+02	8.5401	19.822714	0.000201	2.005453	0.339733	-0.000020
1153	1.1462e+02	8.5342	19.796237	0.000266	2.660295	0.450666	-0.000027
1154	1.1472e+02	8.5235	19.772611	0.000237	2.373802	0.402133	-0.000024
1155	1.1482e+02	8.5140	19.747356	0.000254	2.537513	0.429866	-0.000025
1156	1.1492e+02	8.5019	19.717620	0.000299	2.987716	0.506133	-0.000030
1157	1.1502e+02	8.4924	19.696845	0.000209	2.087309	0.353600	-0.000021
1158	1.1512e+02	8.4801	19.671590	0.000254	2.537513	0.429866	-0.000025
1159	1.1522e+02	8.4711	19.647964	0.000237	2.373802	0.402133	-0.000024
1160	1.1532e+02	8.4631	19.622709	0.000254	2.537513	0.429866	-0.000025
1161	1.1542e+02	8.4553	19.595824	0.000270	2.701223	0.457600	-0.000027
1162	1.1552e+02	8.4437	19.575457	0.000205	2.046381	0.346666	-0.000020
1163	1.1562e+02	8.4336	19.545314	0.000303	3.028644	0.513066	-0.000030
1164	1.1572e+02	8.4233	19.520466	0.000250	2.496585	0.422933	-0.000025
1165	1.1582e+02	8.4111	19.494396	0.000262	2.619368	0.443733	-0.000026
1166	1.1592e+02	8.4017	19.470770	0.000237	2.373802	0.402133	-0.000024
1167	1.1602e+02	8.3916	19.443478	0.000274	2.742151	0.464533	-0.000027
1168	1.1612e+02	8.3839	19.420667	0.000229	2.291947	0.388266	-0.000023
1169	1.1622e+02	8.3733	19.395412	0.000254	2.537513	0.429866	-0.000025
1170	1.1632e+02	8.3630	19.372601	0.000229	2.291947	0.388266	-0.000023
1171	1.1642e+02	8.3536	19.352641	0.000201	2.005453	0.339733	-0.000020
1172	1.1651e+02	8.3439	19.328200	0.000246	2.455657	0.416000	-0.000025
1173	1.1661e+02	8.3341	19.304982	0.000233	2.332874	0.395200	-0.000023
1174	1.1671e+02	8.3229	19.275246	0.000299	2.987716	0.506133	-0.000030
1175	1.1681e+02	8.3131	19.249583	0.000258	2.578440	0.436800	-0.000026
1176	1.1691e+02	8.3057	19.227994	0.000217	2.169164	0.367466	-0.000022
1177	1.1701e+02	8.2954	19.202739	0.000254	2.537513	0.429866	-0.000025
1178	1.1711e+02	8.2846	19.180335	0.000225	2.251019	0.381333	-0.000023
1179	1.1721e+02	8.2753	19.156709	0.000237	2.373802	0.402133	-0.000024
1180	1.1731e+02	8.2647	19.131454	0.000254	2.537513	0.429866	-0.000025
1181	1.1741e+02	8.2525	19.109050	0.000225	2.251019	0.381333	-0.000023
1182	1.1751e+02	8.2426	19.087461	0.000217	2.169164	0.367466	-0.000022
1183	1.1761e+02	8.2353	19.066279	0.000213	2.128236	0.360533	-0.000021
1184	1.1771e+02	8.2253	19.045505	0.000209	2.087309	0.353600	-0.000021
1185	1.1781e+02	8.2126	19.023101	0.000225	2.251019	0.381333	-0.000023
1186	1.1791e+02	8.2056	18.999882	0.000233	2.332874	0.395200	-0.000023
1187	1.1801e+02	8.1925	18.972590	0.000274	2.742151	0.464533	-0.000027
1188	1.1811e+02	8.1860	18.954667	0.000180	1.800815	0.305066	-0.000018
1189	1.1821e+02	8.1745	18.929819	0.000250	2.496585	0.422933	-0.000025
1190	1.1831e+02	8.1644	18.905786	0.000241	2.414730	0.409066	-0.000024
1191	1.1841e+02	8.1550	18.882160	0.000237	2.373802	0.402133	-0.000024
1192	1.1850e+02	8.1449	18.859756	0.000225	2.251019	0.381333	-0.000023
1193	1.1860e+02	8.1354	18.834501	0.000254	2.537513	0.429866	-0.000025
1194	1.1870e+02	8.1251	18.814541	0.000201	2.005453	0.339733	-0.000020
1195	1.1880e+02	8.1163	18.796618	0.000180	1.800815	0.305066	-0.000018
1196	1.1890e+02	8.1048	18.770141	0.000266	2.660295	0.450666	-0.000027
1197	1.1900e+02	8.0957	18.743256	0.000270	2.701223	0.457600	-0.000027
1198	1.1910e+02	8.0847	18.723297	0.000201	2.005453	0.339733	-0.000020
1199	1.1920e+02	8.0746	18.701300	0.000221	2.210092	0.374400	-0.000022
1200	1.1930e+02	8.0647	18.673601	0.000278	2.783078	0.471466	-0.000028
1201	1.1940e+02	8.0538	18.651197	0.000225	2.251019	0.381333	-0.000023
1202	1.1950e+02	8.0453	18.626349	0.000250	2.496585	0.422933	-0.000025
1203	1.1960e+02	8.0341	18.603945	0.000225	2.251019	0.381333	-0.000023
1204	1.1970e+02	8.0247	18.578690	0.000254	2.537513	0.429866	-0.000025
1205	1.1980e+02	8.0157	18.552213	0.000266	2.660295	0.450666	-0.000027
1206	1.1990e+02	8.0054	18.526550	0.000258	2.578440	0.436800	-0.000026
1207	1.2000e+02	7.9932	18.502110	0.000246	2.455657	0.416000	-0.000025
1208	1.2010e+02	7.9852	18.471152	0.000311	3.110499	0.526933	-0.000031
1209	1.2020e+02	7.9764	18.454451	0.000168	1.678033	0.284266	-0.000017
1210	1.2030e+02	7.9662	18.424307	0.000303	3.028644	0.513066	-0.000030
1211	1.2039e+02	7.9554	18.397015	0.000274	2.742151	0.464533	-0.000027
1212	1.2049e+02	7.9434	18.371760	0.000254	2.537513	0.429866	-0.000025
1213	1.2059e+02	7.9358	18.345283	0.000266	2.660295	0.450666	-0.000027
1214	1.2069e+02	7.9275	18.321250	0.000241	2.414730	0.409066	-0.000024
1215	1.2079e+02	7.9124	18.295587	0.000258	2.578440	0.436800	-0.000026
1216	1.2089e+02	7.9058	18.271961	0.000237	2.373802	0.402133	-0.000024
1217	1.2099e+02	7.8942	18.243855	0.000282	2.824006	0.478400	-0.000028
1218	1.2109e+02	7.8876	18.219007	0.000250	2.496585	0.422933	-0.000025
1219	1.2119e+02	7.8760	18.193344	0.000258	2.578440	0.436800	-0.000026
1220	1.2129e+02	7.8662	18.166459	0.000270	2.701223	0.457600	-0.000027
1221	1.2139e+02	7.8545	18.141204	0.000254	2.537513	0.429866	-0.000025
1222	1.2149e+02	7.8450	18.115949	0.000254	2.537513	0.429866	-0.000025
1223	1.2159e+02	7.8352	18.086620	0.000295	2.946789	0.499200	-0.000029
1224	1.2169e+02	7.8255	18.060958	0.000258	2.578440	0.436800	-0.000026
1225	1.2179e+02	7.8149	18.036110	0.000250	2.496585	0.422933	-0.000025
1226	1.2189e+02	7.8047	18.008003	0.000282	2.824006	0.478400	-0.000028
1227	1.2199e+02	7.7955	17.981933	0.000262	2.619368	0.443733	-0.000026
1228	1.2209e+02	7.7856	17.955456	0.000266	2.660295	0.450666	-0.000027
1229	1.2219e+02	7.7743	17.929793	0.000258	2.578440	0.436800	-0.000026
1230	1.2229e+02	7.7663	17.904538	0.000254	2.537513	0.429866	-0.000025
1231	1.2239e+02	7.7552	17.877654	0.000270	2.701223	0.457600	-0.000027
1232	1.2248e+02	7.7468	17.850769	0.000270	2.701223	0.457600	-0.000027
1233	1.2258e+02	7.7344	17.824699	0.000262	2.619368	0.443733	-0.000026
1234	1.2268e+02	7.7268	17.801073	0.000237	2.373802	0.402133	-0.000024
1235	1.2278e+02	7.7155	17.777040	0.000241	2.414730	0.409066	-0.000024
1236	1.2288e+02	7.7053	17.748119	0.000291	2.905861	0.492266	-0.000029
1237	1.2298e+02	7.6954	17.720827	0.000274	2.742151	0.464533	-0.000027
1238	1.2308e+02	7.6862	17.695164	0.000258	2.578440	0.436800	-0.000026
1239	1.2318e+02	7.6775	17.668687	0.000266	2.660295	0.450666	-0.000027
1240	1.2328e+02	7.6685	17.644246	0.000246	2.455657	0.416000	-0.000025
1241	1.2338e+02	7.6555	17.618176	0.000262	2.619368	0.443733	-0.000026
1242	1.2348e+02	7.6443	17.591292	0.000270	2.701223	0.457600	-0.000027
1243	1.2358e+02	7.6360	17.566037	0.000254	2.537513	0.429866	-0.000025
1244	1.2368e+02	7.6251	17.537115	0.000291	2.905861	0.492266	-0.000029
1245	1.2378e+02	7.6156	17.513897	0.000233	2.332874	0.395200	-0.000023
1246	1.2388e+02	7.6043	17.491493	0.000225	2.251019	0.381333	-0.000023
1247	1.2398e+02	7.5987	17.463794	0.000278	2.783078	0.471466	-0.000028
1248	1.2408e+02	7.5886	17.437316	0.000266	2.660295	0.450666	-0.000027
1249	1.2418e+02	7.5757	17.413690	0.000237	2.373802	0.402133	-0.000024
1250	1.2428e+02	7.5661	17.387213	0.000266	2.660295	0.450666	-0.000027
1251	1.2438e+02	7.5578	17.360736	0.000266	2.660295	0.450666	-0.000027
1252	1.2447e+02	7.5474	17.330593	0.000303	3.028644	0.513066	-0.000030
1253	1.2457e+02	7.5382	17.300042	0.000307	3.069572	0.520000	-0.000031
1254	1.2467e+02	7.5293	17.274787	0.000254	2.537513	0.429866	-0.000025
1255	1.2477e+02	7.5172	17.243829	0.000311	3.110499	0.526933	-0.000031
1256	1.2487e+02	7.5062	17.214093	0.000299	2.987716	0.506133	-0.000030
1257	1.2497e+02	7.4965	17.187208	0.000270	2.701223	0.457600	-0.000027
1258	1.2507e+02	7.4886	17.159509	0.000278	2.783078	0.471466	-0.000028
1259	1.2517e+02	7.4780	17.130180	0.000295	2.946789	0.499200	-0.000029
1260	1.2527e+02	7.4667	17.099629	0.000307	3.069572	0.520000	-0.000031
1261	1.2537e+02	7.4604	17.074374	0.000254	2.537513	0.429866	-0.000025
1262	1.2547e+02	7.4477	17.046267	0.000282	2.824006	0.478400	-0.000028
1263	1.2557e+02	7.4382	17.017753	0.000286	2.864934	0.485333	-0.000029
1264	1.2567e+02	7.4295	16.987203	0.000307	3.069572	0.520000	-0.000031
1265	1.2577e+02	7.4183	16.958281	0.000291	2.905861	0.492266	-0.000029
1266	1.2587e+02	7.4083	16.928545	0.000299	2.987716	0.506133	-0.000030
1267	1.2597e+02	7.4003	16.893514	0.000352	3.519775	0.596266	-0.000035
1268	1.2607e+02	7.3893	16.865407	0.000282	2.824006	0.478400	-0.000028
1269	1.2617e+02	7.3798	16.836893	0.000286	2.864934	0.485333	-0.000029
1270	1.2627e+02	7.3689	16.802677	0.000344	3.437920	0.582399	-0.000034
1271	1.2636e+02	7.3574	16.772126	0.000307	3.069572	0.520000	-0.000031
1272	1.2646e+02	7.3498	16.739946	0.000323	3.233282	0.547733	-0.000032
1273	1.2656e+02	7.3377	16.710617	0.000295	2.946789	0.499200	-0.000029
1274	1.2666e+02	7.3272	16.678844	0.000319	3.192355	0.540799	-0.000032
1275	1.2676e+02	7.3197	16.649516	0.000295	2.946789	0.499200	-0.000029
1276	1.2686e+02	7.3104	16.614077	0.000356	3.560703	0.603199	-0.000036
1277	1.2696e+02	7.2979	16.587192	0.000270	2.701223	0.457600	-0.000027
1278	1.2706e+02	7.2904	16.555827	0.000315	3.151427	0.533866	-0.000032
1279	1.2716e+02	7.2794	16.521610	0.000344	3.437920	0.582399	-0.000034
1280	1.2726e+02	7.2675	16.491874	0.000299	2.987716	0.506133	-0.000030
1281	1.2736e+02	7.2607	16.460509	0.000315	3.151427	0.533866	-0.000032
1282	1.2746e+02	7.2457	16.427107	0.000336	3.356065	0.568533	-0.000034
1283	1.2756e+02	7.2401	16.396556	0.000307	3.069572	0.520000	-0.000031
1284	1.2766e+02	7.2326	16.366413	0.000303	3.028644	0.513066	-0.000030
1285	1.2776e+02	7.2195	16.337899	0.000286	2.864934	0.485333	-0.000029
1286	1.2786e+02	7.2093	16.307755	0.000303	3.028644	0.513066	-0.000030
1287	1.2796e+02	7.1991	16.277205	0.000307	3.069572	0.520000	-0.000031
1288	1.2806e+02	7.1881	16.249098	0.000282	2.824006	0.478400	-0.000028
1289	1.2816e+02	7.1796	16.215696	0.000336	3.356065	0.568533	-0.000034
1290	1.2826e+02	7.1706	16.183923	0.000319	3.192355	0.540799	-0.000032
1291	1.2835e+02	7.1587	16.152558	0.000315	3.151427	0.533866	-0.000032
1292	1.2845e+02	7.1478	16.124859	0.000278	2.783078	0.471466	-0.000028
1293	1.2855e+02	7.1413	16.095937	0.000291	2.905861	0.492266	-0.000029
1294	1.2865e+02	7.1319	16.063757	0.000323	3.233282	0.547733	-0.000032
1295	1.2875e+02	7.1214	16.032392	0.000315	3.151427	0.533866	-0.000032
1296	1.2885e+02	7.1110	16.003470	0.000291	2.905861	0.492266	-0.000029
1297	1.2895e+02	7.0986	15.970476	0.000332	3.315137	0.561599	-0.000033
1298	1.2905e+02	7.0910	15.943184	0.000274	2.742151	0.464533	-0.000027
1299	1.2915e+02	7.0779	15.911004	0.000323	3.233282	0.547733	-0.000032
1300	1.2925e+02	7.0673	15.883304	0.000278	2.783078	0.471466	-0.000028
1301	1.2935e+02	7.0588	15.847866	0.000356	3.560703	0.603199	-0.000036
1302	1.2945e+02	7.0486	15.823425	0.000246	2.455657	0.416000	-0.000025
1303	1.2955e+02	7.0406	15.790430	0.000332	3.315137	0.561599	-0.000033
1304	1.2965e+02	7.0321	15.759472	0.000311	3.110499	0.526933	-0.000031
1305	1.2975e+02	7.0190	15.729329	0.000303	3.028644	0.513066	-0.000030
1306	1.2985e+02	7.0117	15.697556	0.000319	3.192355	0.540799	-0.000032
1307	1.2995e+02	7.0000	15.671486	0.000262	2.619368	0.443733	-0.000026
1308	1.3005e+02	6.9903	15.638084	0.000336	3.356065	0.568533	-0.000034
1309	1.3015e+02	6.9811	15.609978	0.000282	2.824006	0.478400	-0.000028
1310	1.3025e+02	6.9717	15.581056	0.000291	2.905861	0.492266	-0.000029
1311	1.3034e+02	6.9585	15.550913	0.000303	3.028644	0.513066	-0.000030
1312	1.3044e+02	6.9524	15.519140	0.000319	3.192355	0.540799	-0.000032
1313	1.3054e+02	6.9395	15.493885	0.000254	2.537513	0.429866	-0.000025
1314	1.3064e+02	6.9324	15.459668	0.000344	3.437920	0.582399	-0.000034
1315	1.3074e+02	6.9231	15.428303	0.000315	3.151427	0.533866	-0.000032
1316	1.3084e+02	6.9112	15.395308	0.000332	3.315137	0.561599	-0.000033
1317	1.3094e+02	6.9018	15.363535	0.000319	3.192355	0.540799	-0.000032
1318	1.3104e+02	6.8890	15.332577	0.000311	3.110499	0.526933	-0.000031
1319	1.3114e+02	6.8822	15.296324	0.000364	3.642558	0.617066	-0.000036
1320	1.3124e+02	6.8725	15.267810	0.000286	2.864934	0.485333	-0.000029
1321	1.3134e+02	6.8615	15.239296	0.000286	2.864934	0.485333	-0.000029
1322	1.3144e+02	6.8526	15.206708	0.000327	3.274210	0.554666	-0.000033
1323	1.3154e+02	6.8434	15.178194	0.000286	2.864934	0.485333	-0.000029
1324	1.3164e+02	6.8342	15.143570	0.000348	3.478848	0.589333	-0.000035
1325	1.3174e+02	6.8188	15.115464	0.000282	2.824006	0.478400	-0.000028
1326	1.3184e+02	6.8087	15.080025	0.000356	3.560703	0.603199	-0.000036
1327	1.3194e+02	6.7994	15.049474	0.000307	3.069572	0.520000	-0.000031
1328	1.3204e+02	6.7890	15.013221	0.000364	3.642558	0.617066	-0.000036
1329	1.3214e+02	6.7856	14.980633	0.000327	3.274210	0.554666	-0.000033
1330	1.3224e+02	6.7730	14.948861	0.000319	3.192355	0.540799	-0.000032
1331	1.3234e+02	6.7608	14.917903	0.000311	3.110499	0.526933	-0.000031
1332	1.3243e+02	6.7509	14.887352	0.000307	3.069572	0.520000	-0.000031
1333	1.3253e+02	6.7412	14.855579	0.000319	3.192355	0.540799	-0.000032
1334	1.3263e+02	6.7316	14.824214	0.000315	3.151427	0.533866	-0.000032
1335	1.3273e+02	6.7205	14.792848	0.000315	3.151427	0.533866	-0.000032
1336	1.3283e+02	6.7101	14.761890	0.000311	3.110499	0.526933	-0.000031
1337	1.3293e+02	6.6992	14.732562	0.000295	2.946789	0.499200	-0.000029
1338	1.3303e+02	6.6938	14.705677	0.000270	2.701223	0.457600	-0.000027
1339	1.3313e+02	6.6795	14.669831	0.000360	3.601631	0.610133	-0.000036
1340	1.3323e+02	6.6741	14.643354	0.000266	2.660295	0.450666	-0.000027
1341	1.3333e+02	6.6602	14.612396	0.000311	3.110499	0.526933	-0.000031
1342	1.3343e+02	6.6518	14.580623	0.000319	3.192355	0.540799	-0.000032
1343	1.3353e+02	6.6412	14.551702	0.000291	2.905861	0.492266	-0.000029
1344	1.3363e+02	6.6332	14.519522	0.000323	3.233282	0.547733	-0.000032
1345	1.3373e+02	6.6219	14.487749	0.000319	3.192355	0.540799	-0.000032
1346	1.3383e+02	6.6132	14.456791	0.000311	3.110499	0.526933	-0.000031
1347	1.3393e+02	6.6041	14.433572	0.000233	2.332874	0.395200	-0.000023
1348	1.3403e+02	6.5941	14.401392	0.000323	3.233282	0.547733	-0.000032
1349	1.3413e+02	6.5825	14.373693	0.000278	2.783078	0.471466	-0.000028
1350	1.3423e+02	6.5748	14.343957	0.000299	2.987716	0.506133	-0.000030
1351	1.3432e+02	6.5615	14.319924	0.000241	2.414730	0.409066	-0.000024
1352	1.3442e+02	6.5520	14.289780	0.000303	3.028644	0.513066	-0.000030
1353	1.3452e+02	6.5435	14.259637	0.000303	3.028644	0.513066	-0.000030
1354	1.3462e+02	6.5343	14.230716	0.000291	2.905861	0.492266	-0.000029
1355	1.3472e+02	6.5203	14.204238	0.000266	2.660295	0.450666	-0.000027
1356	1.3482e+02	6.5136	14.174095	0.000303	3.028644	0.513066	-0.000030
1357	1.3492e+02	6.5029	14.145988	0.000282	2.824006	0.478400	-0.000028
1358	1.3502e+02	6.4931	14.116660	0.000295	2.946789	0.499200	-0.000029
1359	1.3512e+02	6.4812	14.088553	0.000282	2.824006	0.478400	-0.000028
1360	1.3522e+02	6.4721	14.058002	0.000307	3.069572	0.520000	-0.000031
1361	1.3532e+02	6.4611	14.031933	0.000262	2.619368	0.443733	-0.000026
1362	1.3542e+02	6.4532	13.999752	0.000323	3.233282	0.547733	-0.000032
1363	1.3552e+02	6.4434	13.975312	0.000246	2.455657	0.416000	-0.000025
1364	1.3562e+02	6.4318	13.947205	0.000282	2.824006	0.478400	-0.000028
1365	1.3572e+02	6.4257	13.917469	0.000299	2.987716	0.506133	-0.000030
1366	1.3582e+02	6.4123	13.884882	0.000327	3.274210	0.554666	-0.000033
1367	1.3592e+02	6.4017	13.857590	0.000274	2.742151	0.464533	-0.000027
1368	1.3602e+02	6.3946	13.826632	0.000311	3.110499	0.526933	-0.000031
1369	1.3612e+02	6.3884	13.795674	0.000311	3.110499	0.526933	-0.000031
1370	1.3622e+02	6.3729	13.768789	0.000270	2.701223	0.457600	-0.000027
1371	1.3631e+02	6.3616	13.735795	0.000332	3.315137	0.561599	-0.000033
1372	1.3641e+02	6.3528	13.706059	0.000299	2.987716	0.506133	-0.000030
1373	1.3651e+02	6.3428	13.676322	0.000299	2.987716	0.506133	-0.000030
1374	1.3661e+02	6.3345	13.648623	0.000278	2.783078	0.471466	-0.000028
1375	1.3671e+02	6.3239	13.615221	0.000336	3.356065	0.568533	-0.000034
1376	1.3681e+02	6.3135	13.578968	0.000364	3.642558	0.617066	-0.000036
1377	1.3691e+02	6.3031	13.549639	0.000295	2.946789	0.499200	-0.000029
1378	1.3701e+02	6.2939	13.522347	0.000274	2.742151	0.464533	-0.000027
1379	1.3711e+02	6.2862	13.493833	0.000286	2.864934	0.485333	-0.000029
1380	1.3721e+02	6.2740	13.460024	0.000340	3.396993	0.575466	-0.000034
1381	1.3731e+02	6.2659	13.428658	0.000315	3.151427	0.533866	-0.000032
1382	1.3741e+02	6.2554	13.397700	0.000311	3.110499	0.526933	-0.000031
1383	1.3751e+02	6.2472	13.364705	0.000332	3.315137	0.561599	-0.000033
1384	1.3761e+02	6.2324	13.337821	0.000270	2.701223	0.457600	-0.000027
1385	1.3771e+02	6.2257	13.312973	0.000250	2.496585	0.422933	-0.000025
1386	1.3781e+02	6.2154	13.277127	0.000360	3.601631	0.610133	-0.000036
1387	1.3791e+02	6.2058	13.242095	0.000352	3.519775	0.596266	-0.000035
1388	1.3801e+02	6.1953	13.210323	0.000319	3.192355	0.540799	-0.000032
1389	1.3811e+02	6.1858	13.180994	0.000295	2.946789	0.499200	-0.000029
1390	1.3821e+02	6.1745	13.150851	0.000303	3.028644	0.513066	-0.000030
1391	1.3831e+02	6.1631	13.118263	0.000327	3.274210	0.554666	-0.000033
1392	1.3840e+02	6.1556	13.086083	0.000323	3.233282	0.547733	-0.000032
1393	1.3850e+02	6.1445	13.054310	0.000319	3.192355	0.540799	-0.000032
1394	1.3860e+02	6.1371	13.019686	0.000348	3.478848	0.589333	-0.000035
1395	1.3870e+02	6.1236	12.989543	0.000303	3.028644	0.513066	-0.000030
1396	1.3880e+02	6.1177	12.956956	0.000327	3.274210	0.554666	-0.000033
1397	1.3890e+02	6.1047	12.921924	0.000352	3.519775	0.596266	-0.000035
1398	1.3900e+02	6.0918	12.896262	0.000258	2.578440	0.436800	-0.000026
1399	1.3910e+02	6.0891	12.863267	0.000332	3.315137	0.561599	-0.000033
1400	1.3920e+02	6.0738	12.835567	0.000278	2.783078	0.471466	-0.000028
1401	1.3930e+02	6.0622	12.797685	0.000381	3.806269	0.644799	-0.000038
1402	1.3940e+02	6.0548	12.772022	0.000258	2.578440	0.436800	-0.000026
1403	1.3950e+02	6.0461	12.737805	0.000344	3.437920	0.582399	-0.000034
1404	1.3960e+02	6.0356	12.710106	0.000278	2.783078	0.471466	-0.000028
1405	1.3970e+02	6.0262	12.680370	0.000299	2.987716	0.506133	-0.000030
1406	1.3980e+02	6.0149	12.645338	0.000352	3.519775	0.596266	-0.000035
1407	1.3990e+02	6.0043	12.617232	0.000282	2.824006	0.478400	-0.000028
1408	1.4000e+02	5.9939	12.585459	0.000319	3.192355	0.540799	-0.000032
1409	1.4010e+02	5.9859	12.553686	0.000319	3.192355	0.540799	-0.000032
1410	1.4020e+02	5.9751	12.522321	0.000315	3.151427	0.533866	-0.000032
1411	1.4029e+02	5.9666	12.492992	0.000295	2.946789	0.499200	-0.000029
1412	1.4039e+02	5.9573	12.462442	0.000307	3.069572	0.520000	-0.000031
1413	1.4049e+02	5.9481	12.428225	0.000344	3.437920	0.582399	-0.000034
1414	1.4059e+02	5.9382	12.398489	0.000299	2.987716	0.506133	-0.000030
1415	1.4069e+02	5.9261	12.365902	0.000327	3.274210	0.554666	-0.000033
1416	1.4079e+02	5.9182	12.339017	0.000270	2.701223	0.457600	-0.000027
1417	1.4089e+02	5.9055	12.306022	0.000332	3.315137	0.561599	-0.000033
1418	1.4099e+02	5.8959	12.275879	0.000303	3.028644	0.513066	-0.000030
1419	1.4109e+02	5.8883	12.241662	0.000344	3.437920	0.582399	-0.000034
1420	1.4119e+02	5.8769	12.208260	0.000336	3.356065	0.568533	-0.000034
1421	1.4129e+02	5.8666	12.170784	0.000377	3.765341	0.637866	-0.000038
1422	1.4139e+02	5.8540	12.137382	0.000336	3.356065	0.568533	-0.000034
1423	1.4149e+02	5.8460	12.105202	0.000323	3.233282	0.547733	-0.000032
1424	1.4159e+02	5.8356	12.072615	0.000327	3.274210	0.554666	-0.000033
1425	1.4169e+02	5.8253	12.039213	0.000336	3.356065	0.568533	-0.000034
1426	1.4179e+02	5.8143	12.010699	0.000286	2.864934	0.485333	-0.000029
1427	1.4189e+02	5.8076	11.976075	0.000348	3.478848	0.589333	-0.000035
1428	1.4199e+02	5.7972	11.942265	0.000340	3.396993	0.575466	-0.000034
1429	1.4209e+02	5.7880	11.906012	0.000364	3.642558	0.617066	-0.000036
1430	1.4219e+02	5.7772	11.877498	0.000286	2.864934	0.485333	-0.000029
1431	1.4228e+02	5.7681	11.840022	0.000377	3.765341	0.637866	-0.000038
1432	1.4238e+02	5.7569	11.802139	0.000381	3.806269	0.644799	-0.000038
1433	1.4248e+02	5.7481	11.770367	0.000319	3.192355	0.540799	-0.000032
1434	1.4258e+02	5.7375	11.732484	0.000381	3.806269	0.644799	-0.000038
1435	1.4268e+02	5.7270	11.697860	0.000348	3.478848	0.589333	-0.000035
1436	1.4278e+02	5.7168	11.657940	0.000401	4.010907	0.679466	-0.000040
1437	1.4288e+02	5.7072	11.627797	0.000303	3.028644	0.513066	-0.000030
1438	1.4298e+02	5.6965	11.589099	0.000389	3.888124	0.658666	-0.000039
1439	1.4308e+02	5.6882	11.554068	0.000352	3.519775	0.596266	-0.000035
1440	1.4318e+02	5.6738	11.514963	0.000393	3.929052	0.665599	-0.000039
1441	1.4328e+02	5.6663	11.481968	0.000332	3.315137	0.561599	-0.000033
1442	1.4338e+02	5.6594	11.445307	0.000368	3.683486	0.623999	-0.000037
1443	1.4348e+02	5.6477	11.410276	0.000352	3.519775	0.596266	-0.000035
1444	1.4358e+02	5.6359	11.377688	0.000327	3.274210	0.554666	-0.000033
1445	1.4368e+02	5.6277	11.335732	0.000422	4.215545	0.714133	-0.000042
1446	1.4378e+02	5.6135	11.297442	0.000385	3.847196	0.651733	-0.000038
1447	1.4388e+02	5.6079	11.262411	0.000352	3.519775	0.596266	-0.000035
1448	1.4398e+02	5.5976	11.229008	0.000336	3.356065	0.568533	-0.000034
1449	1.4408e+02	5.5880	11.192755	0.000364	3.642558	0.617066	-0.000036
1450	1.4418e+02	5.5788	11.154872	0.000381	3.806269	0.644799	-0.000038
1451	1.4428e+02	5.5691	11.121877	0.000332	3.315137	0.561599	-0.000033
1452	1.4437e+02	5.5584	11.081143	0.000409	4.092762	0.693333	-0.000041
1453	1.4447e+02	5.5470	11.048148	0.000332	3.315137	0.561599	-0.000033
1454	1.4457e+02	5.5376	11.015561	0.000327	3.274210	0.554666	-0.000033
1455	1.4467e+02	5.5285	10.978493	0.000372	3.724414	0.630933	-0.000037
1456	1.4477e+02	5.5181	10.941832	0.000368	3.683486	0.623999	-0.000037
1457	1.4487e+02	5.5080	10.903949	0.000381	3.806269	0.644799	-0.000038
1458	1.4497e+02	5.4998	10.869732	0.000344	3.437920	0.582399	-0.000034
1459	1.4507e+02	5.4884	10.834294	0.000356	3.560703	0.603199	-0.000036
1460	1.4517e+02	5.4766	10.798855	0.000356	3.560703	0.603199	-0.000036
1461	1.4527e+02	5.4681	10.767082	0.000319	3.192355	0.540799	-0.000032
1462	1.4537e+02	5.4577	10.728384	0.000389	3.888124	0.658666	-0.000039
1463	1.4547e+02	5.4456	10.690909	0.000377	3.765341	0.637866	-0.000038
1464	1.4557e+02	5.4375	10.659951	0.000311	3.110499	0.526933	-0.000031
1465	1.4567e+02	5.4273	10.622883	0.000372	3.724414	0.630933	-0.000037
1466	1.4577e+02	5.4163	10.586222	0.000368	3.683486	0.623999	-0.000037
1467	1.4587e+02	5.4083	10.550783	0.000356	3.560703	0.603199	-0.000036
1468	1.4597e+02	5.3971	10.520640	0.000303	3.028644	0.513066	-0.000030
1469	1.4607e+02	5.3849	10.483164	0.000377	3.765341	0.637866	-0.000038
1470	1.4617e+02	5.3786	10.446503	0.000368	3.683486	0.623999	-0.000037
1471	1.4626e+02	5.3698	10.413916	0.000327	3.274210	0.554666	-0.000033
1472	1.4636e+02	5.3580	10.376848	0.000372	3.724414	0.630933	-0.000037
1473	1.4646e+02	5.3493	10.345482	0.000315	3.151427	0.533866	-0.000032
1474	1.4656e+02	5.3387	10.307192	0.000385	3.847196	0.651733	-0.000038
1475	1.4666e+02	5.3283	10.270531	0.000368	3.683486	0.623999	-0.000037
1476	1.4676e+02	5.3209	10.234278	0.000364	3.642558	0.617066	-0.000036
1477	1.4686e+02	5.3122	10.202098	0.000323	3.233282	0.547733	-0.000032
1478	1.4696e+02	5.2996	10.168288	0.000340	3.396993	0.575466	-0.000034
1479	1.4706e+02	5.2892	10.131220	0.000372	3.724414	0.630933	-0.000037
1480	1.4716e+02	5.2781	10.096596	0.000348	3.478848	0.589333	-0.000035
1481	1.4726e+02	5.2706	10.063194	0.000336	3.356065	0.568533	-0.000034
1482	1.4736e+02	5.2600	10.024904	0.000385	3.847196	0.651733	-0.000038
1483	1.4746e+02	5.2491	9.991502	0.000336	3.356065	0.568533	-0.000034
1484	1.4756e+02	5.2430	9.952804	0.000389	3.888124	0.658666	-0.000039
1485	1.4766e+02	5.2303	9.916143	0.000368	3.683486	0.623999	-0.000037
1486	1.4776e+02	5.2190	9.879483	0.000368	3.683486	0.623999	-0.000037
1487	1.4786e+02	5.2096	9.842007	0.000377	3.765341	0.637866	-0.000038
1488	1.4796e+02	5.2010	9.804124	0.000381	3.806269	0.644799	-0.000038
1489	1.4806e+02	5.1888	9.770315	0.000340	3.396993	0.575466	-0.000034
1490	1.4816e+02	5.1781	9.731617	0.000389	3.888124	0.658666	-0.000039
1491	1.4825e+02	5.1667	9.697400	0.000344	3.437920	0.582399	-0.000034
1492	1.4835e+02	5.1591	9.661147	0.000364	3.642558	0.617066	-0.000036
1493	1.4845e+02	5.1501	9.624486	0.000368	3.683486	0.623999	-0.000037
1494	1.4855e+02	5.1402	9.584567	0.000401	4.010907	0.679466	-0.000040
1495	1.4865e+02	5.1277	9.549128	0.000356	3.560703	0.603199	-0.000036
1496	1.4875e+02	5.1226	9.516540	0.000327	3.274210	0.554666	-0.000033
1497	1.4885e+02	5.1086	9.475399	0.000413	4.133690	0.700266	-0.000041
1498	1.4895e+02	5.0996	9.437109	0.000385	3.847196	0.651733	-0.000038
1499	1.4905e+02	5.0887	9.400040	0.000372	3.724414	0.630933	-0.000037
1500	1.4915e+02	5.0799	9.359306	0.000409	4.092762	0.693333	-0.000041
1501	1.4925e+02	5.0726	9.328348	0.000311	3.110499	0.526933	-0.000031
1502	1.4935e+02	5.0600	9.289243	0.000393	3.929052	0.665599	-0.000039
1503	1.4945e+02	5.0509	9.255841	0.000336	3.356065	0.568533	-0.000034
1504	1.4955e+02	5.0415	9.218773	0.000372	3.724414	0.630933	-0.000037
1505	1.4965e+02	5.0291	9.187000	0.000319	3.192355	0.540799	-0.000032
1506	1.4975e+02	5.0217	9.152783	0.000344	3.437920	0.582399	-0.000034
1507	1.4985e+02	5.0118	9.121011	0.000319	3.192355	0.540799	-0.000032
1508	1.4995e+02	5.0011	9.083128	0.000381	3.806269	0.644799	-0.000038
1509	1.5005e+02	4.9932	9.052170	0.000311	3.110499	0.526933	-0.000031
1510	1.5015e+02	4.9785	9.012250	0.000401	4.010907	0.679466	-0.000040
1511	1.5025e+02	4.9703	8.978034	0.000344	3.437920	0.582399	-0.000034
1512	1.5034e+02	4.9601	8.940558	0.000377	3.765341	0.637866	-0.000038
1513	1.5044e+02	4.9505	8.906749	0.000340	3.396993	0.575466	-0.000034
1514	1.5054e+02	4.9398	8.869680	0.000372	3.724414	0.630933	-0.000037
1515	1.5064e+02	4.9328	8.832205	0.000377	3.765341	0.637866	-0.000038
1516	1.5074e+02	4.9200	8.800432	0.000319	3.192355	0.540799	-0.000032
1517	1.5084e+02	4.9121	8.765808	0.000348	3.478848	0.589333	-0.000035
1518	1.5094e+02	4.9017	8.734035	0.000319	3.192355	0.540799	-0.000032
1519	1.5104e+02	4.8890	8.707558	0.000266	2.660295	0.450666	-0.000027
1520	1.5114e+02	4.8826	8.667638	0.000401	4.010907	0.679466	-0.000040
1521	1.5124e+02	4.8725	8.638310	0.000295	2.946789	0.499200	-0.000029
1522	1.5134e+02	4.8639	8.604500	0.000340	3.396993	0.575466	-0.000034
1523	1.5144e+02	4.8508	8.565803	0.000389	3.888124	0.658666	-0.000039
1524	1.5154e+02	4.8391	8.531179	0.000348	3.478848	0.589333	-0.000035
1525	1.5164e+02	4.8302	8.498999	0.000323	3.233282	0.547733	-0.000032
1526	1.5174e+02	4.8209	8.464375	0.000348	3.478848	0.589333	-0.000035
1527	1.5184e+02	4.8135	8.431787	0.000327	3.274210	0.554666	-0.000033
1528	1.5194e+02	4.8031	8.399607	0.000323	3.233282	0.547733	-0.000032
1529	1.5204e+02	4.7941	8.364576	0.000352	3.519775	0.596266	-0.000035
1530	1.5214e+02	4.7826	8.329544	0.000352	3.519775	0.596266	-0.000035
1531	1.5224e+02	4.7692	8.294920	0.000348	3.478848	0.589333	-0.000035
1532	1.5233e+02	4.7630	8.263962	0.000311	3.110499	0.526933	-0.000031
1533	1.5243e+02	4.7530	8.228116	0.000360	3.601631	0.610133	-0.000036
1534	1.5253e+02	4.7385	8.195121	0.000332	3.315137	0.561599	-0.000033
1535	1.5263e+02	4.7318	8.163756	0.000315	3.151427	0.533866	-0.000032
1536	1.5273e+02	4.7223	8.126280	0.000377	3.765341	0.637866	-0.000038
1537	1.5283e+02	4.7116	8.087990	0.000385	3.847196	0.651733	-0.000038
1538	1.5293e+02	4.7055	8.056217	0.000319	3.192355	0.540799	-0.000032
1539	1.5303e+02	4.6946	8.019149	0.000372	3.724414	0.630933	-0.000037
1540	1.5313e+02	4.6818	7.984118	0.000352	3.519775	0.596266	-0.000035
1541	1.5323e+02	4.6722	7.948272	0.000360	3.601631	0.610133	-0.000036
1542	1.5333e+02	4.6627	7.910389	0.000381	3.806269	0.644799	-0.000038
1543	1.5343e+02	4.6503	7.876579	0.000340	3.396993	0.575466	-0.000034
1544	1.5353e+02	4.6456	7.840326	0.000364	3.642558	0.617066	-0.000036
1545	1.5363e+02	4.6313	7.802036	0.000385	3.847196	0.651733	-0.000038
1546	1.5373e+02	4.6230	7.764153	0.000381	3.806269	0.644799	-0.000038
1547	1.5383e+02	4.6128	7.727085	0.000372	3.724414	0.630933	-0.000037
1548	1.5393e+02	4.6029	7.694090	0.000332	3.315137	0.561599	-0.000033
1549	1.5403e+02	4.5923	7.657836	0.000364	3.642558	0.617066	-0.000036
1550	1.5413e+02	4.5850	7.619546	0.000385	3.847196	0.651733	-0.000038
1551	1.5422e+02	4.5748	7.583700	0.000360	3.601631	0.610133	-0.000036
1552	1.5432e+02	4.5631	7.551113	0.000327	3.274210	0.554666	-0.000033
1553	1.5442e+02	4.5536	7.512822	0.000385	3.847196	0.651733	-0.000038
1554	1.5452e+02	4.5428	7.472495	0.000405	4.051835	0.686399	-0.000041
1555	1.5462e+02	4.5350	7.437464	0.000352	3.519775	0.596266	-0.000035
1556	1.5472e+02	4.5238	7.405691	0.000319	3.192355	0.540799	-0.000032
1557	1.5482e+02	4.5107	7.363735	0.000422	4.215545	0.714133	-0.000042
1558	1.5492e+02	4.5015	7.329111	0.000348	3.478848	0.589333	-0.000035
1559	1.5502e+02	4.4939	7.290413	0.000389	3.888124	0.658666	-0.000039
1560	1.5512e+02	4.4816	7.258233	0.000323	3.233282	0.547733	-0.000032
1561	1.5522e+02	4.4719	7.217906	0.000405	4.051835	0.686399	-0.000041
1562	1.5532e+02	4.4644	7.178801	0.000393	3.929052	0.665599	-0.000039
1563	1.5542e+02	4.4531	7.143363	0.000356	3.560703	0.603199	-0.000036
1564	1.5552e+02	4.4450	7.107924	0.000356	3.560703	0.603199	-0.000036
1565	1.5562e+02	4.4353	7.069226	0.000389	3.888124	0.658666	-0.000039
1566	1.5572e+02	4.4243	7.030529	0.000389	3.888124	0.658666	-0.000039
1567	1.5582e+02	4.4133	6.997534	0.000332	3.315137	0.561599	-0.000033
1568	1.5592e+02	4.4009	6.963317	0.000344	3.437920	0.582399	-0.000034
1569	1.5602e+02	4.3917	6.925027	0.000385	3.847196	0.651733	-0.000038
1570	1.5612e+02	4.3843	6.889996	0.000352	3.519775	0.596266	-0.000035
1571	1.5622e+02	4.3751	6.856186	0.000340	3.396993	0.575466	-0.000034
1572	1.5631e+02	4.3623	6.817489	0.000389	3.888124	0.658666	-0.000039
1573	1.5641e+02	4.3534	6.780828	0.000368	3.683486	0.623999	-0.000037
1574	1.5651e+02	4.3443	6.741723	0.000393	3.929052	0.665599	-0.000039
1575	1.5661e+02	4.3344	6.705062	0.000368	3.683486	0.623999	-0.000037
1576	1.5671e+02	4.3250	6.670031	0.000352	3.519775	0.596266	-0.000035
1577	1.5681e+02	4.3148	6.631333	0.000389	3.888124	0.658666	-0.000039
1578	1.5691e+02	4.3082	6.595080	0.000364	3.642558	0.617066	-0.000036
1579	1.5701e+02	4.2939	6.559641	0.000356	3.560703	0.603199	-0.000036
1580	1.5711e+02	4.2833	6.520129	0.000397	3.969979	0.672533	-0.000040
1581	1.5721e+02	4.2754	6.483875	0.000364	3.642558	0.617066	-0.000036
1582	1.5731e+02	4.2639	6.452102	0.000319	3.192355	0.540799	-0.000032
1583	1.5741e+02	4.2551	6.412590	0.000397	3.969979	0.672533	-0.000040
1584	1.5751e+02	4.2442	6.380003	0.000327	3.274210	0.554666	-0.000033
1585	1.5761e+02	4.2356	6.339676	0.000405	4.051835	0.686399	-0.000041
1586	1.5771e+02	4.2247	6.303422	0.000364	3.642558	0.617066	-0.000036
1587	1.5781e+02	4.2136	6.263095	0.000405	4.051835	0.686399	-0.000041
1588	1.5791e+02	4.2039	6.225620	0.000377	3.765341	0.637866	-0.000038
1589	1.5801e+02	4.1938	6.185700	0.000401	4.010907	0.679466	-0.000040
1590	1.5811e+02	4.1857	6.148632	0.000372	3.724414	0.630933	-0.000037
1591	1.5821e+02	4.1749	6.109527	0.000393	3.929052	0.665599	-0.000039
1592	1.5830e+02	4.1636	6.070830	0.000389	3.888124	0.658666	-0.000039
1593	1.5840e+02	4.1546	6.032132	0.000389	3.888124	0.658666	-0.000039
1594	1.5850e+02	4.1429	5.991398	0.000409	4.092762	0.693333	-0.000041
1595	1.5860e+02	4.1358	5.948627	0.000430	4.297400	0.727999	-0.000043
1596	1.5870e+02	4.1210	5.916447	0.000323	3.233282	0.547733	-0.000032
1597	1.5880e+02	4.1174	5.878157	0.000385	3.847196	0.651733	-0.000038
1598	1.5890e+02	4.1044	5.838644	0.000397	3.969979	0.672533	-0.000040
1599	1.5900e+02	4.0920	5.798318	0.000405	4.051835	0.686399	-0.000041
1600	1.5910e+02	4.0835	5.753103	0.000454	4.542966	0.769599	-0.000045
1601	1.5920e+02	4.0755	5.713998	0.000393	3.929052	0.665599	-0.000039
1602	1.5930e+02	4.0671	5.672449	0.000417	4.174617	0.707199	-0.000042
1603	1.5940e+02	4.0554	5.630900	0.000417	4.174617	0.707199	-0.000042
1604	1.5950e+02	4.0481	5.589351	0.000417	4.174617	0.707199	-0.000042
1605	1.5960e+02	4.0377	5.550653	0.000389	3.888124	0.658666	-0.000039
1606	1.5970e+02	4.0273	5.504624	0.000462	4.624821	0.783466	-0.000046
1607	1.5980e+02	4.0188	5.465926	0.000389	3.888124	0.658666	-0.000039
1608	1.5990e+02	4.0054	5.423155	0.000430	4.297400	0.727999	-0.000043
1609	1.6000e+02	3.9994	5.382421	0.000409	4.092762	0.693333	-0.000041
1610	1.6010e+02	3.9856	5.341687	0.000409	4.092762	0.693333	-0.000041
1611	1.6019e+02	3.9760	5.300545	0.000413	4.133690	0.700266	-0.000041
1612	1.6029e+02	3.9674	5.256959	0.000438	4.379256	0.741866	-0.000044
1613	1.6039e+02	3.9543	5.217447	0.000397	3.969979	0.672533	-0.000040
1614	1.6049e+02	3.9472	5.173454	0.000442	4.420183	0.748799	-0.000044
1615	1.6059e+02	3.9358	5.128239	0.000454	4.542966	0.769599	-0.000045
1616	1.6069e+02	3.9248	5.087097	0.000413	4.133690	0.700266	-0.000041
1617	1.6079e+02	3.9152	5.047178	0.000401	4.010907	0.679466	-0.000040
1618	1.6089e+02	3.9077	5.005629	0.000417	4.174617	0.707199	-0.000042
1619	1.6099e+02	3.8968	4.965302	0.000405	4.051835	0.686399	-0.000041
1620	1.6109e+02	3.8864	4.923346	0.000422	4.215545	0.714133	-0.000042
1621	1.6119e+02	3.8758	4.882204	0.000413	4.133690	0.700266	-0.000041
1622	1.6129e+02	3.8676	4.843099	0.000393	3.929052	0.665599	-0.000039
1623	1.6139e+02	3.8564	4.800328	0.000430	4.297400	0.727999	-0.000043
1624	1.6149e+02	3.8448	4.756743	0.000438	4.379256	0.741866	-0.000044
1625	1.6159e+02	3.8361	4.715601	0.000413	4.133690	0.700266	-0.000041
1626	1.6169e+02	3.8285	4.678533	0.000372	3.724414	0.630933	-0.000037
1627	1.6179e+02	3.8177	4.636577	0.000422	4.215545	0.714133	-0.000042
1628	1.6189e+02	3.8052	4.592584	0.000442	4.420183	0.748799	-0.000044
1629	1.6199e+02	3.7969	4.556330	0.000364	3.642558	0.617066	-0.000036
1630	1.6209e+02	3.7875	4.511930	0.000446	4.461111	0.755733	-0.000045
1631	1.6219e+02	3.7778	4.471196	0.000409	4.092762	0.693333	-0.000041
1632	1.6228e+02	3.7704	4.426795	0.000446	4.461111	0.755733	-0.000045
1633	1.6238e+02	3.7580	4.394208	0.000327	3.274210	0.554666	-0.000033
1634	1.6248e+02	3.7472	4.348993	0.000454	4.542966	0.769599	-0.000045
1635	1.6258e+02	3.7363	4.307444	0.000417	4.174617	0.707199	-0.000042
1636	1.6268e+02	3.7258	4.267524	0.000401	4.010907	0.679466	-0.000040
1637	1.6278e+02	3.7188	4.227605	0.000401	4.010907	0.679466	-0.000040
1638	1.6288e+02	3.7078	4.184426	0.000434	4.338328	0.734933	-0.000043
1639	1.6298e+02	3.6964	4.142063	0.000426	4.256473	0.721066	-0.000043
1640	1.6308e+02	3.6876	4.104995	0.000372	3.724414	0.630933	-0.000037
1641	1.6318e+02	3.6771	4.061002	0.000442	4.420183	0.748799	-0.000044
1642	1.6328e+02	3.6663	4.021082	0.000401	4.010907	0.679466	-0.000040
1643	1.6338e+02	3.6613	3.981570	0.000397	3.969979	0.672533	-0.000040
1644	1.6348e+02	3.6481	3.937984	0.000438	4.379256	0.741866	-0.000044
1645	1.6358e+02	3.6373	3.899287	0.000389	3.888124	0.658666	-0.000039
1646	1.6368e+02	3.6269	3.857738	0.000417	4.174617	0.707199	-0.000042
1647	1.6378e+02	3.6169	3.819040	0.000389	3.888124	0.658666	-0.000039
1648	1.6388e+02	3.6103	3.775047	0.000442	4.420183	0.748799	-0.000044
1649	1.6398e+02	3.5971	3.735942	0.000393	3.929052	0.665599	-0.000039
1650	1.6408e+02	3.5865	3.693986	0.000422	4.215545	0.714133	-0.000042
1651	1.6418e+02	3.5784	3.650808	0.000434	4.338328	0.734933	-0.000043
1652	1.6427e+02	3.5708	3.608851	0.000422	4.215545	0.714133	-0.000042
1653	1.6437e+02	3.5601	3.562822	0.000462	4.624821	0.783466	-0.000046
1654	1.6447e+02	3.5470	3.520458	0.000426	4.256473	0.721066	-0.000043
1655	1.6457e+02	3.5368	3.476872	0.000438	4.379256	0.741866	-0.000044
1656	1.6467e+02	3.5288	3.432472	0.000446	4.461111	0.755733	-0.000045
1657	1.6477e+02	3.5181	3.392145	0.000405	4.051835	0.686399	-0.000041
1658	1.6487e+02	3.5069	3.349781	0.000426	4.256473	0.721066	-0.000043
1659	1.6497e+02	3.4961	3.306603	0.000434	4.338328	0.734933	-0.000043
1660	1.6507e+02	3.4867	3.267498	0.000393	3.929052	0.665599	-0.000039
1661	1.6517e+02	3.4784	3.222691	0.000450	4.502038	0.762666	-0.000045
1662	1.6527e+02	3.4689	3.181142	0.000417	4.174617	0.707199	-0.000042
1663	1.6537e+02	3.4597	3.138778	0.000426	4.256473	0.721066	-0.000043
1664	1.6547e+02	3.4499	3.097229	0.000417	4.174617	0.707199	-0.000042
1665	1.6557e+02	3.4396	3.050385	0.000471	4.706677	0.797333	-0.000047
1666	1.6567e+02	3.4267	3.009243	0.000413	4.133690	0.700266	-0.000041
1667	1.6577e+02	3.4197	2.964843	0.000446	4.461111	0.755733	-0.000045
1668	1.6587e+02	3.4097	2.920850	0.000442	4.420183	0.748799	-0.000044
1669	1.6597e+02	3.3990	2.878486	0.000426	4.256473	0.721066	-0.000043
1670	1.6607e+02	3.3871	2.837752	0.000409	4.092762	0.693333	-0.000041
1671	1.6616e+02	3.3784	2.798240	0.000397	3.969979	0.672533	-0.000040
1672	1.6626e+02	3.3679	2.758320	0.000401	4.010907	0.679466	-0.000040
1673	1.6636e+02	3.3596	2.713920	0.000446	4.461111	0.755733	-0.000045
1674	1.6646e+02	3.3511	2.676444	0.000377	3.765341	0.637866	-0.000038
1675	1.6656e+02	3.3400	2.631637	0.000450	4.502038	0.762666	-0.000045
1676	1.6666e+02	3.3294	2.592939	0.000389	3.888124	0.658666	-0.000039
1677	1.6676e+02	3.3176	2.554241	0.000389	3.888124	0.658666	-0.000039
1678	1.6686e+02	3.3086	2.506990	0.000475	4.747604	0.804266	-0.000047
1679	1.6696e+02	3.2984	2.466663	0.000405	4.051835	0.686399	-0.000041
1680	1.6706e+02	3.2897	2.422670	0.000442	4.420183	0.748799	-0.000044
1681	1.6716e+02	3.2796	2.385602	0.000372	3.724414	0.630933	-0.000037
1682	1.6726e+02	3.2702	2.343238	0.000426	4.256473	0.721066	-0.000043
1683	1.6736e+02	3.2598	2.302504	0.000409	4.092762	0.693333	-0.000041
1684	1.6746e+02	3.2502	2.259733	0.000430	4.297400	0.727999	-0.000043
1685	1.6756e+02	3.2400	2.220221	0.000397	3.969979	0.672533	-0.000040
1686	1.6766e+02	3.2293	2.184374	0.000360	3.601631	0.610133	-0.000036
1687	1.6776e+02	3.2195	2.144048	0.000405	4.051835	0.686399	-0.000041
1688	1.6786e+02	3.2084	2.103721	0.000405	4.051835	0.686399	-0.000041
1689	1.6796e+02	3.1983	2.064208	0.000397	3.969979	0.672533	-0.000040
1690	1.6806e+02	3.1902	2.025918	0.000385	3.847196	0.651733	-0.000038
1691	1.6816e+02	3.1804	1.986406	0.000397	3.969979	0.672533	-0.000040
1692	1.6825e+02	3.1698	1.946486	0.000401	4.010907	0.679466	-0.000040
1693	1.6835e+02	3.1619	1.904530	0.000422	4.215545	0.714133	-0.000042
1694	1.6845e+02	3.1506	1.862574	0.000422	4.215545	0.714133	-0.000042
1695	1.6855e+02	3.1382	1.821432	0.000413	4.133690	0.700266	-0.000041
1696	1.6865e+02	3.1293	1.785179	0.000364	3.642558	0.617066	-0.000036
1697	1.6875e+02	3.1184	1.745667	0.000397	3.969979	0.672533	-0.000040
1698	1.6885e+02	3.1084	1.706969	0.000389	3.888124	0.658666	-0.000039
1699	1.6895e+02	3.1008	1.665420	0.000417	4.174617	0.707199	-0.000042
1700	1.6905e+02	3.0892	1.623871	0.000417	4.174617	0.707199	-0.000042
1701	1.6915e+02	3.0824	1.588025	0.000360	3.601631	0.610133	-0.000036
1702	1.6925e+02	3.0724	1.543217	0.000450	4.502038	0.762666	-0.000045
1703	1.6935e+02	3.0605	1.499632	0.000438	4.379256	0.741866	-0.000044
1704	1.6945e+02	3.0491	1.458083	0.000417	4.174617	0.707199	-0.000042
1705	1.6955e+02	3.0401	1.416941	0.000413	4.133690	0.700266	-0.000041
1706	1.6965e+02	3.0336	1.372133	0.000450	4.502038	0.762666	-0.000045
1707	1.6975e+02	3.0216	1.329362	0.000430	4.297400	0.727999	-0.000043
1708	1.6985e+02	3.0125	1.291887	0.000377	3.765341	0.637866	-0.000038
1709	1.6995e+02	2.9997	1.250338	0.000417	4.174617	0.707199	-0.000042
1710	1.7005e+02	2.9905	1.203901	0.000467	4.665749	0.790399	-0.000047
1711	1.7015e+02	2.9814	1.161537	0.000426	4.256473	0.721066	-0.000043
1712	1.7024e+02	2.9751	1.119988	0.000417	4.174617	0.707199	-0.000042
1713	1.7034e+02	2.9608	1.077625	0.000426	4.256473	0.721066	-0.000043
1714	1.7044e+02	2.9501	1.033224	0.000446	4.461111	0.755733	-0.000045
1715	1.7054e+02	2.9418	0.991268	0.000422	4.215545	0.714133	-0.000042
1716	1.7064e+02	2.9313	0.949312	0.000422	4.215545	0.714133	-0.000042
1717	1.7074e+02	2.9212	0.908578	0.000409	4.092762	0.693333	-0.000041
1718	1.7084e+02	2.9079	0.864177	0.000446	4.461111	0.755733	-0.000045
1719	1.7094e+02	2.8982	0.822628	0.000417	4.174617	0.707199	-0.000042
1720	1.7104e+02	2.8941	0.777413	0.000454	4.542966	0.769599	-0.000045
1721	1.7114e+02	2.8806	0.735864	0.000417	4.174617	0.707199	-0.000042
1722	1.7124e+02	2.8735	0.690242	0.000458	4.583894	0.776533	-0.000046
1723	1.7134e+02	2.8638	0.649508	0.000409	4.092762	0.693333	-0.000041
1724	1.7144e+02	2.8545	0.606329	0.000434	4.338328	0.734933	-0.000043
1725	1.7154e+02	2.8400	0.561114	0.000454	4.542966	0.769599	-0.000045
1726	1.7164e+02	2.8313	0.517121	0.000442	4.420183	0.748799	-0.000044
1727	1.7174e+02	2.8220	0.473128	0.000442	4.420183	0.748799	-0.000044
1728	1.7184e+02	2.8128	0.432394	0.000409	4.092762	0.693333	-0.000041
1729	1.7194e+02	2.8017	0.387994	0.000446	4.461111	0.755733	-0.000045
1730	1.7204e+02	2.7906	0.345223	0.000430	4.297400	0.727999	-0.000043
1731	1.7213e+02	2.7821	0.302045	0.000434	4.338328	0.734933	-0.000043
1732	1.7223e+02	2.7716	0.255607	0.000467	4.665749	0.790399	-0.000047
1733	1.7233e+02	2.7621	0.215688	0.000401	4.010907	0.679466	-0.000040
1734	1.7243e+02	2.7529	0.169658	0.000462	4.624821	0.783466	-0.000046
1735	1.7253e+02	2.7409	0.126887	0.000430	4.297400	0.727999	-0.000043
1736	1.7263e+02	2.7329	0.086560	0.000405	4.051835	0.686399	-0.000041
1737	1.7273e+02	2.7209	0.043789	0.000430	4.297400	0.727999	-0.000043
1738	1.7283e+02	2.7114	-0.001018	0.000450	4.502038	0.762666	-0.000045
1739	1.7293e+02	2.7023	-0.043789	0.000430	4.297400	0.727999	-0.000043
1740	1.7303e+02	2.6904	-0.090634	0.000471	4.706677	0.797333	-0.000047
1741	1.7313e+02	2.6833	-0.129739	0.000393	3.929052	0.665599	-0.000039
1742	1.7323e+02	2.6746	-0.174139	0.000446	4.461111	0.755733	-0.000045
1743	1.7333e+02	2.6623	-0.217725	0.000438	4.379256	0.741866	-0.000044
1744	1.7343e+02	2.6515	-0.260496	0.000430	4.297400	0.727999	-0.000043
1745	1.7353e+02	2.6437	-0.309377	0.000491	4.911315	0.831999	-0.000049
1746	1.7363e+02	2.6357	-0.348889	0.000397	3.969979	0.672533	-0.000040
1747	1.7373e+02	2.6217	-0.391660	0.000430	4.297400	0.727999	-0.000043
1748	1.7383e+02	2.6131	-0.436060	0.000446	4.461111	0.755733	-0.000045
1749	1.7393e+02	2.6008	-0.475572	0.000397	3.969979	0.672533	-0.000040
1750	1.7403e+02	2.5914	-0.522009	0.000467	4.665749	0.790399	-0.000047
1751	1.7413e+02	2.5858	-0.561114	0.000393	3.929052	0.665599	-0.000039
1752	1.7422e+02	2.5739	-0.608366	0.000475	4.747604	0.804266	-0.000047
1753	1.7432e+02	2.5652	-0.652359	0.000442	4.420183	0.748799	-0.000044
1754	1.7442e+02	2.5548	-0.699611	0.000475	4.747604	0.804266	-0.000047
1755	1.7452e+02	2.5433	-0.741567	0.000422	4.215545	0.714133	-0.000042
1756	1.7462e+02	2.5341	-0.789634	0.000483	4.829459	0.818133	-0.000048
1757	1.7472e+02	2.5235	-0.834441	0.000450	4.502038	0.762666	-0.000045
1758	1.7482e+02	2.5133	-0.878842	0.000446	4.461111	0.755733	-0.000045
1759	1.7492e+02	2.5033	-0.925686	0.000471	4.706677	0.797333	-0.000047
1760	1.7502e+02	2.4914	-0.970901	0.000454	4.542966	0.769599	-0.000045
1761	1.7512e+02	2.4856	-1.016931	0.000462	4.624821	0.783466	-0.000046
1762	1.7522e+02	2.4710	-1.063775	0.000471	4.706677	0.797333	-0.000047
1763	1.7532e+02	2.4639	-1.109397	0.000458	4.583894	0.776533	-0.000046
1764	1.7542e+02	2.4551	-1.152576	0.000434	4.338328	0.734933	-0.000043
1765	1.7552e+02	2.4464	-1.200642	0.000483	4.829459	0.818133	-0.000048
1766	1.7562e+02	2.4342	-1.247079	0.000467	4.665749	0.790399	-0.000047
1767	1.7572e+02	2.4236	-1.293109	0.000462	4.624821	0.783466	-0.000046
1768	1.7582e+02	2.4143	-1.341175	0.000483	4.829459	0.818133	-0.000048
1769	1.7592e+02	2.4021	-1.392093	0.000512	5.115953	0.866666	-0.000051
1770	1.7602e+02	2.3936	-1.440567	0.000487	4.870387	0.825066	-0.000049
1771	1.7612e+02	2.3858	-1.487004	0.000467	4.665749	0.790399	-0.000047
1772	1.7621e+02	2.3765	-1.537514	0.000508	5.075025	0.859733	-0.000051
1773	1.7631e+02	2.3649	-1.586396	0.000491	4.911315	0.831999	-0.000049
1774	1.7641e+02	2.3560	-1.633647	0.000475	4.747604	0.804266	-0.000047
1775	1.7651e+02	2.3436	-1.681714	0.000483	4.829459	0.818133	-0.000048
1776	1.7661e+02	2.3342	-1.730187	0.000487	4.870387	0.825066	-0.000049
1777	1.7671e+02	2.3241	-1.776217	0.000462	4.624821	0.783466	-0.000046
1778	1.7681e+02	2.3144	-1.828357	0.000524	5.238736	0.887466	-0.000052
1779	1.7691e+02	2.3016	-1.876423	0.000483	4.829459	0.818133	-0.000048
1780	1.7701e+02	2.2933	-1.928156	0.000520	5.197808	0.880533	-0.000052
1781	1.7711e+02	2.2837	-1.975000	0.000471	4.706677	0.797333	-0.000047
1782	1.7721e+02	2.2746	-2.027955	0.000532	5.320591	0.901332	-0.000053
1783	1.7731e+02	2.2641	-2.073985	0.000462	4.624821	0.783466	-0.000046
1784	1.7741e+02	2.2541	-2.124902	0.000512	5.115953	0.866666	-0.000051
1785	1.7751e+02	2.2434	-2.171747	0.000471	4.706677	0.797333	-0.000047
1786	1.7761e+02	2.2317	-2.218591	0.000471	4.706677	0.797333	-0.000047
1787	1.7771e+02	2.2233	-2.271546	0.000532	5.320591	0.901332	-0.000053
1788	1.7781e+02	2.2129	-2.314724	0.000434	4.338328	0.734933	-0.000043
1789	1.7791e+02	2.2025	-2.364012	0.000495	4.952242	0.838933	-0.000050
1790	1.7801e+02	2.1960	-2.414930	0.000512	5.115953	0.866666	-0.000051
1791	1.7810e+02	2.1848	-2.462182	0.000475	4.747604	0.804266	-0.000047
1792	1.7820e+02	2.1761	-2.512285	0.000503	5.034098	0.852799	-0.000050
1793	1.7830e+02	2.1635	-2.560759	0.000487	4.870387	0.825066	-0.000049
1794	1.7840e+02	2.1570	-2.607603	0.000471	4.706677	0.797333	-0.000047
1795	1.7850e+02	2.1436	-2.652818	0.000454	4.542966	0.769599	-0.000045
1796	1.7860e+02	2.1325	-2.704551	0.000520	5.197808	0.880533	-0.000052
1797	1.7870e+02	2.1239	-2.748951	0.000446	4.461111	0.755733	-0.000045
1798	1.7880e+02	2.1163	-2.800276	0.000516	5.156880	0.873599	-0.000052
1799	1.7890e+02	2.1062	-2.848750	0.000487	4.870387	0.825066	-0.000049
1800	1.7900e+02	2.0943	-2.897224	0.000487	4.870387	0.825066	-0.000049
1801	1.7910e+02	2.0817	-2.945290	0.000483	4.829459	0.818133	-0.000048
1802	1.7920e+02	2.0769	-2.990098	0.000450	4.502038	0.762666	-0.000045
1803	1.7930e+02	2.0673	-3.043053	0.000532	5.320591	0.901332	-0.000053
1804	1.7940e+02	2.0564	-3.094378	0.000516	5.156880	0.873599	-0.000052
1805	1.7950e+02	2.0443	-3.140407	0.000462	4.624821	0.783466	-0.000046
1806	1.7960e+02	2.0370	-3.188066	0.000479	4.788532	0.811199	-0.000048
1807	1.7970e+02	2.0248	-3.235726	0.000479	4.788532	0.811199	-0.000048
1808	1.7980e+02	2.0164	-3.283792	0.000483	4.829459	0.818133	-0.000048
1809	1.7990e+02	2.0065	-3.331858	0.000483	4.829459	0.818133	-0.000048
1810	1.8000e+02	1.9942	-3.380740	0.000491	4.911315	0.831999	-0.000049
1811	1.8009e+02	1.9874	-3.431250	0.000508	5.075025	0.859733	-0.000051
1812	1.8019e+02	1.9743	-3.475243	0.000442	4.420183	0.748799	-0.000044
1813	1.8029e+02	1.9633	-3.526161	0.000512	5.115953	0.866666	-0.000051
1814	1.8039e+02	1.9561	-3.575042	0.000491	4.911315	0.831999	-0.000049
1815	1.8049e+02	1.9485	-3.621072	0.000462	4.624821	0.783466	-0.000046
1816	1.8059e+02	1.9365	-3.670360	0.000495	4.952242	0.838933	-0.000050
1817	1.8069e+02	1.9263	-3.720056	0.000499	4.993170	0.845866	-0.000050
1818	1.8079e+02	1.9151	-3.771788	0.000520	5.197808	0.880533	-0.000052
1819	1.8089e+02	1.9064	-3.815781	0.000442	4.420183	0.748799	-0.000044
1820	1.8099e+02	1.8964	-3.871995	0.000565	5.648012	0.956799	-0.000056
1821	1.8109e+02	1.8847	-3.920468	0.000487	4.870387	0.825066	-0.000049
1822	1.8119e+02	1.8783	-3.968127	0.000479	4.788532	0.811199	-0.000048
1823	1.8129e+02	1.8669	-4.020675	0.000528	5.279663	0.894399	-0.000053
1824	1.8139e+02	1.8572	-4.073222	0.000528	5.279663	0.894399	-0.000053
1825	1.8149e+02	1.8455	-4.119659	0.000467	4.665749	0.790399	-0.000047
1826	1.8159e+02	1.8356	-4.167725	0.000483	4.829459	0.818133	-0.000048
1827	1.8169e+02	1.8243	-4.219458	0.000520	5.197808	0.880533	-0.000052
1828	1.8179e+02	1.8149	-4.273634	0.000544	5.443374	0.922132	-0.000054
1829	1.8189e+02	1.8081	-4.318035	0.000446	4.461111	0.755733	-0.000045
1830	1.8199e+02	1.7962	-4.372211	0.000544	5.443374	0.922132	-0.000054
1831	1.8209e+02	1.7888	-4.420278	0.000483	4.829459	0.818133	-0.000048
1832	1.8218e+02	1.7791	-4.474454	0.000544	5.443374	0.922132	-0.000054
1833	1.8228e+02	1.7677	-4.527001	0.000528	5.279663	0.894399	-0.000053
1834	1.8238e+02	1.7577	-4.578327	0.000516	5.156880	0.873599	-0.000052
1835	1.8248e+02	1.7480	-4.626393	0.000483	4.829459	0.818133	-0.000048
1836	1.8258e+02	1.7404	-4.678533	0.000524	5.238736	0.887466	-0.000052
1837	1.8268e+02	1.7272	-4.727821	0.000495	4.952242	0.838933	-0.000050
1838	1.8278e+02	1.7184	-4.779146	0.000516	5.156880	0.873599	-0.000052
1839	1.8288e+02	1.7087	-4.821917	0.000430	4.297400	0.727999	-0.000043
1840	1.8298e+02	1.6978	-4.874057	0.000524	5.238736	0.887466	-0.000052
1841	1.8308e+02	1.6869	-4.922531	0.000487	4.870387	0.825066	-0.000049
1842	1.8318e+02	1.6753	-4.971412	0.000491	4.911315	0.831999	-0.000049
1843	1.8328e+02	1.6681	-5.018257	0.000471	4.706677	0.797333	-0.000047
1844	1.8338e+02	1.6586	-5.063879	0.000458	4.583894	0.776533	-0.000046
1845	1.8348e+02	1.6479	-5.119278	0.000557	5.566157	0.942932	-0.000056
1846	1.8358e+02	1.6399	-5.164900	0.000458	4.583894	0.776533	-0.000046
1847	1.8368e+02	1.6280	-5.215003	0.000503	5.034098	0.852799	-0.000050
1848	1.8378e+02	1.6193	-5.267143	0.000524	5.238736	0.887466	-0.000052
1849	1.8388e+02	1.6044	-5.311951	0.000450	4.502038	0.762666	-0.000045
1850	1.8398e+02	1.5984	-5.362868	0.000512	5.115953	0.866666	-0.000051
1851	1.8407e+02	1.5861	-5.410935	0.000483	4.829459	0.818133	-0.000048
1852	1.8417e+02	1.5766	-5.459001	0.000483	4.829459	0.818133	-0.000048
1853	1.8427e+02	1.5668	-5.507068	0.000483	4.829459	0.818133	-0.000048
1854	1.8437e+02	1.5551	-5.549839	0.000430	4.297400	0.727999	-0.000043
1855	1.8447e+02	1.5487	-5.599942	0.000503	5.034098	0.852799	-0.000050
1856	1.8457e+02	1.5388	-5.649230	0.000495	4.952242	0.838933	-0.000050
1857	1.8467e+02	1.5276	-5.692408	0.000434	4.338328	0.734933	-0.000043
1858	1.8477e+02	1.5194	-5.742919	0.000508	5.075025	0.859733	-0.000051
1859	1.8487e+02	1.5071	-5.789356	0.000467	4.665749	0.790399	-0.000047
1860	1.8497e+02	1.4959	-5.839052	0.000499	4.993170	0.845866	-0.000050
1861	1.8507e+02	1.4896	-5.886304	0.000475	4.747604	0.804266	-0.000047
1862	1.8517e+02	1.4779	-5.932741	0.000467	4.665749	0.790399	-0.000047
1863	1.8527e+02	1.4695	-5.980400	0.000479	4.788532	0.811199	-0.000048
1864	1.8537e+02	1.4590	-6.028059	0.000479	4.788532	0.811199	-0.000048
1865	1.8547e+02	1.4507	-6.076533	0.000487	4.870387	0.825066	-0.000049
1866	1.8557e+02	1.4381	-6.125414	0.000491	4.911315	0.831999	-0.000049
1867	1.8567e+02	1.4281	-6.171443	0.000462	4.624821	0.783466	-0.000046
1868	1.8577e+02	1.4179	-6.222768	0.000516	5.156880	0.873599	-0.000052
1869	1.8587e+02	1.4096	-6.272057	0.000495	4.952242	0.838933	-0.000050
1870	1.8597e+02	1.3975	-6.319309	0.000475	4.747604	0.804266	-0.000047
1871	1.8606e+02	1.3876	-6.370226	0.000512	5.115953	0.866666	-0.000051
1872	1.8616e+02	1.3781	-6.419515	0.000495	4.952242	0.838933	-0.000050
1873	1.8626e+02	1.3687	-6.472469	0.000532	5.320591	0.901332	-0.000053
1874	1.8636e+02	1.3577	-6.519314	0.000471	4.706677	0.797333	-0.000047
1875	1.8646e+02	1.3460	-6.568602	0.000495	4.952242	0.838933	-0.000050
1876	1.8656e+02	1.3388	-6.619520	0.000512	5.115953	0.866666	-0.000051
1877	1.8666e+02	1.3285	-6.671660	0.000524	5.238736	0.887466	-0.000052
1878	1.8676e+02	1.3174	-6.719319	0.000479	4.788532	0.811199	-0.000048
1879	1.8686e+02	1.3080	-6.770237	0.000512	5.115953	0.866666	-0.000051
1880	1.8696e+02	1.2980	-6.821969	0.000520	5.197808	0.880533	-0.000052
1881	1.8706e+02	1.2875	-6.869628	0.000479	4.788532	0.811199	-0.000048
1882	1.8716e+02	1.2804	-6.925027	0.000557	5.566157	0.942932	-0.000056
1883	1.8726e+02	1.2669	-6.975130	0.000503	5.034098	0.852799	-0.000050
1884	1.8736e+02	1.2588	-7.024826	0.000499	4.993170	0.845866	-0.000050
1885	1.8746e+02	1.2524	-7.074522	0.000499	4.993170	0.845866	-0.000050
1886	1.8756e+02	1.2410	-7.122181	0.000479	4.788532	0.811199	-0.000048
1887	1.8766e+02	1.2287	-7.175950	0.000540	5.402446	0.915199	-0.000054
1888	1.8776e+02	1.2190	-7.227275	0.000516	5.156880	0.873599	-0.000052
1889	1.8786e+02	1.2115	-7.275342	0.000483	4.829459	0.818133	-0.000048
1890	1.8796e+02	1.2000	-7.331148	0.000561	5.607084	0.949866	-0.000056
1891	1.8806e+02	1.1932	-7.377177	0.000462	4.624821	0.783466	-0.000046
1892	1.8815e+02	1.1834	-7.432169	0.000553	5.525229	0.935999	-0.000055
1893	1.8825e+02	1.1692	-7.482272	0.000503	5.034098	0.852799	-0.000050
1894	1.8835e+02	1.1594	-7.533597	0.000516	5.156880	0.873599	-0.000052
1895	1.8845e+02	1.1501	-7.586551	0.000532	5.320591	0.901332	-0.000053
1896	1.8855e+02	1.1395	-7.635840	0.000495	4.952242	0.838933	-0.000050
1897	1.8865e+02	1.1311	-7.687165	0.000516	5.156880	0.873599	-0.000052
1898	1.8875e+02	1.1220	-7.738897	0.000520	5.197808	0.880533	-0.000052
1899	1.8885e+02	1.1101	-7.794296	0.000557	5.566157	0.942932	-0.000056
1900	1.8895e+02	1.1005	-7.844399	0.000503	5.034098	0.852799	-0.000050
1901	1.8905e+02	1.0897	-7.889207	0.000450	4.502038	0.762666	-0.000045
1902	1.8915e+02	1.0806	-7.945420	0.000565	5.648012	0.956799	-0.000056
1903	1.8925e+02	1.0712	-7.998782	0.000536	5.361518	0.908266	-0.000054
1904	1.8935e+02	1.0609	-8.047256	0.000487	4.870387	0.825066	-0.000049
1905	1.8945e+02	1.0501	-8.095730	0.000487	4.870387	0.825066	-0.000049
1906	1.8955e+02	1.0378	-8.149499	0.000540	5.402446	0.915199	-0.000054
1907	1.8965e+02	1.0305	-8.203675	0.000544	5.443374	0.922132	-0.000054
1908	1.8975e+02	1.0205	-8.253371	0.000499	4.993170	0.845866	-0.000050
1909	1.8985e+02	1.0126	-8.299401	0.000462	4.624821	0.783466	-0.000046
1910	1.8995e+02	1.0030	-8.356836	0.000577	5.770795	0.977599	-0.000058
1911	1.9004e+02	0.9922	-8.406532	0.000499	4.993170	0.845866	-0.000050
1912	1.9014e+02	0.9830	-8.456228	0.000499	4.993170	0.845866	-0.000050
1913	1.9024e+02	0.9720	-8.510404	0.000544	5.443374	0.922132	-0.000054
1914	1.9034e+02	0.9611	-8.556841	0.000467	4.665749	0.790399	-0.000047
1915	1.9044e+02	0.9510	-8.611425	0.000548	5.484301	0.929066	-0.000055
1916	1.9054e+02	0.9415	-8.661936	0.000508	5.075025	0.859733	-0.000051
1917	1.9064e+02	0.9317	-8.714890	0.000532	5.320591	0.901332	-0.000053
1918	1.9074e+02	0.9200	-8.764179	0.000495	4.952242	0.838933	-0.000050
1919	1.9084e+02	0.9122	-8.819170	0.000553	5.525229	0.935999	-0.000055
1920	1.9094e+02	0.9012	-8.871717	0.000528	5.279663	0.894399	-0.000053
1921	1.9104e+02	0.8921	-8.921820	0.000503	5.034098	0.852799	-0.000050
1922	1.9114e+02	0.8808	-8.977626	0.000561	5.607084	0.949866	-0.000056
1923	1.9124e+02	0.8708	-9.033025	0.000557	5.566157	0.942932	-0.000056
1924	1.9134e+02	0.8611	-9.083128	0.000503	5.034098	0.852799	-0.000050
1925	1.9144e+02	0.8521	-9.136490	0.000536	5.361518	0.908266	-0.000054
1926	1.9154e+02	0.8434	-9.191888	0.000557	5.566157	0.942932	-0.000056
1927	1.9164e+02	0.8331	-9.244028	0.000524	5.238736	0.887466	-0.000052
1928	1.9174e+02	0.8208	-9.299834	0.000561	5.607084	0.949866	-0.000056
1929	1.9184e+02	0.8094	-9.352381	0.000528	5.279663	0.894399	-0.000053
1930	1.9194e+02	0.8028	-9.413483	0.000614	6.139143	1.039999	-0.000061
1931	1.9203e+02	0.7902	-9.459920	0.000467	4.665749	0.790399	-0.000047
1932	1.9213e+02	0.7806	-9.515318	0.000557	5.566157	0.942932	-0.000056
1933	1.9223e+02	0.7705	-9.571939	0.000569	5.688939	0.963732	-0.000057
1934	1.9233e+02	0.7619	-9.627745	0.000561	5.607084	0.949866	-0.000056
1935	1.9243e+02	0.7513	-9.679885	0.000524	5.238736	0.887466	-0.000052
1936	1.9253e+02	0.7412	-9.731210	0.000516	5.156880	0.873599	-0.000052
1937	1.9263e+02	0.7298	-9.793126	0.000622	6.220999	1.053866	-0.000062
1938	1.9273e+02	0.7214	-9.852191	0.000593	5.934505	1.005332	-0.000059
1939	1.9283e+02	0.7148	-9.907182	0.000553	5.525229	0.935999	-0.000055
1940	1.9293e+02	0.7012	-9.963802	0.000569	5.688939	0.963732	-0.000057
1941	1.9303e+02	0.6933	-10.022867	0.000593	5.934505	1.005332	-0.000059
1942	1.9313e+02	0.6814	-10.076636	0.000540	5.402446	0.915199	-0.000054
1943	1.9323e+02	0.6741	-10.136923	0.000606	6.057288	1.026132	-0.000061
1944	1.9333e+02	0.6588	-10.192322	0.000557	5.566157	0.942932	-0.000056
1945	1.9343e+02	0.6529	-10.247720	0.000557	5.566157	0.942932	-0.000056
1946	1.9353e+02	0.6392	-10.302304	0.000548	5.484301	0.929066	-0.000055
1947	1.9363e+02	0.6335	-10.359739	0.000577	5.770795	0.977599	-0.000058
1948	1.9373e+02	0.6265	-10.420026	0.000606	6.057288	1.026132	-0.000061
1949	1.9383e+02	0.6145	-10.480720	0.000610	6.098216	1.033066	-0.000061
1950	1.9393e+02	0.6026	-10.530823	0.000503	5.034098	0.852799	-0.000050
1951	1.9403e+02	0.5897	-10.590295	0.000598	5.975433	1.012266	-0.000060
1952	1.9412e+02	0.5843	-10.647731	0.000577	5.770795	0.977599	-0.000058
1953	1.9422e+02	0.5736	-10.701500	0.000540	5.402446	0.915199	-0.000054
1954	1.9432e+02	0.5624	-10.760157	0.000589	5.893578	0.998399	-0.000059
1955	1.9442e+02	0.5554	-10.822073	0.000622	6.220999	1.053866	-0.000062
1956	1.9452e+02	0.5408	-10.872584	0.000508	5.075025	0.859733	-0.000051
1957	1.9462e+02	0.5312	-10.929204	0.000569	5.688939	0.963732	-0.000057
1958	1.9472e+02	0.5227	-10.987862	0.000589	5.893578	0.998399	-0.000059
1959	1.9482e+02	0.5132	-11.042446	0.000548	5.484301	0.929066	-0.000055
1960	1.9492e+02	0.5060	-11.099881	0.000577	5.770795	0.977599	-0.000058
1961	1.9502e+02	0.4951	-11.155687	0.000561	5.607084	0.949866	-0.000056
1962	1.9512e+02	0.4848	-11.213529	0.000581	5.811722	0.984532	-0.000058
1963	1.9522e+02	0.4749	-11.267299	0.000540	5.402446	0.915199	-0.000054
1964	1.9532e+02	0.4653	-11.325549	0.000585	5.852650	0.991466	-0.000059
1965	1.9542e+02	0.4513	-11.382577	0.000573	5.729867	0.970666	-0.000057
1966	1.9552e+02	0.4440	-11.439197	0.000569	5.688939	0.963732	-0.000057
1967	1.9562e+02	0.4369	-11.494596	0.000557	5.566157	0.942932	-0.000056
1968	1.9572e+02	0.4249	-11.549587	0.000553	5.525229	0.935999	-0.000055
1969	1.9582e+02	0.4147	-11.605800	0.000565	5.648012	0.956799	-0.000056
1970	1.9592e+02	0.4025	-11.662014	0.000565	5.648012	0.956799	-0.000056
1971	1.9601e+02	0.3945	-11.718227	0.000565	5.648012	0.956799	-0.000056
1972	1.9611e+02	0.3843	-11.774440	0.000565	5.648012	0.956799	-0.000056
1973	1.9621e+02	0.3720	-11.835542	0.000614	6.139143	1.039999	-0.000061
1974	1.9631e+02	0.3632	-11.889311	0.000540	5.402446	0.915199	-0.000054
1975	1.9641e+02	0.3520	-11.944709	0.000557	5.566157	0.942932	-0.000056
1976	1.9651e+02	0.3436	-12.001330	0.000569	5.688939	0.963732	-0.000057
1977	1.9661e+02	0.3349	-12.057136	0.000561	5.607084	0.949866	-0.000056
1978	1.9671e+02	0.3258	-12.117015	0.000602	6.016360	1.019199	-0.000060
1979	1.9681e+02	0.3131	-12.169155	0.000524	5.238736	0.887466	-0.000052
1980	1.9691e+02	0.3037	-12.224554	0.000557	5.566157	0.942932	-0.000056
1981	1.9701e+02	0.2943	-12.282804	0.000585	5.852650	0.991466	-0.000059
1982	1.9711e+02	0.2839	-12.338610	0.000561	5.607084	0.949866	-0.000056
1983	1.9721e+02	0.2763	-12.396045	0.000577	5.770795	0.977599	-0.000058
1984	1.9731e+02	0.2658	-12.452258	0.000565	5.648012	0.956799	-0.000056
1985	1.9741e+02	0.2538	-12.510915	0.000589	5.893578	0.998399	-0.000059
1986	1.9751e+02	0.2441	-12.565907	0.000553	5.525229	0.935999	-0.000055
1987	1.9761e+02	0.2360	-12.627823	0.000622	6.220999	1.053866	-0.000062
1988	1.9771e+02	0.2257	-12.690554	0.000630	6.302854	1.067732	-0.000063
1989	1.9781e+02	0.2148	-12.745137	0.000548	5.484301	0.929066	-0.000055
1990	1.9791e+02	0.2049	-12.801351	0.000565	5.648012	0.956799	-0.000056
1991	1.9800e+02	0.1938	-12.859601	0.000585	5.852650	0.991466	-0.000059
1992	1.9810e+02	0.1860	-12.915407	0.000561	5.607084	0.949866	-0.000056
1993	1.9820e+02	0.1721	-12.975693	0.000606	6.057288	1.026132	-0.000061
1994	1.9830e+02	0.1699	-13.029463	0.000540	5.402446	0.915199	-0.000054
1995	1.9840e+02	0.1548	-13.092601	0.000634	6.343781	1.074666	-0.000063
1996	1.9850e+02	0.1457	-13.149221	0.000569	5.688939	0.963732	-0.000057
1997	1.9860e+02	0.1353	-13.208693	0.000598	5.975433	1.012266	-0.000060
1998	1.9870e+02	0.1247	-13.266129	0.000577	5.770795	0.977599	-0.000058
1999	1.9880e+02	0.1143	-13.324379	0.000585	5.852650	0.991466	-0.000059
2000	1.9890e+02	0.1038	-13.385480	0.000614	6.139143	1.039999	-0.000061
2001	1.9900e+02	0.0964	-13.442915	0.000577	5.770795	0.977599	-0.000058
2002	1.9910e+02	0.0868	-13.503609	0.000610	6.098216	1.033066	-0.000061
2003	1.9920e+02	0.0750	-13.557378	0.000540	5.402446	0.915199	-0.000054
2004	1.9930e+02	0.0670	-13.616850	0.000598	5.975433	1.012266	-0.000060
2005	1.9940e+02	0.0533	-13.674693	0.000581	5.811722	0.984532	-0.000058
2006	1.9950e+02	0.0426	-13.731721	0.000573	5.729867	0.970666	-0.000057
2007	1.9960e+02	0.0344	-13.786305	0.000548	5.484301	0.929066	-0.000055
2008	1.9970e+02	0.0250	-13.843333	0.000573	5.729867	0.970666	-0.000057
2009	1.9980e+02	0.0169	-13.900361	0.000573	5.729867	0.970666	-0.000057
2010	1.9990e+02	0.0040	-13.954945	0.000548	5.484301	0.929066	-0.000055
2011	2.0000e+02	-0.0069	-14.009936	0.000548	5.484301	0.929066	-0.000055

PMax (uC/cm2):	4.33e+01
Pr (uC/cm2):	7.76e+00
-Pr (uC/cm2):	0.00e+00
PLoss (uC/cm2):	0.00e+00
C (Max-Eff) (nF):	4.33e-01
K (Eff):	7.34e+02
Vert. (+/-Pr) Shift (uC/cm2):	3.88e+00
Offset (uC/cm2):	2.18e+01

A (Loop Area - uC/cm2·Volts):	-7.33e-02



Hysteresis Version: 5.48.1 - Radiant Technologies, Inc., 1999 - 9/12/24

