»»»»»»»»»»»»»»»»»»»»»»»»»»»»»»»»»»»» Hysteresis ««««««««««««««««««««««««««««««««««««
»»»  Executed Version:	5.48.1
»»»  Vision Version:	5.48.4 (R)
»»»  Vision Compiled:	9/18/24
»»»  Driver Version:	5.47.0
»»»  Windows Version:	Windows 8 or 8.1
»»»  Processor Information:	x86 (AMD or Intel) - 32 Processors
»»»  Tester Name:	PMF21124-494 (100V)
»»»  Tester S/N:	PMF21124-494
»»»  Internal Amp Type:	100V RevK 270k
»»»  Internal Amp S/N:	iAB2-596/K     
»»»  Execution Count:	1
»»»»»»»»»»»»»»»»»»»»»»»»»»»»»»»»»»»»»»»»»»««««««««««««««««««««««««««««««««««««««««««

Stored:	6/30/2025 - 16:1:30
Configured:	06/30/25 10:19:58 AM
Executed:	06/30/25 04:00:55 PM

»»»»»»»»»»»»»»»»»»»»»»»»»»»»»»»»»»» Sample Info ««««««««««««««««««««««««««««««««««««
Sample Name:	
Lot Name:	
Wafer Name:	
Die Row/Column:	0/0
Capacitor Number:	0
Sample Area (cm2):	1.00e-04
Sample Thickness (microns):	1.50e-01

Amplifier:	Internal

»»»»»»»»»»»»»»»»»»»»»»»»»»»»»»»»»»» Tester Info «««««««««««««««««««««««««««««««««««
Tester Name:	PMF21124-494 (100V)
Tester Serial Number:	PMF21124-494
Return Signal Amp. Level:	0.19 [Index: 3]

»»»»»»»»»»»»»»»»»»»»»»»»»»»»»»»» Hysteresis Info ««««««««««««««««««««««««««««««««««
Task Name:	Hyst-1804
Volts:	10.00
Field:	666.67 (kV/cm)
DCBias:	0.00
DCField:	0.00 (kV/cm)
Hysteresis Period (ms):	2.00e+02
Preset:	Enabled
Preset Delay (ms):	1.00e+03
Profile:	Standard Monopolar

»»»»»»»»»»»»»»»»»»»»»»»»»»»»»»»»»»»»»» Data «««««««««««««««««««««««««««««««««««««««
Points:	2011

Valid Data

Point	Time (ms)	Drive Voltage	Measured Polarization (uC/cm2)	Capacitance (uF)	Normalized Capacitance (uF/cm2)	Dielectric Constant	Instantaneous Current (mA)
   1	0.0000e+00	0.0003	-23.498149	0.000446	4.464331	0.756278	0.000045
   2	9.9500e-02	0.0093	-23.453740	0.000446	4.464331	0.756278	0.000045
   3	1.9900e-01	0.0206	-23.393183	0.000609	6.087724	1.031288	0.000061
   4	2.9850e-01	0.0288	-23.320515	0.000731	7.305269	1.237546	0.000073
   5	3.9800e-01	0.0385	-23.288218	0.000325	3.246786	0.550020	0.000032
   6	4.9750e-01	0.0491	-23.179215	0.001096	10.957903	1.856319	0.000110
   7	5.9700e-01	0.0588	-23.179215	0.000000	0.000000	0.000000	0.000000
   8	6.9650e-01	0.0690	-23.138843	0.000406	4.058483	0.687526	0.000041
   9	7.9600e-01	0.0783	-23.082324	0.000568	5.681876	0.962536	0.000057
  10	8.9550e-01	0.0890	-23.009655	0.000731	7.305269	1.237546	0.000073
  11	9.9500e-01	0.0987	-22.965247	0.000446	4.464331	0.756278	0.000045
  12	1.0945e+00	0.1083	-22.908727	0.000568	5.681876	0.962536	0.000057
  13	1.1940e+00	0.1185	-22.827984	0.000812	8.116965	1.375051	0.000081
  14	1.2935e+00	0.1290	-22.791650	0.000365	3.652634	0.618773	0.000037
  15	1.3930e+00	0.1386	-22.755316	0.000365	3.652634	0.618773	0.000037
  16	1.4925e+00	0.1488	-22.731093	0.000244	2.435090	0.412515	0.000024
  17	1.5920e+00	0.1585	-22.618053	0.001136	11.363751	1.925072	0.000114
  18	1.6915e+00	0.1688	-22.597867	0.000203	2.029241	0.343763	0.000020
  19	1.7910e+00	0.1787	-22.577682	0.000203	2.029241	0.343763	0.000020
  20	1.8905e+00	0.1873	-22.448493	0.001299	12.987144	2.200082	0.000130
  21	1.9900e+00	0.1979	-22.412159	0.000365	3.652634	0.618773	0.000037
  22	2.0895e+00	0.2080	-22.367751	0.000446	4.464331	0.756278	0.000045
  23	2.1890e+00	0.2176	-22.331416	0.000365	3.652634	0.618773	0.000037
  24	2.2885e+00	0.2286	-22.262785	0.000690	6.899420	1.168793	0.000069
  25	2.3880e+00	0.2382	-22.206265	0.000568	5.681876	0.962536	0.000057
  26	2.4875e+00	0.2475	-22.161857	0.000446	4.464331	0.756278	0.000045
  27	2.5870e+00	0.2581	-22.113411	0.000487	4.870179	0.825031	0.000049
  28	2.6865e+00	0.2676	-22.044780	0.000690	6.899420	1.168793	0.000069
  29	2.7860e+00	0.2779	-22.008445	0.000365	3.652634	0.618773	0.000037
  30	2.8855e+00	0.2878	-21.947888	0.000609	6.087724	1.031288	0.000061
  31	2.9850e+00	0.2972	-21.883294	0.000649	6.493572	1.100041	0.000065
  32	3.0845e+00	0.3080	-21.810626	0.000731	7.305269	1.237546	0.000073
  33	3.1840e+00	0.3180	-21.798514	0.000122	1.217545	0.206258	0.000012
  34	3.2835e+00	0.3275	-21.750069	0.000487	4.870179	0.825031	0.000049
  35	3.3830e+00	0.3383	-21.705660	0.000446	4.464331	0.756278	0.000045
  36	3.4825e+00	0.3474	-21.624918	0.000812	8.116965	1.375051	0.000081
  37	3.5820e+00	0.3574	-21.588583	0.000365	3.652634	0.618773	0.000037
  38	3.6815e+00	0.3677	-21.523989	0.000649	6.493572	1.100041	0.000065
  39	3.7810e+00	0.3767	-21.467469	0.000568	5.681876	0.962536	0.000057
  40	3.8805e+00	0.3874	-21.414987	0.000528	5.276027	0.893783	0.000053
  41	3.9800e+00	0.3967	-21.374615	0.000406	4.058483	0.687526	0.000041
  42	4.0795e+00	0.4070	-21.293872	0.000812	8.116965	1.375051	0.000081
  43	4.1790e+00	0.4167	-21.273687	0.000203	2.029241	0.343763	0.000020
  44	4.2785e+00	0.4271	-21.209093	0.000649	6.493572	1.100041	0.000065
  45	4.3780e+00	0.4371	-21.124313	0.000852	8.522813	1.443804	0.000085
  46	4.4775e+00	0.4467	-21.124313	0.000000	0.000000	0.000000	0.000000
  47	4.5770e+00	0.4573	-21.051644	0.000731	7.305269	1.237546	0.000073
  48	4.6765e+00	0.4671	-20.999162	0.000528	5.276027	0.893783	0.000053
  49	4.7760e+00	0.4776	-20.914382	0.000852	8.522813	1.443804	0.000085
  50	4.8755e+00	0.4868	-20.886122	0.000284	2.840938	0.481268	0.000028
  51	4.9750e+00	0.4973	-20.853825	0.000325	3.246786	0.550020	0.000032
  52	5.0745e+00	0.5081	-20.785193	0.000690	6.899420	1.168793	0.000069
  53	5.1740e+00	0.5166	-20.716562	0.000690	6.899420	1.168793	0.000069
  54	5.2735e+00	0.5272	-20.651968	0.000649	6.493572	1.100041	0.000065
  55	5.3730e+00	0.5370	-20.611597	0.000406	4.058483	0.687526	0.000041
  56	5.4725e+00	0.5467	-20.551039	0.000609	6.087724	1.031288	0.000061
  57	5.5720e+00	0.5566	-20.522780	0.000284	2.840938	0.481268	0.000028
  58	5.6715e+00	0.5668	-20.474334	0.000487	4.870179	0.825031	0.000049
  59	5.7710e+00	0.5763	-20.401665	0.000731	7.305269	1.237546	0.000073
  60	5.8705e+00	0.5854	-20.324960	0.000771	7.711117	1.306299	0.000077
  61	5.9700e+00	0.5972	-20.316886	0.000081	0.811697	0.137505	0.000008
  62	6.0695e+00	0.6062	-20.268440	0.000487	4.870179	0.825031	0.000049
  63	6.1690e+00	0.6161	-20.195772	0.000731	7.305269	1.237546	0.000073
  64	6.2685e+00	0.6264	-20.115029	0.000812	8.116965	1.375051	0.000081
  65	6.3680e+00	0.6362	-20.074657	0.000406	4.058483	0.687526	0.000041
  66	6.4675e+00	0.6460	-20.026212	0.000487	4.870179	0.825031	0.000049
  67	6.5670e+00	0.6567	-19.985840	0.000406	4.058483	0.687526	0.000041
  68	6.6665e+00	0.6657	-19.913172	0.000731	7.305269	1.237546	0.000073
  69	6.7660e+00	0.6759	-19.876838	0.000365	3.652634	0.618773	0.000037
  70	6.8655e+00	0.6850	-19.804169	0.000731	7.305269	1.237546	0.000073
  71	6.9650e+00	0.6956	-19.755724	0.000487	4.870179	0.825031	0.000049
  72	7.0645e+00	0.7053	-19.695167	0.000609	6.087724	1.031288	0.000061
  73	7.1640e+00	0.7163	-19.687092	0.000081	0.811697	0.137505	0.000008
  74	7.2635e+00	0.7255	-19.598275	0.000893	8.928662	1.512556	0.000089
  75	7.3630e+00	0.7365	-19.537718	0.000609	6.087724	1.031288	0.000061
  76	7.4625e+00	0.7462	-19.525607	0.000122	1.217545	0.206258	0.000012
  77	7.5620e+00	0.7568	-19.444864	0.000812	8.116965	1.375051	0.000081
  78	7.6615e+00	0.7648	-19.384307	0.000609	6.087724	1.031288	0.000061
  79	7.7610e+00	0.7746	-19.360084	0.000244	2.435090	0.412515	0.000024
  80	7.8605e+00	0.7848	-19.283379	0.000771	7.711117	1.306299	0.000077
  81	7.9600e+00	0.7954	-19.214748	0.000690	6.899420	1.168793	0.000069
  82	8.0595e+00	0.8054	-19.194562	0.000203	2.029241	0.343763	0.000020
  83	8.1590e+00	0.8155	-19.105745	0.000893	8.928662	1.512556	0.000089
  84	8.2585e+00	0.8258	-19.089596	0.000162	1.623393	0.275010	0.000016
  85	8.3580e+00	0.8346	-19.004816	0.000852	8.522813	1.443804	0.000085
  86	8.4575e+00	0.8459	-18.940222	0.000649	6.493572	1.100041	0.000065
  87	8.5570e+00	0.8557	-18.944259	-0.000041	-0.405848	-0.068753	-0.000004
  88	8.6565e+00	0.8648	-18.883702	0.000609	6.087724	1.031288	0.000061
  89	8.7560e+00	0.8752	-18.827183	0.000568	5.681876	0.962536	0.000057
  90	8.8555e+00	0.8846	-18.718180	0.001096	10.957903	1.856319	0.000110
  91	8.9550e+00	0.8943	-18.685883	0.000325	3.246786	0.550020	0.000032
  92	9.0545e+00	0.9054	-18.645511	0.000406	4.058483	0.687526	0.000041
  93	9.1540e+00	0.9152	-18.625326	0.000203	2.029241	0.343763	0.000020
  94	9.2535e+00	0.9240	-18.520360	0.001055	10.552055	1.787566	0.000105
  95	9.3530e+00	0.9341	-18.496137	0.000244	2.435090	0.412515	0.000024
  96	9.4525e+00	0.9454	-18.455766	0.000406	4.058483	0.687526	0.000041
  97	9.5520e+00	0.9555	-18.403283	0.000528	5.276027	0.893783	0.000053
  98	9.6515e+00	0.9647	-18.322541	0.000812	8.116965	1.375051	0.000081
  99	9.7510e+00	0.9740	-18.274095	0.000487	4.870179	0.825031	0.000049
 100	9.8505e+00	0.9850	-18.197389	0.000771	7.711117	1.306299	0.000077
 101	9.9500e+00	0.9937	-18.173167	0.000244	2.435090	0.412515	0.000024
 102	1.0050e+01	1.0039	-18.124721	0.000487	4.870179	0.825031	0.000049
 103	1.0149e+01	1.0146	-18.056090	0.000690	6.899420	1.168793	0.000069
 104	1.0248e+01	1.0248	-18.027830	0.000284	2.840938	0.481268	0.000028
 105	1.0348e+01	1.0348	-17.979384	0.000487	4.870179	0.825031	0.000049
 106	1.0447e+01	1.0443	-17.894604	0.000852	8.522813	1.443804	0.000085
 107	1.0547e+01	1.0537	-17.817899	0.000771	7.711117	1.306299	0.000077
 108	1.0646e+01	1.0638	-17.809824	0.000081	0.811697	0.137505	0.000008
 109	1.0746e+01	1.0741	-17.741193	0.000690	6.899420	1.168793	0.000069
 110	1.0845e+01	1.0838	-17.708896	0.000325	3.246786	0.550020	0.000032
 111	1.0945e+01	1.0935	-17.587782	0.001218	12.175448	2.062577	0.000122
 112	1.1044e+01	1.1047	-17.587782	0.000000	0.000000	0.000000	0.000000
 113	1.1144e+01	1.1138	-17.535299	0.000528	5.276027	0.893783	0.000053
 114	1.1243e+01	1.1233	-17.466668	0.000690	6.899420	1.168793	0.000069
 115	1.1343e+01	1.1336	-17.442445	0.000244	2.435090	0.412515	0.000024
 116	1.1443e+01	1.1436	-17.393999	0.000487	4.870179	0.825031	0.000049
 117	1.1542e+01	1.1546	-17.317294	0.000771	7.711117	1.306299	0.000077
 118	1.1642e+01	1.1636	-17.268848	0.000487	4.870179	0.825031	0.000049
 119	1.1741e+01	1.1733	-17.236551	0.000325	3.246786	0.550020	0.000032
 120	1.1841e+01	1.1837	-17.175994	0.000609	6.087724	1.031288	0.000061
 121	1.1940e+01	1.1941	-17.115437	0.000609	6.087724	1.031288	0.000061
 122	1.2040e+01	1.2036	-17.054880	0.000609	6.087724	1.031288	0.000061
 123	1.2139e+01	1.2129	-17.030657	0.000244	2.435090	0.412515	0.000024
 124	1.2239e+01	1.2228	-16.966063	0.000649	6.493572	1.100041	0.000065
 125	1.2338e+01	1.2336	-16.917617	0.000487	4.870179	0.825031	0.000049
 126	1.2438e+01	1.2426	-16.893394	0.000244	2.435090	0.412515	0.000024
 127	1.2537e+01	1.2528	-16.792466	0.001015	10.146206	1.718814	0.000101
 128	1.2636e+01	1.2632	-16.784392	0.000081	0.811697	0.137505	0.000008
 129	1.2736e+01	1.2724	-16.711723	0.000731	7.305269	1.237546	0.000073
 130	1.2835e+01	1.2827	-16.663278	0.000487	4.870179	0.825031	0.000049
 131	1.2935e+01	1.2938	-16.610795	0.000528	5.276027	0.893783	0.000053
 132	1.3034e+01	1.3017	-16.554275	0.000568	5.681876	0.962536	0.000057
 133	1.3134e+01	1.3120	-16.501792	0.000528	5.276027	0.893783	0.000053
 134	1.3233e+01	1.3226	-16.437198	0.000649	6.493572	1.100041	0.000065
 135	1.3333e+01	1.3319	-16.384715	0.000528	5.276027	0.893783	0.000053
 136	1.3432e+01	1.3416	-16.348381	0.000365	3.652634	0.618773	0.000037
 137	1.3532e+01	1.3520	-16.259564	0.000893	8.928662	1.512556	0.000089
 138	1.3632e+01	1.3617	-16.243416	0.000162	1.623393	0.275010	0.000016
 139	1.3731e+01	1.3718	-16.190933	0.000528	5.276027	0.893783	0.000053
 140	1.3831e+01	1.3815	-16.162673	0.000284	2.840938	0.481268	0.000028
 141	1.3930e+01	1.3926	-16.090004	0.000731	7.305269	1.237546	0.000073
 142	1.4030e+01	1.4024	-16.029447	0.000609	6.087724	1.031288	0.000061
 143	1.4129e+01	1.4114	-15.993113	0.000365	3.652634	0.618773	0.000037
 144	1.4229e+01	1.4221	-15.924482	0.000690	6.899420	1.168793	0.000069
 145	1.4328e+01	1.4324	-15.884111	0.000406	4.058483	0.687526	0.000041
 146	1.4428e+01	1.4414	-15.827591	0.000568	5.681876	0.962536	0.000057
 147	1.4527e+01	1.4517	-15.803368	0.000244	2.435090	0.412515	0.000024
 148	1.4627e+01	1.4619	-15.714551	0.000893	8.928662	1.512556	0.000089
 149	1.4726e+01	1.4711	-15.670142	0.000446	4.464331	0.756278	0.000045
 150	1.4825e+01	1.4816	-15.633808	0.000365	3.652634	0.618773	0.000037
 151	1.4925e+01	1.4918	-15.561140	0.000731	7.305269	1.237546	0.000073
 152	1.5024e+01	1.5008	-15.528843	0.000325	3.246786	0.550020	0.000032
 153	1.5124e+01	1.5108	-15.440026	0.000893	8.928662	1.512556	0.000089
 154	1.5223e+01	1.5206	-15.456174	-0.000162	-1.623393	-0.275010	-0.000016
 155	1.5323e+01	1.5318	-15.347172	0.001096	10.957903	1.856319	0.000110
 156	1.5422e+01	1.5406	-15.339097	0.000081	0.811697	0.137505	0.000008
 157	1.5522e+01	1.5514	-15.306800	0.000325	3.246786	0.550020	0.000032
 158	1.5621e+01	1.5609	-15.254317	0.000528	5.276027	0.893783	0.000053
 159	1.5721e+01	1.5707	-15.173575	0.000812	8.116965	1.375051	0.000081
 160	1.5820e+01	1.5810	-15.084758	0.000893	8.928662	1.512556	0.000089
 161	1.5920e+01	1.5913	-15.076683	0.000081	0.811697	0.137505	0.000008
 162	1.6020e+01	1.5996	-15.024201	0.000528	5.276027	0.893783	0.000053
 163	1.6119e+01	1.6114	-14.995941	0.000284	2.840938	0.481268	0.000028
 164	1.6218e+01	1.6195	-14.923272	0.000731	7.305269	1.237546	0.000073
 165	1.6318e+01	1.6302	-14.890975	0.000325	3.246786	0.550020	0.000032
 166	1.6418e+01	1.6411	-14.834455	0.000568	5.681876	0.962536	0.000057
 167	1.6517e+01	1.6499	-14.777935	0.000568	5.681876	0.962536	0.000057
 168	1.6616e+01	1.6606	-14.737564	0.000406	4.058483	0.687526	0.000041
 169	1.6716e+01	1.6702	-14.660858	0.000771	7.711117	1.306299	0.000077
 170	1.6816e+01	1.6805	-14.632598	0.000284	2.840938	0.481268	0.000028
 171	1.6915e+01	1.6911	-14.563967	0.000690	6.899420	1.168793	0.000069
 172	1.7015e+01	1.7008	-14.535707	0.000284	2.840938	0.481268	0.000028
 173	1.7114e+01	1.7102	-14.438816	0.000974	9.740358	1.650061	0.000097
 174	1.7213e+01	1.7209	-14.394407	0.000446	4.464331	0.756278	0.000045
 175	1.7313e+01	1.7303	-14.382296	0.000122	1.217545	0.206258	0.000012
 176	1.7413e+01	1.7402	-14.301553	0.000812	8.116965	1.375051	0.000081
 177	1.7512e+01	1.7506	-14.277331	0.000244	2.435090	0.412515	0.000024
 178	1.7611e+01	1.7596	-14.204662	0.000731	7.305269	1.237546	0.000073
 179	1.7711e+01	1.7699	-14.180439	0.000244	2.435090	0.412515	0.000024
 180	1.7811e+01	1.7800	-14.144105	0.000365	3.652634	0.618773	0.000037
 181	1.7910e+01	1.7899	-14.059325	0.000852	8.522813	1.443804	0.000085
 182	1.8009e+01	1.7999	-14.027028	0.000325	3.246786	0.550020	0.000032
 183	1.8109e+01	1.8104	-13.954360	0.000731	7.305269	1.237546	0.000073
 184	1.8209e+01	1.8195	-13.909951	0.000446	4.464331	0.756278	0.000045
 185	1.8308e+01	1.8298	-13.877654	0.000325	3.246786	0.550020	0.000032
 186	1.8407e+01	1.8401	-13.796911	0.000812	8.116965	1.375051	0.000081
 187	1.8507e+01	1.8498	-13.772689	0.000244	2.435090	0.412515	0.000024
 188	1.8607e+01	1.8595	-13.712132	0.000609	6.087724	1.031288	0.000061
 189	1.8706e+01	1.8700	-13.691946	0.000203	2.029241	0.343763	0.000020
 190	1.8805e+01	1.8801	-13.615240	0.000771	7.711117	1.306299	0.000077
 191	1.8905e+01	1.8899	-13.582943	0.000325	3.246786	0.550020	0.000032
 192	1.9005e+01	1.8987	-13.534498	0.000487	4.870179	0.825031	0.000049
 193	1.9104e+01	1.9095	-13.461829	0.000731	7.305269	1.237546	0.000073
 194	1.9203e+01	1.9192	-13.397235	0.000649	6.493572	1.100041	0.000065
 195	1.9303e+01	1.9301	-13.381086	0.000162	1.623393	0.275010	0.000016
 196	1.9402e+01	1.9396	-13.320529	0.000609	6.087724	1.031288	0.000061
 197	1.9502e+01	1.9490	-13.247861	0.000731	7.305269	1.237546	0.000073
 198	1.9602e+01	1.9591	-13.243824	0.000041	0.405848	0.068753	0.000004
 199	1.9701e+01	1.9698	-13.175192	0.000690	6.899420	1.168793	0.000069
 200	1.9800e+01	1.9798	-13.146933	0.000284	2.840938	0.481268	0.000028
 201	1.9900e+01	1.9896	-13.041967	0.001055	10.552055	1.787566	0.000105
 202	2.0000e+01	1.9993	-12.993521	0.000487	4.870179	0.825031	0.000049
 203	2.0099e+01	2.0095	-12.961224	0.000325	3.246786	0.550020	0.000032
 204	2.0198e+01	2.0188	-12.932964	0.000284	2.840938	0.481268	0.000028
 205	2.0298e+01	2.0281	-12.900667	0.000325	3.246786	0.550020	0.000032
 206	2.0398e+01	2.0388	-12.860296	0.000406	4.058483	0.687526	0.000041
 207	2.0497e+01	2.0494	-12.771479	0.000893	8.928662	1.512556	0.000089
 208	2.0596e+01	2.0590	-12.718996	0.000528	5.276027	0.893783	0.000053
 209	2.0696e+01	2.0688	-12.686699	0.000325	3.246786	0.550020	0.000032
 210	2.0796e+01	2.0792	-12.642291	0.000446	4.464331	0.756278	0.000045
 211	2.0895e+01	2.0889	-12.618068	0.000244	2.435090	0.412515	0.000024
 212	2.0994e+01	2.0988	-12.517139	0.001015	10.146206	1.718814	0.000101
 213	2.1094e+01	2.1078	-12.488879	0.000284	2.840938	0.481268	0.000028
 214	2.1194e+01	2.1189	-12.460619	0.000284	2.840938	0.481268	0.000028
 215	2.1293e+01	2.1285	-12.408137	0.000528	5.276027	0.893783	0.000053
 216	2.1392e+01	2.1380	-12.371802	0.000365	3.652634	0.618773	0.000037
 217	2.1492e+01	2.1484	-12.303171	0.000690	6.899420	1.168793	0.000069
 218	2.1591e+01	2.1587	-12.226466	0.000771	7.711117	1.306299	0.000077
 219	2.1691e+01	2.1671	-12.194168	0.000325	3.246786	0.550020	0.000032
 220	2.1791e+01	2.1783	-12.141686	0.000528	5.276027	0.893783	0.000053
 221	2.1890e+01	2.1894	-12.089203	0.000528	5.276027	0.893783	0.000053
 222	2.1989e+01	2.1987	-12.064980	0.000244	2.435090	0.412515	0.000024
 223	2.2089e+01	2.2081	-12.024609	0.000406	4.058483	0.687526	0.000041
 224	2.2189e+01	2.2182	-12.000386	0.000244	2.435090	0.412515	0.000024
 225	2.2288e+01	2.2283	-11.887346	0.001136	11.363751	1.925072	0.000114
 226	2.2387e+01	2.2379	-11.863123	0.000244	2.435090	0.412515	0.000024
 227	2.2487e+01	2.2486	-11.818715	0.000446	4.464331	0.756278	0.000045
 228	2.2587e+01	2.2581	-11.778344	0.000406	4.058483	0.687526	0.000041
 229	2.2686e+01	2.2668	-11.705675	0.000731	7.305269	1.237546	0.000073
 230	2.2785e+01	2.2781	-11.665304	0.000406	4.058483	0.687526	0.000041
 231	2.2885e+01	2.2879	-11.637044	0.000284	2.840938	0.481268	0.000028
 232	2.2985e+01	2.2976	-11.608784	0.000284	2.840938	0.481268	0.000028
 233	2.3084e+01	2.3078	-11.548227	0.000609	6.087724	1.031288	0.000061
 234	2.3183e+01	2.3183	-11.475558	0.000731	7.305269	1.237546	0.000073
 235	2.3283e+01	2.3282	-11.406927	0.000690	6.899420	1.168793	0.000069
 236	2.3383e+01	2.3377	-11.402890	0.000041	0.405848	0.068753	0.000004
 237	2.3482e+01	2.3469	-11.354444	0.000487	4.870179	0.825031	0.000049
 238	2.3581e+01	2.3575	-11.289850	0.000649	6.493572	1.100041	0.000065
 239	2.3681e+01	2.3676	-11.233330	0.000568	5.681876	0.962536	0.000057
 240	2.3780e+01	2.3768	-11.213145	0.000203	2.029241	0.343763	0.000020
 241	2.3880e+01	2.3873	-11.124328	0.000893	8.928662	1.512556	0.000089
 242	2.3980e+01	2.3975	-11.112216	0.000122	1.217545	0.206258	0.000012
 243	2.4079e+01	2.4078	-11.063770	0.000487	4.870179	0.825031	0.000049
 244	2.4178e+01	2.4171	-10.970916	0.000933	9.334510	1.581309	0.000093
 245	2.4278e+01	2.4274	-10.950731	0.000203	2.029241	0.343763	0.000020
 246	2.4378e+01	2.4371	-10.958805	-0.000081	-0.811697	-0.137505	-0.000008
 247	2.4477e+01	2.4475	-10.841728	0.001177	11.769599	1.993824	0.000118
 248	2.4576e+01	2.4574	-10.813468	0.000284	2.840938	0.481268	0.000028
 249	2.4676e+01	2.4680	-10.748874	0.000649	6.493572	1.100041	0.000065
 250	2.4776e+01	2.4771	-10.732725	0.000162	1.623393	0.275010	0.000016
 251	2.4875e+01	2.4866	-10.672168	0.000609	6.087724	1.031288	0.000061
 252	2.4974e+01	2.4967	-10.651983	0.000203	2.029241	0.343763	0.000020
 253	2.5074e+01	2.5072	-10.587388	0.000649	6.493572	1.100041	0.000065
 254	2.5174e+01	2.5169	-10.530869	0.000568	5.681876	0.962536	0.000057
 255	2.5273e+01	2.5262	-10.498571	0.000325	3.246786	0.550020	0.000032
 256	2.5372e+01	2.5372	-10.433977	0.000649	6.493572	1.100041	0.000065
 257	2.5472e+01	2.5463	-10.405717	0.000284	2.840938	0.481268	0.000028
 258	2.5572e+01	2.5567	-10.361309	0.000446	4.464331	0.756278	0.000045
 259	2.5671e+01	2.5668	-10.272492	0.000893	8.928662	1.512556	0.000089
 260	2.5770e+01	2.5756	-10.268455	0.000041	0.405848	0.068753	0.000004
 261	2.5870e+01	2.5864	-10.228083	0.000406	4.058483	0.687526	0.000041
 262	2.5970e+01	2.5963	-10.183675	0.000446	4.464331	0.756278	0.000045
 263	2.6069e+01	2.6060	-10.159452	0.000244	2.435090	0.412515	0.000024
 264	2.6169e+01	2.6153	-10.074672	0.000852	8.522813	1.443804	0.000085
 265	2.6268e+01	2.6263	-10.014115	0.000609	6.087724	1.031288	0.000061
 266	2.6367e+01	2.6347	-9.981818	0.000325	3.246786	0.550020	0.000032
 267	2.6467e+01	2.6457	-9.901075	0.000812	8.116965	1.375051	0.000081
 268	2.6567e+01	2.6554	-9.917224	-0.000162	-1.623393	-0.275010	-0.000016
 269	2.6666e+01	2.6659	-9.884927	0.000325	3.246786	0.550020	0.000032
 270	2.6765e+01	2.6748	-9.816296	0.000690	6.899420	1.168793	0.000069
 271	2.6865e+01	2.6855	-9.727479	0.000893	8.928662	1.512556	0.000089
 272	2.6965e+01	2.6954	-9.715367	0.000122	1.217545	0.206258	0.000012
 273	2.7064e+01	2.7058	-9.650773	0.000649	6.493572	1.100041	0.000065
 274	2.7163e+01	2.7154	-9.602327	0.000487	4.870179	0.825031	0.000049
 275	2.7263e+01	2.7254	-9.570030	0.000325	3.246786	0.550020	0.000032
 276	2.7363e+01	2.7355	-9.517548	0.000528	5.276027	0.893783	0.000053
 277	2.7462e+01	2.7456	-9.509473	0.000081	0.811697	0.137505	0.000008
 278	2.7561e+01	2.7541	-9.432768	0.000771	7.711117	1.306299	0.000077
 279	2.7661e+01	2.7659	-9.404508	0.000284	2.840938	0.481268	0.000028
 280	2.7761e+01	2.7743	-9.339914	0.000649	6.493572	1.100041	0.000065
 281	2.7860e+01	2.7853	-9.279356	0.000609	6.087724	1.031288	0.000061
 282	2.7959e+01	2.7943	-9.234948	0.000446	4.464331	0.756278	0.000045
 283	2.8059e+01	2.8049	-9.178428	0.000568	5.681876	0.962536	0.000057
 284	2.8159e+01	2.8146	-9.150168	0.000284	2.840938	0.481268	0.000028
 285	2.8258e+01	2.8249	-9.093648	0.000568	5.681876	0.962536	0.000057
 286	2.8358e+01	2.8345	-9.053277	0.000406	4.058483	0.687526	0.000041
 287	2.8457e+01	2.8445	-8.992720	0.000609	6.087724	1.031288	0.000061
 288	2.8556e+01	2.8551	-8.976571	0.000162	1.623393	0.275010	0.000016
 289	2.8656e+01	2.8657	-8.932163	0.000446	4.464331	0.756278	0.000045
 290	2.8756e+01	2.8751	-8.863532	0.000690	6.899420	1.168793	0.000069
 291	2.8855e+01	2.8851	-8.835272	0.000284	2.840938	0.481268	0.000028
 292	2.8954e+01	2.8941	-8.790863	0.000446	4.464331	0.756278	0.000045
 293	2.9054e+01	2.9054	-8.734343	0.000568	5.681876	0.962536	0.000057
 294	2.9154e+01	2.9144	-8.685898	0.000487	4.870179	0.825031	0.000049
 295	2.9253e+01	2.9243	-8.625341	0.000609	6.087724	1.031288	0.000061
 296	2.9352e+01	2.9345	-8.589006	0.000365	3.652634	0.618773	0.000037
 297	2.9452e+01	2.9446	-8.552672	0.000365	3.652634	0.618773	0.000037
 298	2.9552e+01	2.9549	-8.532486	0.000203	2.029241	0.343763	0.000020
 299	2.9651e+01	2.9647	-8.496152	0.000365	3.652634	0.618773	0.000037
 300	2.9750e+01	2.9747	-8.435595	0.000609	6.087724	1.031288	0.000061
 301	2.9850e+01	2.9847	-8.391187	0.000446	4.464331	0.756278	0.000045
 302	2.9950e+01	2.9939	-8.330630	0.000609	6.087724	1.031288	0.000061
 303	3.0049e+01	3.0044	-8.290258	0.000406	4.058483	0.687526	0.000041
 304	3.0148e+01	3.0151	-8.249887	0.000406	4.058483	0.687526	0.000041
 305	3.0248e+01	3.0237	-8.217590	0.000325	3.246786	0.550020	0.000032
 306	3.0348e+01	3.0341	-8.193367	0.000244	2.435090	0.412515	0.000024
 307	3.0447e+01	3.0445	-8.128773	0.000649	6.493572	1.100041	0.000065
 308	3.0547e+01	3.0542	-8.084364	0.000446	4.464331	0.756278	0.000045
 309	3.0646e+01	3.0643	-8.068216	0.000162	1.623393	0.275010	0.000016
 310	3.0745e+01	3.0744	-7.971325	0.000974	9.740358	1.650061	0.000097
 311	3.0845e+01	3.0833	-7.959213	0.000122	1.217545	0.206258	0.000012
 312	3.0945e+01	3.0934	-7.890582	0.000690	6.899420	1.168793	0.000069
 313	3.1044e+01	3.1036	-7.874433	0.000162	1.623393	0.275010	0.000016
 314	3.1143e+01	3.1150	-7.805802	0.000690	6.899420	1.168793	0.000069
 315	3.1243e+01	3.1248	-7.781579	0.000244	2.435090	0.412515	0.000024
 316	3.1343e+01	3.1333	-7.721022	0.000609	6.087724	1.031288	0.000061
 317	3.1442e+01	3.1432	-7.660465	0.000609	6.087724	1.031288	0.000061
 318	3.1541e+01	3.1530	-7.656428	0.000041	0.405848	0.068753	0.000004
 319	3.1641e+01	3.1629	-7.595871	0.000609	6.087724	1.031288	0.000061
 320	3.1741e+01	3.1728	-7.547425	0.000487	4.870179	0.825031	0.000049
 321	3.1840e+01	3.1832	-7.474757	0.000731	7.305269	1.237546	0.000073
 322	3.1939e+01	3.1927	-7.430348	0.000446	4.464331	0.756278	0.000045
 323	3.2039e+01	3.2037	-7.414200	0.000162	1.623393	0.275010	0.000016
 324	3.2139e+01	3.2143	-7.385940	0.000284	2.840938	0.481268	0.000028
 325	3.2238e+01	3.2224	-7.341531	0.000446	4.464331	0.756278	0.000045
 326	3.2337e+01	3.2336	-7.260789	0.000812	8.116965	1.375051	0.000081
 327	3.2437e+01	3.2439	-7.216380	0.000446	4.464331	0.756278	0.000045
 328	3.2536e+01	3.2534	-7.200232	0.000162	1.623393	0.275010	0.000016
 329	3.2636e+01	3.2627	-7.176009	0.000244	2.435090	0.412515	0.000024
 330	3.2736e+01	3.2722	-7.111415	0.000649	6.493572	1.100041	0.000065
 331	3.2835e+01	3.2837	-7.071043	0.000406	4.058483	0.687526	0.000041
 332	3.2934e+01	3.2926	-7.014523	0.000568	5.681876	0.962536	0.000057
 333	3.3034e+01	3.3022	-6.994338	0.000203	2.029241	0.343763	0.000020
 334	3.3133e+01	3.3140	-6.917632	0.000771	7.711117	1.306299	0.000077
 335	3.3233e+01	3.3241	-6.873224	0.000446	4.464331	0.756278	0.000045
 336	3.3333e+01	3.3328	-6.816704	0.000568	5.681876	0.962536	0.000057
 337	3.3432e+01	3.3425	-6.808629	0.000081	0.811697	0.137505	0.000008
 338	3.3532e+01	3.3527	-6.776332	0.000325	3.246786	0.550020	0.000032
 339	3.3631e+01	3.3621	-6.711738	0.000649	6.493572	1.100041	0.000065
 340	3.3730e+01	3.3727	-6.663293	0.000487	4.870179	0.825031	0.000049
 341	3.3830e+01	3.3828	-6.594661	0.000690	6.899420	1.168793	0.000069
 342	3.3929e+01	3.3923	-6.550253	0.000446	4.464331	0.756278	0.000045
 343	3.4029e+01	3.4029	-6.550253	0.000000	0.000000	0.000000	0.000000
 344	3.4129e+01	3.4119	-6.497770	0.000528	5.276027	0.893783	0.000053
 345	3.4228e+01	3.4224	-6.453361	0.000446	4.464331	0.756278	0.000045
 346	3.4328e+01	3.4322	-6.417027	0.000365	3.652634	0.618773	0.000037
 347	3.4427e+01	3.4425	-6.384730	0.000325	3.246786	0.550020	0.000032
 348	3.4526e+01	3.4523	-6.295913	0.000893	8.928662	1.512556	0.000089
 349	3.4626e+01	3.4623	-6.291876	0.000041	0.405848	0.068753	0.000004
 350	3.4725e+01	3.4724	-6.247468	0.000446	4.464331	0.756278	0.000045
 351	3.4825e+01	3.4826	-6.219208	0.000284	2.840938	0.481268	0.000028
 352	3.4925e+01	3.4918	-6.166725	0.000528	5.276027	0.893783	0.000053
 353	3.5024e+01	3.5017	-6.118279	0.000487	4.870179	0.825031	0.000049
 354	3.5123e+01	3.5120	-6.045611	0.000731	7.305269	1.237546	0.000073
 355	3.5223e+01	3.5223	-6.033499	0.000122	1.217545	0.206258	0.000012
 356	3.5322e+01	3.5313	-6.013314	0.000203	2.029241	0.343763	0.000020
 357	3.5422e+01	3.5423	-5.932571	0.000812	8.116965	1.375051	0.000081
 358	3.5522e+01	3.5516	-5.863940	0.000690	6.899420	1.168793	0.000069
 359	3.5621e+01	3.5622	-5.823568	0.000406	4.058483	0.687526	0.000041
 360	3.5721e+01	3.5719	-5.831643	-0.000081	-0.811697	-0.137505	-0.000008
 361	3.5820e+01	3.5812	-5.787234	0.000446	4.464331	0.756278	0.000045
 362	3.5919e+01	3.5915	-5.746863	0.000406	4.058483	0.687526	0.000041
 363	3.6019e+01	3.6018	-5.678231	0.000690	6.899420	1.168793	0.000069
 364	3.6118e+01	3.6120	-5.666120	0.000122	1.217545	0.206258	0.000012
 365	3.6218e+01	3.6213	-5.589414	0.000771	7.711117	1.306299	0.000077
 366	3.6318e+01	3.6322	-5.553080	0.000365	3.652634	0.618773	0.000037
 367	3.6417e+01	3.6408	-5.508672	0.000446	4.464331	0.756278	0.000045
 368	3.6517e+01	3.6524	-5.496560	0.000122	1.217545	0.206258	0.000012
 369	3.6616e+01	3.6615	-5.411780	0.000852	8.522813	1.443804	0.000085
 370	3.6715e+01	3.6710	-5.383521	0.000284	2.840938	0.481268	0.000028
 371	3.6815e+01	3.6819	-5.339112	0.000446	4.464331	0.756278	0.000045
 372	3.6914e+01	3.6909	-5.327001	0.000122	1.217545	0.206258	0.000012
 373	3.7014e+01	3.7012	-5.274518	0.000528	5.276027	0.893783	0.000053
 374	3.7114e+01	3.7099	-5.209924	0.000649	6.493572	1.100041	0.000065
 375	3.7213e+01	3.7211	-5.201849	0.000081	0.811697	0.137505	0.000008
 376	3.7313e+01	3.7308	-5.104958	0.000974	9.740358	1.650061	0.000097
 377	3.7412e+01	3.7399	-5.088810	0.000162	1.623393	0.275010	0.000016
 378	3.7511e+01	3.7513	-5.040364	0.000487	4.870179	0.825031	0.000049
 379	3.7611e+01	3.7614	-4.995955	0.000446	4.464331	0.756278	0.000045
 380	3.7711e+01	3.7708	-4.963658	0.000325	3.246786	0.550020	0.000032
 381	3.7810e+01	3.7806	-4.915213	0.000487	4.870179	0.825031	0.000049
 382	3.7910e+01	3.7899	-4.911176	0.000041	0.405848	0.068753	0.000004
 383	3.8009e+01	3.8010	-4.842544	0.000690	6.899420	1.168793	0.000069
 384	3.8108e+01	3.8100	-4.830433	0.000122	1.217545	0.206258	0.000012
 385	3.8208e+01	3.8205	-4.745653	0.000852	8.522813	1.443804	0.000085
 386	3.8307e+01	3.8308	-4.737579	0.000081	0.811697	0.137505	0.000008
 387	3.8407e+01	3.8400	-4.713356	0.000244	2.435090	0.412515	0.000024
 388	3.8507e+01	3.8496	-4.632613	0.000812	8.116965	1.375051	0.000081
 389	3.8606e+01	3.8593	-4.604353	0.000284	2.840938	0.481268	0.000028
 390	3.8706e+01	3.8696	-4.547833	0.000568	5.681876	0.962536	0.000057
 391	3.8805e+01	3.8798	-4.487276	0.000609	6.087724	1.031288	0.000061
 392	3.8904e+01	3.8890	-4.467091	0.000203	2.029241	0.343763	0.000020
 393	3.9004e+01	3.8995	-4.438831	0.000284	2.840938	0.481268	0.000028
 394	3.9103e+01	3.9091	-4.410571	0.000284	2.840938	0.481268	0.000028
 395	3.9203e+01	3.9197	-4.374237	0.000365	3.652634	0.618773	0.000037
 396	3.9303e+01	3.9295	-4.305605	0.000690	6.899420	1.168793	0.000069
 397	3.9402e+01	3.9393	-4.277345	0.000284	2.840938	0.481268	0.000028
 398	3.9502e+01	3.9486	-4.253123	0.000244	2.435090	0.412515	0.000024
 399	3.9601e+01	3.9594	-4.204677	0.000487	4.870179	0.825031	0.000049
 400	3.9700e+01	3.9695	-4.140083	0.000649	6.493572	1.100041	0.000065
 401	3.9800e+01	3.9782	-4.079526	0.000609	6.087724	1.031288	0.000061
 402	3.9900e+01	3.9888	-4.059340	0.000203	2.029241	0.343763	0.000020
 403	3.9999e+01	3.9994	-4.023006	0.000365	3.652634	0.618773	0.000037
 404	4.0099e+01	4.0089	-4.002820	0.000203	2.029241	0.343763	0.000020
 405	4.0198e+01	4.0185	-3.934189	0.000690	6.899420	1.168793	0.000069
 406	4.0297e+01	4.0294	-3.885743	0.000487	4.870179	0.825031	0.000049
 407	4.0397e+01	4.0395	-3.857483	0.000284	2.840938	0.481268	0.000028
 408	4.0496e+01	4.0488	-3.857483	0.000000	0.000000	0.000000	0.000000
 409	4.0596e+01	4.0586	-3.788852	0.000690	6.899420	1.168793	0.000069
 410	4.0696e+01	4.0688	-3.736369	0.000528	5.276027	0.893783	0.000053
 411	4.0795e+01	4.0786	-3.716183	0.000203	2.029241	0.343763	0.000020
 412	4.0895e+01	4.0884	-3.667738	0.000487	4.870179	0.825031	0.000049
 413	4.0994e+01	4.0980	-3.595069	0.000731	7.305269	1.237546	0.000073
 414	4.1093e+01	4.1085	-3.574884	0.000203	2.029241	0.343763	0.000020
 415	4.1193e+01	4.1178	-3.538549	0.000365	3.652634	0.618773	0.000037
 416	4.1292e+01	4.1280	-3.494141	0.000446	4.464331	0.756278	0.000045
 417	4.1392e+01	4.1389	-3.417435	0.000771	7.711117	1.306299	0.000077
 418	4.1492e+01	4.1477	-3.409361	0.000081	0.811697	0.137505	0.000008
 419	4.1591e+01	4.1582	-3.393213	0.000162	1.623393	0.275010	0.000016
 420	4.1691e+01	4.1680	-3.340730	0.000528	5.276027	0.893783	0.000053
 421	4.1790e+01	4.1775	-3.284210	0.000568	5.681876	0.962536	0.000057
 422	4.1889e+01	4.1888	-3.259987	0.000244	2.435090	0.412515	0.000024
 423	4.1989e+01	4.1983	-3.223653	0.000365	3.652634	0.618773	0.000037
 424	4.2089e+01	4.2085	-3.179244	0.000446	4.464331	0.756278	0.000045
 425	4.2188e+01	4.2180	-3.114650	0.000649	6.493572	1.100041	0.000065
 426	4.2288e+01	4.2278	-3.114650	0.000000	0.000000	0.000000	0.000000
 427	4.2387e+01	4.2377	-3.041982	0.000731	7.305269	1.237546	0.000073
 428	4.2486e+01	4.2477	-3.005648	0.000365	3.652634	0.618773	0.000037
 429	4.2586e+01	4.2580	-2.969313	0.000365	3.652634	0.618773	0.000037
 430	4.2685e+01	4.2677	-2.953165	0.000162	1.623393	0.275010	0.000016
 431	4.2785e+01	4.2783	-2.864348	0.000893	8.928662	1.512556	0.000089
 432	4.2885e+01	4.2877	-2.852236	0.000122	1.217545	0.206258	0.000012
 433	4.2984e+01	4.2975	-2.799754	0.000528	5.276027	0.893783	0.000053
 434	4.3084e+01	4.3082	-2.763419	0.000365	3.652634	0.618773	0.000037
 435	4.3183e+01	4.3172	-2.710937	0.000528	5.276027	0.893783	0.000053
 436	4.3282e+01	4.3282	-2.690751	0.000203	2.029241	0.343763	0.000020
 437	4.3382e+01	4.3379	-2.670565	0.000203	2.029241	0.343763	0.000020
 438	4.3481e+01	4.3474	-2.614045	0.000568	5.681876	0.962536	0.000057
 439	4.3581e+01	4.3572	-2.553488	0.000609	6.087724	1.031288	0.000061
 440	4.3681e+01	4.3673	-2.537340	0.000162	1.623393	0.275010	0.000016
 441	4.3780e+01	4.3779	-2.484857	0.000528	5.276027	0.893783	0.000053
 442	4.3880e+01	4.3867	-2.440449	0.000446	4.464331	0.756278	0.000045
 443	4.3979e+01	4.3977	-2.440449	0.000000	0.000000	0.000000	0.000000
 444	4.4078e+01	4.4073	-2.367780	0.000731	7.305269	1.237546	0.000073
 445	4.4178e+01	4.4176	-2.335483	0.000325	3.246786	0.550020	0.000032
 446	4.4278e+01	4.4260	-2.299149	0.000365	3.652634	0.618773	0.000037
 447	4.4377e+01	4.4370	-2.262815	0.000365	3.652634	0.618773	0.000037
 448	4.4477e+01	4.4466	-2.198220	0.000649	6.493572	1.100041	0.000065
 449	4.4576e+01	4.4567	-2.206295	-0.000081	-0.811697	-0.137505	-0.000008
 450	4.4675e+01	4.4668	-2.157849	0.000487	4.870179	0.825031	0.000049
 451	4.4775e+01	4.4778	-2.097292	0.000609	6.087724	1.031288	0.000061
 452	4.4874e+01	4.4865	-2.077106	0.000203	2.029241	0.343763	0.000020
 453	4.4974e+01	4.4965	-2.048846	0.000284	2.840938	0.481268	0.000028
 454	4.5074e+01	4.5058	-1.988289	0.000609	6.087724	1.031288	0.000061
 455	4.5173e+01	4.5165	-1.964067	0.000244	2.435090	0.412515	0.000024
 456	4.5273e+01	4.5263	-1.903510	0.000609	6.087724	1.031288	0.000061
 457	4.5372e+01	4.5365	-1.895435	0.000081	0.811697	0.137505	0.000008
 458	4.5471e+01	4.5469	-1.859101	0.000365	3.652634	0.618773	0.000037
 459	4.5571e+01	4.5564	-1.766247	0.000933	9.334510	1.581309	0.000093
 460	4.5670e+01	4.5660	-1.758173	0.000081	0.811697	0.137505	0.000008
 461	4.5770e+01	4.5757	-1.693578	0.000649	6.493572	1.100041	0.000065
 462	4.5870e+01	4.5856	-1.661281	0.000325	3.246786	0.550020	0.000032
 463	4.5969e+01	4.5954	-1.657244	0.000041	0.405848	0.068753	0.000004
 464	4.6069e+01	4.6058	-1.592650	0.000649	6.493572	1.100041	0.000065
 465	4.6168e+01	4.6157	-1.580539	0.000122	1.217545	0.206258	0.000012
 466	4.6267e+01	4.6255	-1.519982	0.000609	6.087724	1.031288	0.000061
 467	4.6367e+01	4.6365	-1.507870	0.000122	1.217545	0.206258	0.000012
 468	4.6467e+01	4.6457	-1.439239	0.000690	6.899420	1.168793	0.000069
 469	4.6566e+01	4.6562	-1.431165	0.000081	0.811697	0.137505	0.000008
 470	4.6666e+01	4.6658	-1.358496	0.000731	7.305269	1.237546	0.000073
 471	4.6765e+01	4.6766	-1.338310	0.000203	2.029241	0.343763	0.000020
 472	4.6864e+01	4.6870	-1.289865	0.000487	4.870179	0.825031	0.000049
 473	4.6964e+01	4.6954	-1.261605	0.000284	2.840938	0.481268	0.000028
 474	4.7063e+01	4.7054	-1.205085	0.000568	5.681876	0.962536	0.000057
 475	4.7163e+01	4.7158	-1.180862	0.000244	2.435090	0.412515	0.000024
 476	4.7263e+01	4.7251	-1.148565	0.000325	3.246786	0.550020	0.000032
 477	4.7362e+01	4.7352	-1.096082	0.000528	5.276027	0.893783	0.000053
 478	4.7462e+01	4.7459	-1.031488	0.000649	6.493572	1.100041	0.000065
 479	4.7561e+01	4.7559	-1.039562	-0.000081	-0.811697	-0.137505	-0.000008
 480	4.7660e+01	4.7655	-1.011303	0.000284	2.840938	0.481268	0.000028
 481	4.7760e+01	4.7754	-0.970931	0.000406	4.058483	0.687526	0.000041
 482	4.7859e+01	4.7844	-0.926523	0.000446	4.464331	0.756278	0.000045
 483	4.7959e+01	4.7952	-0.882114	0.000446	4.464331	0.756278	0.000045
 484	4.8059e+01	4.8043	-0.821557	0.000609	6.087724	1.031288	0.000061
 485	4.8158e+01	4.8150	-0.789260	0.000325	3.246786	0.550020	0.000032
 486	4.8258e+01	4.8249	-0.761000	0.000284	2.840938	0.481268	0.000028
 487	4.8357e+01	4.8360	-0.728703	0.000325	3.246786	0.550020	0.000032
 488	4.8456e+01	4.8450	-0.696406	0.000325	3.246786	0.550020	0.000032
 489	4.8556e+01	4.8547	-0.639886	0.000568	5.681876	0.962536	0.000057
 490	4.8656e+01	4.8650	-0.567218	0.000731	7.305269	1.237546	0.000073
 491	4.8755e+01	4.8747	-0.534920	0.000325	3.246786	0.550020	0.000032
 492	4.8855e+01	4.8841	-0.547032	-0.000122	-1.217545	-0.206258	-0.000012
 493	4.8954e+01	4.8951	-0.486475	0.000609	6.087724	1.031288	0.000061
 494	4.9053e+01	4.9062	-0.450141	0.000365	3.652634	0.618773	0.000037
 495	4.9153e+01	4.9146	-0.397658	0.000528	5.276027	0.893783	0.000053
 496	4.9252e+01	4.9248	-0.381509	0.000162	1.623393	0.275010	0.000016
 497	4.9352e+01	4.9346	-0.345175	0.000365	3.652634	0.618773	0.000037
 498	4.9452e+01	4.9451	-0.316915	0.000284	2.840938	0.481268	0.000028
 499	4.9551e+01	4.9545	-0.268470	0.000487	4.870179	0.825031	0.000049
 500	4.9651e+01	4.9642	-0.207912	0.000609	6.087724	1.031288	0.000061
 501	4.9750e+01	4.9741	-0.191764	0.000162	1.623393	0.275010	0.000016
 502	4.9849e+01	4.9845	-0.155430	0.000365	3.652634	0.618773	0.000037
 503	4.9949e+01	4.9944	-0.115058	0.000406	4.058483	0.687526	0.000041
 504	5.0048e+01	5.0054	-0.078724	0.000365	3.652634	0.618773	0.000037
 505	5.0148e+01	5.0141	-0.034316	0.000446	4.464331	0.756278	0.000045
 506	5.0248e+01	5.0236	-0.026241	0.000081	0.811697	0.137505	0.000008
 507	5.0347e+01	5.0348	0.010093	0.000365	3.652634	0.618773	0.000037
 508	5.0447e+01	5.0442	0.082761	0.000731	7.305269	1.237546	0.000073
 509	5.0546e+01	5.0542	0.098910	0.000162	1.623393	0.275010	0.000016
 510	5.0645e+01	5.0642	0.135244	0.000365	3.652634	0.618773	0.000037
 511	5.0745e+01	5.0729	0.159467	0.000244	2.435090	0.412515	0.000024
 512	5.0844e+01	5.0830	0.215987	0.000568	5.681876	0.962536	0.000057
 513	5.0944e+01	5.0933	0.220024	0.000041	0.405848	0.068753	0.000004
 514	5.1044e+01	5.1031	0.268470	0.000487	4.870179	0.825031	0.000049
 515	5.1143e+01	5.1134	0.369398	0.001015	10.146206	1.718814	0.000101
 516	5.1242e+01	5.1236	0.329027	-0.000406	-4.058483	-0.687526	-0.000041
 517	5.1342e+01	5.1339	0.345175	0.000162	1.623393	0.275010	0.000016
 518	5.1441e+01	5.1434	0.470326	0.001258	12.581296	2.131329	0.000126
 519	5.1541e+01	5.1528	0.498586	0.000284	2.840938	0.481268	0.000028
 520	5.1641e+01	5.1630	0.482438	-0.000162	-1.623393	-0.275010	-0.000016
 521	5.1740e+01	5.1730	0.518772	0.000365	3.652634	0.618773	0.000037
 522	5.1840e+01	5.1827	0.567218	0.000487	4.870179	0.825031	0.000049
 523	5.1939e+01	5.1938	0.611626	0.000446	4.464331	0.756278	0.000045
 524	5.2038e+01	5.2026	0.664109	0.000528	5.276027	0.893783	0.000053
 525	5.2138e+01	5.2126	0.716592	0.000528	5.276027	0.893783	0.000053
 526	5.2237e+01	5.2227	0.740814	0.000244	2.435090	0.412515	0.000024
 527	5.2337e+01	5.2330	0.773111	0.000325	3.246786	0.550020	0.000032
 528	5.2437e+01	5.2421	0.781186	0.000081	0.811697	0.137505	0.000008
 529	5.2536e+01	5.2532	0.821557	0.000406	4.058483	0.687526	0.000041
 530	5.2636e+01	5.2621	0.890188	0.000690	6.899420	1.168793	0.000069
 531	5.2735e+01	5.2729	0.902300	0.000122	1.217545	0.206258	0.000012
 532	5.2834e+01	5.2827	0.922486	0.000203	2.029241	0.343763	0.000020
 533	5.2934e+01	5.2930	1.031488	0.001096	10.957903	1.856319	0.000110
 534	5.3033e+01	5.3030	1.015340	-0.000162	-1.623393	-0.275010	-0.000016
 535	5.3133e+01	5.3122	1.063785	0.000487	4.870179	0.825031	0.000049
 536	5.3233e+01	5.3228	1.079934	0.000162	1.623393	0.275010	0.000016
 537	5.3332e+01	5.3316	1.112231	0.000325	3.246786	0.550020	0.000032
 538	5.3431e+01	5.3426	1.184899	0.000731	7.305269	1.237546	0.000073
 539	5.3531e+01	5.3535	1.233345	0.000487	4.870179	0.825031	0.000049
 540	5.3630e+01	5.3625	1.249494	0.000162	1.623393	0.275010	0.000016
 541	5.3730e+01	5.3728	1.314088	0.000649	6.493572	1.100041	0.000065
 542	5.3830e+01	5.3814	1.314088	0.000000	0.000000	0.000000	0.000000
 543	5.3929e+01	5.3929	1.326199	0.000122	1.217545	0.206258	0.000012
 544	5.4029e+01	5.4024	1.382719	0.000568	5.681876	0.962536	0.000057
 545	5.4128e+01	5.4127	1.415016	0.000325	3.246786	0.550020	0.000032
 546	5.4227e+01	5.4214	1.435202	0.000203	2.029241	0.343763	0.000020
 547	5.4327e+01	5.4324	1.515944	0.000812	8.116965	1.375051	0.000081
 548	5.4426e+01	5.4427	1.556316	0.000406	4.058483	0.687526	0.000041
 549	5.4526e+01	5.4516	1.552279	-0.000041	-0.405848	-0.068753	-0.000004
 550	5.4626e+01	5.4613	1.616873	0.000649	6.493572	1.100041	0.000065
 551	5.4725e+01	5.4712	1.592650	-0.000244	-2.435090	-0.412515	-0.000024
 552	5.4825e+01	5.4821	1.701653	0.001096	10.957903	1.856319	0.000110
 553	5.4924e+01	5.4917	1.705690	0.000041	0.405848	0.068753	0.000004
 554	5.5023e+01	5.5024	1.737987	0.000325	3.246786	0.550020	0.000032
 555	5.5123e+01	5.5108	1.786433	0.000487	4.870179	0.825031	0.000049
 556	5.5222e+01	5.5220	1.826804	0.000406	4.058483	0.687526	0.000041
 557	5.5322e+01	5.5322	1.822767	-0.000041	-0.405848	-0.068753	-0.000004
 558	5.5422e+01	5.5412	1.891398	0.000690	6.899420	1.168793	0.000069
 559	5.5521e+01	5.5511	1.947918	0.000568	5.681876	0.962536	0.000057
 560	5.5620e+01	5.5611	1.992326	0.000446	4.464331	0.756278	0.000045
 561	5.5720e+01	5.5706	2.004438	0.000122	1.217545	0.206258	0.000012
 562	5.5819e+01	5.5819	2.060958	0.000568	5.681876	0.962536	0.000057
 563	5.5919e+01	5.5908	2.073069	0.000122	1.217545	0.206258	0.000012
 564	5.6019e+01	5.6013	2.097292	0.000244	2.435090	0.412515	0.000024
 565	5.6118e+01	5.6103	2.173998	0.000771	7.711117	1.306299	0.000077
 566	5.6218e+01	5.6210	2.182072	0.000081	0.811697	0.137505	0.000008
 567	5.6317e+01	5.6313	2.194183	0.000122	1.217545	0.206258	0.000012
 568	5.6416e+01	5.6408	2.270889	0.000771	7.711117	1.306299	0.000077
 569	5.6516e+01	5.6512	2.287037	0.000162	1.623393	0.275010	0.000016
 570	5.6615e+01	5.6614	2.295112	0.000081	0.811697	0.137505	0.000008
 571	5.6715e+01	5.6715	2.416226	0.001218	12.175448	2.062577	0.000122
 572	5.6815e+01	5.6806	2.375854	-0.000406	-4.058483	-0.687526	-0.000041
 573	5.6914e+01	5.6905	2.416226	0.000406	4.058483	0.687526	0.000041
 574	5.7014e+01	5.7024	2.468709	0.000528	5.276027	0.893783	0.000053
 575	5.7113e+01	5.7104	2.537340	0.000690	6.899420	1.168793	0.000069
 576	5.7212e+01	5.7204	2.525228	-0.000122	-1.217545	-0.206258	-0.000012
 577	5.7312e+01	5.7296	2.573674	0.000487	4.870179	0.825031	0.000049
 578	5.7411e+01	5.7406	2.626157	0.000528	5.276027	0.893783	0.000053
 579	5.7511e+01	5.7510	2.638268	0.000122	1.217545	0.206258	0.000012
 580	5.7611e+01	5.7607	2.674602	0.000365	3.652634	0.618773	0.000037
 581	5.7710e+01	5.7696	2.719011	0.000446	4.464331	0.756278	0.000045
 582	5.7809e+01	5.7806	2.747271	0.000284	2.840938	0.481268	0.000028
 583	5.7909e+01	5.7915	2.779568	0.000325	3.246786	0.550020	0.000032
 584	5.8008e+01	5.8006	2.811865	0.000325	3.246786	0.550020	0.000032
 585	5.8108e+01	5.8094	2.868385	0.000568	5.681876	0.962536	0.000057
 586	5.8208e+01	5.8202	2.912793	0.000446	4.464331	0.756278	0.000045
 587	5.8307e+01	5.8295	2.912793	0.000000	0.000000	0.000000	0.000000
 588	5.8407e+01	5.8400	2.973350	0.000609	6.087724	1.031288	0.000061
 589	5.8506e+01	5.8501	2.993536	0.000203	2.029241	0.343763	0.000020
 590	5.8605e+01	5.8596	3.033908	0.000406	4.058483	0.687526	0.000041
 591	5.8705e+01	5.8702	3.050056	0.000162	1.623393	0.275010	0.000016
 592	5.8804e+01	5.8797	3.082353	0.000325	3.246786	0.550020	0.000032
 593	5.8904e+01	5.8900	3.138873	0.000568	5.681876	0.962536	0.000057
 594	5.9004e+01	5.9002	3.179244	0.000406	4.058483	0.687526	0.000041
 595	5.9103e+01	5.9100	3.239801	0.000609	6.087724	1.031288	0.000061
 596	5.9203e+01	5.9194	3.231727	-0.000081	-0.811697	-0.137505	-0.000008
 597	5.9302e+01	5.9298	3.292284	0.000609	6.087724	1.031288	0.000061
 598	5.9401e+01	5.9391	3.320544	0.000284	2.840938	0.481268	0.000028
 599	5.9501e+01	5.9499	3.348804	0.000284	2.840938	0.481268	0.000028
 600	5.9600e+01	5.9597	3.393213	0.000446	4.464331	0.756278	0.000045
 601	5.9700e+01	5.9698	3.445695	0.000528	5.276027	0.893783	0.000053
 602	5.9800e+01	5.9795	3.453770	0.000081	0.811697	0.137505	0.000008
 603	5.9899e+01	5.9887	3.473955	0.000203	2.029241	0.343763	0.000020
 604	5.9998e+01	5.9997	3.518364	0.000446	4.464331	0.756278	0.000045
 605	6.0098e+01	6.0099	3.550661	0.000325	3.246786	0.550020	0.000032
 606	6.0197e+01	6.0192	3.570847	0.000203	2.029241	0.343763	0.000020
 607	6.0297e+01	6.0302	3.627366	0.000568	5.681876	0.962536	0.000057
 608	6.0397e+01	6.0384	3.667738	0.000406	4.058483	0.687526	0.000041
 609	6.0496e+01	6.0490	3.728295	0.000609	6.087724	1.031288	0.000061
 610	6.0596e+01	6.0580	3.756555	0.000284	2.840938	0.481268	0.000028
 611	6.0695e+01	6.0693	3.744443	-0.000122	-1.217545	-0.206258	-0.000012
 612	6.0794e+01	6.0792	3.817112	0.000731	7.305269	1.237546	0.000073
 613	6.0894e+01	6.0889	3.837298	0.000203	2.029241	0.343763	0.000020
 614	6.0993e+01	6.0989	3.865557	0.000284	2.840938	0.481268	0.000028
 615	6.1093e+01	6.1083	3.938226	0.000731	7.305269	1.237546	0.000073
 616	6.1193e+01	6.1182	3.954374	0.000162	1.623393	0.275010	0.000016
 617	6.1292e+01	6.1289	3.970523	0.000162	1.623393	0.275010	0.000016
 618	6.1392e+01	6.1396	4.031080	0.000609	6.087724	1.031288	0.000061
 619	6.1491e+01	6.1483	4.051266	0.000203	2.029241	0.343763	0.000020
 620	6.1590e+01	6.1585	4.099711	0.000487	4.870179	0.825031	0.000049
 621	6.1690e+01	6.1677	4.111823	0.000122	1.217545	0.206258	0.000012
 622	6.1789e+01	6.1782	4.160268	0.000487	4.870179	0.825031	0.000049
 623	6.1889e+01	6.1886	4.176417	0.000162	1.623393	0.275010	0.000016
 624	6.1989e+01	6.1984	4.220825	0.000446	4.464331	0.756278	0.000045
 625	6.2088e+01	6.2084	4.253123	0.000325	3.246786	0.550020	0.000032
 626	6.2188e+01	6.2192	4.269271	0.000162	1.623393	0.275010	0.000016
 627	6.2287e+01	6.2286	4.321754	0.000528	5.276027	0.893783	0.000053
 628	6.2386e+01	6.2377	4.386348	0.000649	6.493572	1.100041	0.000065
 629	6.2486e+01	6.2487	4.398459	0.000122	1.217545	0.206258	0.000012
 630	6.2586e+01	6.2579	4.454979	0.000568	5.681876	0.962536	0.000057
 631	6.2685e+01	6.2687	4.515536	0.000609	6.087724	1.031288	0.000061
 632	6.2785e+01	6.2772	4.507462	-0.000081	-0.811697	-0.137505	-0.000008
 633	6.2884e+01	6.2879	4.527648	0.000203	2.029241	0.343763	0.000020
 634	6.2983e+01	6.2983	4.572056	0.000446	4.464331	0.756278	0.000045
 635	6.3083e+01	6.3069	4.608390	0.000365	3.652634	0.618773	0.000037
 636	6.3182e+01	6.3171	4.636650	0.000284	2.840938	0.481268	0.000028
 637	6.3282e+01	6.3275	4.677022	0.000406	4.058483	0.687526	0.000041
 638	6.3382e+01	6.3366	4.717393	0.000406	4.058483	0.687526	0.000041
 639	6.3481e+01	6.3468	4.701245	-0.000162	-1.623393	-0.275010	-0.000016
 640	6.3581e+01	6.3573	4.765839	0.000649	6.493572	1.100041	0.000065
 641	6.3680e+01	6.3673	4.822359	0.000568	5.681876	0.962536	0.000057
 642	6.3779e+01	6.3760	4.830433	0.000081	0.811697	0.137505	0.000008
 643	6.3879e+01	6.3863	4.890990	0.000609	6.087724	1.031288	0.000061
 644	6.3978e+01	6.3976	4.927324	0.000365	3.652634	0.618773	0.000037
 645	6.4078e+01	6.4069	4.959621	0.000325	3.246786	0.550020	0.000032
 646	6.4177e+01	6.4172	4.987881	0.000284	2.840938	0.481268	0.000028
 647	6.4277e+01	6.4263	5.024215	0.000365	3.652634	0.618773	0.000037
 648	6.4376e+01	6.4374	5.064587	0.000406	4.058483	0.687526	0.000041
 649	6.4476e+01	6.4465	5.092847	0.000284	2.840938	0.481268	0.000028
 650	6.4576e+01	6.4561	5.100921	0.000081	0.811697	0.137505	0.000008
 651	6.4675e+01	6.4654	5.177627	0.000771	7.711117	1.306299	0.000077
 652	6.4775e+01	6.4761	5.209924	0.000325	3.246786	0.550020	0.000032
 653	6.4874e+01	6.4866	5.246258	0.000365	3.652634	0.618773	0.000037
 654	6.4974e+01	6.4968	5.254332	0.000081	0.811697	0.137505	0.000008
 655	6.5073e+01	6.5073	5.302778	0.000487	4.870179	0.825031	0.000049
 656	6.5172e+01	6.5163	5.339112	0.000365	3.652634	0.618773	0.000037
 657	6.5272e+01	6.5267	5.363335	0.000244	2.435090	0.412515	0.000024
 658	6.5371e+01	6.5363	5.423892	0.000609	6.087724	1.031288	0.000061
 659	6.5471e+01	6.5459	5.464263	0.000406	4.058483	0.687526	0.000041
 660	6.5570e+01	6.5556	5.472337	0.000081	0.811697	0.137505	0.000008
 661	6.5670e+01	6.5667	5.488486	0.000162	1.623393	0.275010	0.000016
 662	6.5769e+01	6.5758	5.557117	0.000690	6.899420	1.168793	0.000069
 663	6.5869e+01	6.5858	5.577303	0.000203	2.029241	0.343763	0.000020
 664	6.5969e+01	6.5960	5.621712	0.000446	4.464331	0.756278	0.000045
 665	6.6068e+01	6.6057	5.637860	0.000162	1.623393	0.275010	0.000016
 666	6.6168e+01	6.6160	5.662083	0.000244	2.435090	0.412515	0.000024
 667	6.6267e+01	6.6261	5.750900	0.000893	8.928662	1.512556	0.000089
 668	6.6367e+01	6.6360	5.706491	-0.000446	-4.464331	-0.756278	-0.000045
 669	6.6466e+01	6.6457	5.791271	0.000852	8.522813	1.443804	0.000085
 670	6.6566e+01	6.6549	5.799345	0.000081	0.811697	0.137505	0.000008
 671	6.6665e+01	6.6657	5.843754	0.000446	4.464331	0.756278	0.000045
 672	6.6764e+01	6.6752	5.912385	0.000690	6.899420	1.168793	0.000069
 673	6.6864e+01	6.6856	5.928534	0.000162	1.623393	0.275010	0.000016
 674	6.6963e+01	6.6956	5.940645	0.000122	1.217545	0.206258	0.000012
 675	6.7063e+01	6.7049	6.021388	0.000812	8.116965	1.375051	0.000081
 676	6.7162e+01	6.7147	5.997165	-0.000244	-2.435090	-0.412515	-0.000024
 677	6.7262e+01	6.7248	6.081945	0.000852	8.522813	1.443804	0.000085
 678	6.7362e+01	6.7352	6.106168	0.000244	2.435090	0.412515	0.000024
 679	6.7461e+01	6.7452	6.114242	0.000081	0.811697	0.137505	0.000008
 680	6.7561e+01	6.7551	6.178836	0.000649	6.493572	1.100041	0.000065
 681	6.7660e+01	6.7651	6.231319	0.000528	5.276027	0.893783	0.000053
 682	6.7760e+01	6.7745	6.235356	0.000041	0.405848	0.068753	0.000004
 683	6.7859e+01	6.7856	6.275728	0.000406	4.058483	0.687526	0.000041
 684	6.7959e+01	6.7944	6.312062	0.000365	3.652634	0.618773	0.000037
 685	6.8058e+01	6.8046	6.372619	0.000609	6.087724	1.031288	0.000061
 686	6.8157e+01	6.8144	6.384730	0.000122	1.217545	0.206258	0.000012
 687	6.8257e+01	6.8253	6.400879	0.000162	1.623393	0.275010	0.000016
 688	6.8356e+01	6.8343	6.437213	0.000365	3.652634	0.618773	0.000037
 689	6.8456e+01	6.8449	6.465473	0.000284	2.840938	0.481268	0.000028
 690	6.8555e+01	6.8542	6.521993	0.000568	5.681876	0.962536	0.000057
 691	6.8655e+01	6.8645	6.526030	0.000041	0.405848	0.068753	0.000004
 692	6.8754e+01	6.8752	6.574476	0.000487	4.870179	0.825031	0.000049
 693	6.8854e+01	6.8843	6.630995	0.000568	5.681876	0.962536	0.000057
 694	6.8954e+01	6.8941	6.618884	-0.000122	-1.217545	-0.206258	-0.000012
 695	6.9053e+01	6.9043	6.691552	0.000731	7.305269	1.237546	0.000073
 696	6.9153e+01	6.9131	6.703664	0.000122	1.217545	0.206258	0.000012
 697	6.9252e+01	6.9237	6.804592	0.001015	10.146206	1.718814	0.000101
 698	6.9352e+01	6.9341	6.808629	0.000041	0.405848	0.068753	0.000004
 699	6.9451e+01	6.9445	6.844964	0.000365	3.652634	0.618773	0.000037
 700	6.9550e+01	6.9539	6.905521	0.000609	6.087724	1.031288	0.000061
 701	6.9650e+01	6.9633	6.905521	0.000000	0.000000	0.000000	0.000000
 702	6.9749e+01	6.9729	6.949929	0.000446	4.464331	0.756278	0.000045
 703	6.9849e+01	6.9833	6.966078	0.000162	1.623393	0.275010	0.000016
 704	6.9948e+01	6.9945	7.002412	0.000365	3.652634	0.618773	0.000037
 705	7.0048e+01	7.0044	7.050858	0.000487	4.870179	0.825031	0.000049
 706	7.0147e+01	7.0134	7.079118	0.000284	2.840938	0.481268	0.000028
 707	7.0247e+01	7.0236	7.115452	0.000365	3.652634	0.618773	0.000037
 708	7.0347e+01	7.0326	7.131600	0.000162	1.623393	0.275010	0.000016
 709	7.0446e+01	7.0435	7.171972	0.000406	4.058483	0.687526	0.000041
 710	7.0546e+01	7.0537	7.276937	0.001055	10.552055	1.787566	0.000105
 711	7.0645e+01	7.0635	7.264826	-0.000122	-1.217545	-0.206258	-0.000012
 712	7.0745e+01	7.0735	7.293086	0.000284	2.840938	0.481268	0.000028
 713	7.0844e+01	7.0840	7.321346	0.000284	2.840938	0.481268	0.000028
 714	7.0944e+01	7.0937	7.377866	0.000568	5.681876	0.962536	0.000057
 715	7.1043e+01	7.1029	7.389977	0.000122	1.217545	0.206258	0.000012
 716	7.1142e+01	7.1130	7.442460	0.000528	5.276027	0.893783	0.000053
 717	7.1242e+01	7.1233	7.434385	-0.000081	-0.811697	-0.137505	-0.000008
 718	7.1341e+01	7.1332	7.470720	0.000365	3.652634	0.618773	0.000037
 719	7.1441e+01	7.1432	7.498980	0.000284	2.840938	0.481268	0.000028
 720	7.1540e+01	7.1528	7.575685	0.000771	7.711117	1.306299	0.000077
 721	7.1640e+01	7.1629	7.607982	0.000325	3.246786	0.550020	0.000032
 722	7.1740e+01	7.1731	7.628168	0.000203	2.029241	0.343763	0.000020
 723	7.1839e+01	7.1838	7.680651	0.000528	5.276027	0.893783	0.000053
 724	7.1939e+01	7.1926	7.721022	0.000406	4.058483	0.687526	0.000041
 725	7.2038e+01	7.2025	7.737171	0.000162	1.623393	0.275010	0.000016
 726	7.2138e+01	7.2121	7.761393	0.000244	2.435090	0.412515	0.000024
 727	7.2237e+01	7.2224	7.789653	0.000284	2.840938	0.481268	0.000028
 728	7.2337e+01	7.2318	7.858285	0.000690	6.899420	1.168793	0.000069
 729	7.2436e+01	7.2424	7.882508	0.000244	2.435090	0.412515	0.000024
 730	7.2535e+01	7.2518	7.918842	0.000365	3.652634	0.618773	0.000037
 731	7.2635e+01	7.2627	7.967287	0.000487	4.870179	0.825031	0.000049
 732	7.2734e+01	7.2730	8.043993	0.000771	7.711117	1.306299	0.000077
 733	7.2834e+01	7.2820	8.003622	-0.000406	-4.058483	-0.687526	-0.000041
 734	7.2933e+01	7.2932	8.076290	0.000731	7.305269	1.237546	0.000073
 735	7.3033e+01	7.3026	8.112624	0.000365	3.652634	0.618773	0.000037
 736	7.3132e+01	7.3127	8.144921	0.000325	3.246786	0.550020	0.000032
 737	7.3232e+01	7.3219	8.152996	0.000081	0.811697	0.137505	0.000008
 738	7.3332e+01	7.3318	8.217590	0.000649	6.493572	1.100041	0.000065
 739	7.3431e+01	7.3429	8.217590	0.000000	0.000000	0.000000	0.000000
 740	7.3531e+01	7.3518	8.314481	0.000974	9.740358	1.650061	0.000097
 741	7.3630e+01	7.3622	8.350815	0.000365	3.652634	0.618773	0.000037
 742	7.3730e+01	7.3718	8.358890	0.000081	0.811697	0.137505	0.000008
 743	7.3829e+01	7.3812	8.379075	0.000203	2.029241	0.343763	0.000020
 744	7.3928e+01	7.3913	8.419447	0.000406	4.058483	0.687526	0.000041
 745	7.4028e+01	7.4017	8.447707	0.000284	2.840938	0.481268	0.000028
 746	7.4127e+01	7.4117	8.512301	0.000649	6.493572	1.100041	0.000065
 747	7.4227e+01	7.4227	8.528449	0.000162	1.623393	0.275010	0.000016
 748	7.4326e+01	7.4316	8.568821	0.000406	4.058483	0.687526	0.000041
 749	7.4426e+01	7.4424	8.580932	0.000122	1.217545	0.206258	0.000012
 750	7.4525e+01	7.4518	8.649563	0.000690	6.899420	1.168793	0.000069
 751	7.4625e+01	7.4614	8.689935	0.000406	4.058483	0.687526	0.000041
 752	7.4725e+01	7.4719	8.722232	0.000325	3.246786	0.550020	0.000032
 753	7.4824e+01	7.4813	8.734343	0.000122	1.217545	0.206258	0.000012
 754	7.4924e+01	7.4921	8.766640	0.000325	3.246786	0.550020	0.000032
 755	7.5023e+01	7.5018	8.815086	0.000487	4.870179	0.825031	0.000049
 756	7.5123e+01	7.5111	8.863532	0.000487	4.870179	0.825031	0.000049
 757	7.5222e+01	7.5208	8.859494	-0.000041	-0.405848	-0.068753	-0.000004
 758	7.5322e+01	7.5306	8.916014	0.000568	5.681876	0.962536	0.000057
 759	7.5421e+01	7.5415	8.988683	0.000731	7.305269	1.237546	0.000073
 760	7.5520e+01	7.5504	9.004831	0.000162	1.623393	0.275010	0.000016
 761	7.5620e+01	7.5612	9.041165	0.000365	3.652634	0.618773	0.000037
 762	7.5719e+01	7.5701	9.057314	0.000162	1.623393	0.275010	0.000016
 763	7.5819e+01	7.5808	9.093648	0.000365	3.652634	0.618773	0.000037
 764	7.5918e+01	7.5906	9.138057	0.000446	4.464331	0.756278	0.000045
 765	7.6018e+01	7.6006	9.202651	0.000649	6.493572	1.100041	0.000065
 766	7.6118e+01	7.6101	9.283394	0.000812	8.116965	1.375051	0.000081
 767	7.6217e+01	7.6208	9.271282	-0.000122	-1.217545	-0.206258	-0.000012
 768	7.6317e+01	7.6303	9.307616	0.000365	3.652634	0.618773	0.000037
 769	7.6416e+01	7.6403	9.376248	0.000690	6.899420	1.168793	0.000069
 770	7.6516e+01	7.6506	9.392396	0.000162	1.623393	0.275010	0.000016
 771	7.6615e+01	7.6609	9.420656	0.000284	2.840938	0.481268	0.000028
 772	7.6715e+01	7.6709	9.481213	0.000609	6.087724	1.031288	0.000061
 773	7.6814e+01	7.6799	9.521585	0.000406	4.058483	0.687526	0.000041
 774	7.6913e+01	7.6910	9.574067	0.000528	5.276027	0.893783	0.000053
 775	7.7013e+01	7.7006	9.570030	-0.000041	-0.405848	-0.068753	-0.000004
 776	7.7112e+01	7.7093	9.610402	0.000406	4.058483	0.687526	0.000041
 777	7.7212e+01	7.7198	9.666922	0.000568	5.681876	0.962536	0.000057
 778	7.7311e+01	7.7295	9.707293	0.000406	4.058483	0.687526	0.000041
 779	7.7411e+01	7.7404	9.715367	0.000081	0.811697	0.137505	0.000008
 780	7.7510e+01	7.7496	9.759776	0.000446	4.464331	0.756278	0.000045
 781	7.7610e+01	7.7596	9.800147	0.000406	4.058483	0.687526	0.000041
 782	7.7710e+01	7.7703	9.832444	0.000325	3.246786	0.550020	0.000032
 783	7.7809e+01	7.7792	9.929335	0.000974	9.740358	1.650061	0.000097
 784	7.7909e+01	7.7898	9.945484	0.000162	1.623393	0.275010	0.000016
 785	7.8008e+01	7.8003	9.953558	0.000081	0.811697	0.137505	0.000008
 786	7.8108e+01	7.8107	9.997967	0.000446	4.464331	0.756278	0.000045
 787	7.8207e+01	7.8200	10.026227	0.000284	2.840938	0.481268	0.000028
 788	7.8306e+01	7.8300	10.102932	0.000771	7.711117	1.306299	0.000077
 789	7.8406e+01	7.8392	10.098895	-0.000041	-0.405848	-0.068753	-0.000004
 790	7.8505e+01	7.8491	10.131192	0.000325	3.246786	0.550020	0.000032
 791	7.8605e+01	7.8594	10.203861	0.000731	7.305269	1.237546	0.000073
 792	7.8704e+01	7.8697	10.207898	0.000041	0.405848	0.068753	0.000004
 793	7.8804e+01	7.8790	10.260380	0.000528	5.276027	0.893783	0.000053
 794	7.8903e+01	7.8891	10.320938	0.000609	6.087724	1.031288	0.000061
 795	7.9003e+01	7.8992	10.365346	0.000446	4.464331	0.756278	0.000045
 796	7.9103e+01	7.9092	10.409755	0.000446	4.464331	0.756278	0.000045
 797	7.9202e+01	7.9199	10.462237	0.000528	5.276027	0.893783	0.000053
 798	7.9302e+01	7.9288	10.502609	0.000406	4.058483	0.687526	0.000041
 799	7.9401e+01	7.9389	10.514720	0.000122	1.217545	0.206258	0.000012
 800	7.9501e+01	7.9479	10.559129	0.000446	4.464331	0.756278	0.000045
 801	7.9600e+01	7.9585	10.611611	0.000528	5.276027	0.893783	0.000053
 802	7.9700e+01	7.9684	10.647946	0.000365	3.652634	0.618773	0.000037
 803	7.9799e+01	7.9783	10.660057	0.000122	1.217545	0.206258	0.000012
 804	7.9898e+01	7.9883	10.748874	0.000893	8.928662	1.512556	0.000089
 805	7.9998e+01	7.9984	10.769060	0.000203	2.029241	0.343763	0.000020
 806	8.0097e+01	8.0079	10.817505	0.000487	4.870179	0.825031	0.000049
 807	8.0197e+01	8.0185	10.865951	0.000487	4.870179	0.825031	0.000049
 808	8.0296e+01	8.0289	10.861914	-0.000041	-0.405848	-0.068753	-0.000004
 809	8.0396e+01	8.0387	10.930545	0.000690	6.899420	1.168793	0.000069
 810	8.0496e+01	8.0475	10.934582	0.000041	0.405848	0.068753	0.000004
 811	8.0595e+01	8.0576	10.987065	0.000528	5.276027	0.893783	0.000053
 812	8.0695e+01	8.0676	11.047622	0.000609	6.087724	1.031288	0.000061
 813	8.0794e+01	8.0782	11.112216	0.000649	6.493572	1.100041	0.000065
 814	8.0894e+01	8.0885	11.124328	0.000122	1.217545	0.206258	0.000012
 815	8.0993e+01	8.0981	11.160662	0.000365	3.652634	0.618773	0.000037
 816	8.1093e+01	8.1082	11.196996	0.000365	3.652634	0.618773	0.000037
 817	8.1192e+01	8.1180	11.273702	0.000771	7.711117	1.306299	0.000077
 818	8.1291e+01	8.1280	11.289850	0.000162	1.623393	0.275010	0.000016
 819	8.1391e+01	8.1380	11.370593	0.000812	8.116965	1.375051	0.000081
 820	8.1490e+01	8.1477	11.362519	-0.000081	-0.811697	-0.137505	-0.000008
 821	8.1590e+01	8.1576	11.410964	0.000487	4.870179	0.825031	0.000049
 822	8.1689e+01	8.1676	11.471521	0.000609	6.087724	1.031288	0.000061
 823	8.1789e+01	8.1775	11.548227	0.000771	7.711117	1.306299	0.000077
 824	8.1888e+01	8.1875	11.544190	-0.000041	-0.405848	-0.068753	-0.000004
 825	8.1988e+01	8.1973	11.620895	0.000771	7.711117	1.306299	0.000077
 826	8.2088e+01	8.2080	11.633007	0.000122	1.217545	0.206258	0.000012
 827	8.2187e+01	8.2172	11.709712	0.000771	7.711117	1.306299	0.000077
 828	8.2287e+01	8.2278	11.701638	-0.000081	-0.811697	-0.137505	-0.000008
 829	8.2386e+01	8.2375	11.794492	0.000933	9.334510	1.581309	0.000093
 830	8.2486e+01	8.2473	11.810641	0.000162	1.623393	0.275010	0.000016
 831	8.2585e+01	8.2565	11.842938	0.000325	3.246786	0.550020	0.000032
 832	8.2684e+01	8.2663	11.915606	0.000731	7.305269	1.237546	0.000073
 833	8.2784e+01	8.2769	11.947903	0.000325	3.246786	0.550020	0.000032
 834	8.2883e+01	8.2871	11.943866	-0.000041	-0.405848	-0.068753	-0.000004
 835	8.2983e+01	8.2973	12.008460	0.000649	6.493572	1.100041	0.000065
 836	8.3082e+01	8.3072	12.081129	0.000731	7.305269	1.237546	0.000073
 837	8.3182e+01	8.3170	12.141686	0.000609	6.087724	1.031288	0.000061
 838	8.3281e+01	8.3267	12.178020	0.000365	3.652634	0.618773	0.000037
 839	8.3381e+01	8.3374	12.206280	0.000284	2.840938	0.481268	0.000028
 840	8.3481e+01	8.3463	12.258763	0.000528	5.276027	0.893783	0.000053
 841	8.3580e+01	8.3563	12.295097	0.000365	3.652634	0.618773	0.000037
 842	8.3680e+01	8.3662	12.339505	0.000446	4.464331	0.756278	0.000045
 843	8.3779e+01	8.3771	12.436397	0.000974	9.740358	1.650061	0.000097
 844	8.3879e+01	8.3865	12.440434	0.000041	0.405848	0.068753	0.000004
 845	8.3978e+01	8.3967	12.468694	0.000284	2.840938	0.481268	0.000028
 846	8.4078e+01	8.4062	12.533288	0.000649	6.493572	1.100041	0.000065
 847	8.4177e+01	8.4167	12.565585	0.000325	3.246786	0.550020	0.000032
 848	8.4276e+01	8.4262	12.618068	0.000528	5.276027	0.893783	0.000053
 849	8.4376e+01	8.4360	12.666513	0.000487	4.870179	0.825031	0.000049
 850	8.4475e+01	8.4473	12.666513	0.000000	0.000000	0.000000	0.000000
 851	8.4575e+01	8.4564	12.731108	0.000649	6.493572	1.100041	0.000065
 852	8.4674e+01	8.4666	12.811850	0.000812	8.116965	1.375051	0.000081
 853	8.4774e+01	8.4767	12.832036	0.000203	2.029241	0.343763	0.000020
 854	8.4874e+01	8.4869	12.872407	0.000406	4.058483	0.687526	0.000041
 855	8.4973e+01	8.4961	12.969299	0.000974	9.740358	1.650061	0.000097
 856	8.5073e+01	8.5059	12.977373	0.000081	0.811697	0.137505	0.000008
 857	8.5172e+01	8.5156	13.037930	0.000609	6.087724	1.031288	0.000061
 858	8.5272e+01	8.5247	13.025818	-0.000122	-1.217545	-0.206258	-0.000012
 859	8.5371e+01	8.5357	13.126747	0.001015	10.146206	1.718814	0.000101
 860	8.5471e+01	8.5452	13.179230	0.000528	5.276027	0.893783	0.000053
 861	8.5570e+01	8.5553	13.231712	0.000528	5.276027	0.893783	0.000053
 862	8.5669e+01	8.5659	13.251898	0.000203	2.029241	0.343763	0.000020
 863	8.5769e+01	8.5751	13.320529	0.000690	6.899420	1.168793	0.000069
 864	8.5868e+01	8.5848	13.368975	0.000487	4.870179	0.825031	0.000049
 865	8.5968e+01	8.5969	13.425495	0.000568	5.681876	0.962536	0.000057
 866	8.6067e+01	8.6050	13.502200	0.000771	7.711117	1.306299	0.000077
 867	8.6167e+01	8.6160	13.546609	0.000446	4.464331	0.756278	0.000045
 868	8.6266e+01	8.6264	13.562758	0.000162	1.623393	0.275010	0.000016
 869	8.6366e+01	8.6358	13.570832	0.000081	0.811697	0.137505	0.000008
 870	8.6466e+01	8.6463	13.639463	0.000690	6.899420	1.168793	0.000069
 871	8.6565e+01	8.6545	13.712132	0.000731	7.305269	1.237546	0.000073
 872	8.6665e+01	8.6651	13.780763	0.000690	6.899420	1.168793	0.000069
 873	8.6764e+01	8.6749	13.809023	0.000284	2.840938	0.481268	0.000028
 874	8.6864e+01	8.6842	13.833246	0.000244	2.435090	0.412515	0.000024
 875	8.6963e+01	8.6951	13.918025	0.000852	8.522813	1.443804	0.000085
 876	8.7063e+01	8.7048	13.958397	0.000406	4.058483	0.687526	0.000041
 877	8.7162e+01	8.7146	13.990694	0.000325	3.246786	0.550020	0.000032
 878	8.7261e+01	8.7256	13.998768	0.000081	0.811697	0.137505	0.000008
 879	8.7361e+01	8.7347	14.091622	0.000933	9.334510	1.581309	0.000093
 880	8.7460e+01	8.7443	14.148142	0.000568	5.681876	0.962536	0.000057
 881	8.7560e+01	8.7550	14.220811	0.000731	7.305269	1.237546	0.000073
 882	8.7659e+01	8.7649	14.228885	0.000081	0.811697	0.137505	0.000008
 883	8.7759e+01	8.7741	14.309628	0.000812	8.116965	1.375051	0.000081
 884	8.7859e+01	8.7842	14.321739	0.000122	1.217545	0.206258	0.000012
 885	8.7958e+01	8.7939	14.382296	0.000609	6.087724	1.031288	0.000061
 886	8.8058e+01	8.8038	14.459002	0.000771	7.711117	1.306299	0.000077
 887	8.8157e+01	8.8138	14.523596	0.000649	6.493572	1.100041	0.000065
 888	8.8257e+01	8.8240	14.551856	0.000284	2.840938	0.481268	0.000028
 889	8.8356e+01	8.8332	14.604339	0.000528	5.276027	0.893783	0.000053
 890	8.8456e+01	8.8432	14.636636	0.000325	3.246786	0.550020	0.000032
 891	8.8555e+01	8.8532	14.721415	0.000852	8.522813	1.443804	0.000085
 892	8.8654e+01	8.8642	14.765824	0.000446	4.464331	0.756278	0.000045
 893	8.8754e+01	8.8729	14.822344	0.000568	5.681876	0.962536	0.000057
 894	8.8853e+01	8.8834	14.886938	0.000649	6.493572	1.100041	0.000065
 895	8.8953e+01	8.8937	14.935384	0.000487	4.870179	0.825031	0.000049
 896	8.9052e+01	8.9035	14.987866	0.000528	5.276027	0.893783	0.000053
 897	8.9152e+01	8.9124	15.024201	0.000365	3.652634	0.618773	0.000037
 898	8.9251e+01	8.9227	15.104943	0.000812	8.116965	1.375051	0.000081
 899	8.9351e+01	8.9343	15.145315	0.000406	4.058483	0.687526	0.000041
 900	8.9451e+01	8.9431	15.197797	0.000528	5.276027	0.893783	0.000053
 901	8.9550e+01	8.9530	15.270466	0.000731	7.305269	1.237546	0.000073
 902	8.9650e+01	8.9640	15.322949	0.000528	5.276027	0.893783	0.000053
 903	8.9749e+01	8.9746	15.359283	0.000365	3.652634	0.618773	0.000037
 904	8.9849e+01	8.9832	15.419840	0.000609	6.087724	1.031288	0.000061
 905	8.9948e+01	8.9924	15.520768	0.001015	10.146206	1.718814	0.000101
 906	9.0047e+01	9.0027	15.561140	0.000406	4.058483	0.687526	0.000041
 907	9.0147e+01	9.0137	15.597474	0.000365	3.652634	0.618773	0.000037
 908	9.0246e+01	9.0219	15.674180	0.000771	7.711117	1.306299	0.000077
 909	9.0346e+01	9.0332	15.706477	0.000325	3.246786	0.550020	0.000032
 910	9.0445e+01	9.0434	15.750885	0.000446	4.464331	0.756278	0.000045
 911	9.0545e+01	9.0516	15.823554	0.000731	7.305269	1.237546	0.000073
 912	9.0644e+01	9.0627	15.900259	0.000771	7.711117	1.306299	0.000077
 913	9.0744e+01	9.0717	15.940630	0.000406	4.058483	0.687526	0.000041
 914	9.0844e+01	9.0827	16.005225	0.000649	6.493572	1.100041	0.000065
 915	9.0943e+01	9.0926	16.025410	0.000203	2.029241	0.343763	0.000020
 916	9.1043e+01	9.1028	16.142487	0.001177	11.769599	1.993824	0.000118
 917	9.1142e+01	9.1116	16.178821	0.000365	3.652634	0.618773	0.000037
 918	9.1242e+01	9.1217	16.223230	0.000446	4.464331	0.756278	0.000045
 919	9.1341e+01	9.1328	16.332233	0.001096	10.957903	1.856319	0.000110
 920	9.1441e+01	9.1422	16.299936	-0.000325	-3.246786	-0.550020	-0.000032
 921	9.1540e+01	9.1533	16.408938	0.001096	10.957903	1.856319	0.000110
 922	9.1639e+01	9.1608	16.489681	0.000812	8.116965	1.375051	0.000081
 923	9.1739e+01	9.1712	16.509867	0.000203	2.029241	0.343763	0.000020
 924	9.1838e+01	9.1809	16.598684	0.000893	8.928662	1.512556	0.000089
 925	9.1938e+01	9.1919	16.635018	0.000365	3.652634	0.618773	0.000037
 926	9.2037e+01	9.2010	16.748058	0.001136	11.363751	1.925072	0.000114
 927	9.2137e+01	9.2120	16.816689	0.000690	6.899420	1.168793	0.000069
 928	9.2237e+01	9.2220	16.832837	0.000162	1.623393	0.275010	0.000016
 929	9.2336e+01	9.2321	16.889357	0.000568	5.681876	0.962536	0.000057
 930	9.2436e+01	9.2429	16.970100	0.000812	8.116965	1.375051	0.000081
 931	9.2535e+01	9.2511	17.010471	0.000406	4.058483	0.687526	0.000041
 932	9.2635e+01	9.2616	17.079103	0.000690	6.899420	1.168793	0.000069
 933	9.2734e+01	9.2712	17.171957	0.000933	9.334510	1.581309	0.000093
 934	9.2834e+01	9.2822	17.204254	0.000325	3.246786	0.550020	0.000032
 935	9.2933e+01	9.2908	17.268848	0.000649	6.493572	1.100041	0.000065
 936	9.3032e+01	9.3018	17.321331	0.000528	5.276027	0.893783	0.000053
 937	9.3132e+01	9.3115	17.373814	0.000528	5.276027	0.893783	0.000053
 938	9.3231e+01	9.3207	17.454556	0.000812	8.116965	1.375051	0.000081
 939	9.3331e+01	9.3316	17.515113	0.000609	6.087724	1.031288	0.000061
 940	9.3430e+01	9.3422	17.595856	0.000812	8.116965	1.375051	0.000081
 941	9.3530e+01	9.3509	17.648339	0.000528	5.276027	0.893783	0.000053
 942	9.3629e+01	9.3615	17.716970	0.000690	6.899420	1.168793	0.000069
 943	9.3729e+01	9.3714	17.805787	0.000893	8.928662	1.512556	0.000089
 944	9.3829e+01	9.3816	17.870381	0.000649	6.493572	1.100041	0.000065
 945	9.3928e+01	9.3915	17.894604	0.000244	2.435090	0.412515	0.000024
 946	9.4028e+01	9.4003	18.003607	0.001096	10.957903	1.856319	0.000110
 947	9.4127e+01	9.4111	18.064164	0.000609	6.087724	1.031288	0.000061
 948	9.4227e+01	9.4205	18.124721	0.000609	6.087724	1.031288	0.000061
 949	9.4326e+01	9.4306	18.201426	0.000771	7.711117	1.306299	0.000077
 950	9.4425e+01	9.4409	18.257946	0.000568	5.681876	0.962536	0.000057
 951	9.4525e+01	9.4511	18.318503	0.000609	6.087724	1.031288	0.000061
 952	9.4624e+01	9.4601	18.391172	0.000731	7.305269	1.237546	0.000073
 953	9.4724e+01	9.4705	18.411358	0.000203	2.029241	0.343763	0.000020
 954	9.4823e+01	9.4802	18.528434	0.001177	11.769599	1.993824	0.000118
 955	9.4923e+01	9.4903	18.609177	0.000812	8.116965	1.375051	0.000081
 956	9.5022e+01	9.4999	18.657623	0.000487	4.870179	0.825031	0.000049
 957	9.5122e+01	9.5099	18.726254	0.000690	6.899420	1.168793	0.000069
 958	9.5222e+01	9.5196	18.806997	0.000812	8.116965	1.375051	0.000081
 959	9.5321e+01	9.5295	18.895814	0.000893	8.928662	1.512556	0.000089
 960	9.5421e+01	9.5398	18.964445	0.000690	6.899420	1.168793	0.000069
 961	9.5520e+01	9.5493	19.045188	0.000812	8.116965	1.375051	0.000081
 962	9.5620e+01	9.5606	19.069411	0.000244	2.435090	0.412515	0.000024
 963	9.5719e+01	9.5697	19.162265	0.000933	9.334510	1.581309	0.000093
 964	9.5819e+01	9.5802	19.230896	0.000690	6.899420	1.168793	0.000069
 965	9.5918e+01	9.5899	19.323750	0.000933	9.334510	1.581309	0.000093
 966	9.6017e+01	9.6000	19.384307	0.000609	6.087724	1.031288	0.000061
 967	9.6117e+01	9.6102	19.448901	0.000649	6.493572	1.100041	0.000065
 968	9.6216e+01	9.6191	19.533681	0.000852	8.522813	1.443804	0.000085
 969	9.6316e+01	9.6289	19.614424	0.000812	8.116965	1.375051	0.000081
 970	9.6415e+01	9.6393	19.642684	0.000284	2.840938	0.481268	0.000028
 971	9.6515e+01	9.6499	19.755724	0.001136	11.363751	1.925072	0.000114
 972	9.6615e+01	9.6588	19.836466	0.000812	8.116965	1.375051	0.000081
 973	9.6714e+01	9.6698	19.905098	0.000690	6.899420	1.168793	0.000069
 974	9.6814e+01	9.6796	19.945469	0.000406	4.058483	0.687526	0.000041
 975	9.6913e+01	9.6906	20.050435	0.001055	10.552055	1.787566	0.000105
 976	9.7013e+01	9.6991	20.115029	0.000649	6.493572	1.100041	0.000065
 977	9.7112e+01	9.7095	20.195772	0.000812	8.116965	1.375051	0.000081
 978	9.7212e+01	9.7195	20.288626	0.000933	9.334510	1.581309	0.000093
 979	9.7311e+01	9.7295	20.353220	0.000649	6.493572	1.100041	0.000065
 980	9.7410e+01	9.7390	20.393591	0.000406	4.058483	0.687526	0.000041
 981	9.7510e+01	9.7486	20.514705	0.001218	12.175448	2.062577	0.000122
 982	9.7609e+01	9.7591	20.631782	0.001177	11.769599	1.993824	0.000118
 983	9.7709e+01	9.7677	20.704451	0.000731	7.305269	1.237546	0.000073
 984	9.7808e+01	9.7780	20.765008	0.000609	6.087724	1.031288	0.000061
 985	9.7908e+01	9.7890	20.833639	0.000690	6.899420	1.168793	0.000069
 986	9.8007e+01	9.8000	20.894196	0.000609	6.087724	1.031288	0.000061
 987	9.8107e+01	9.8086	20.974939	0.000812	8.116965	1.375051	0.000081
 988	9.8207e+01	9.8197	21.027421	0.000528	5.276027	0.893783	0.000053
 989	9.8306e+01	9.8279	21.180833	0.001542	15.422234	2.612597	0.000154
 990	9.8406e+01	9.8380	21.205055	0.000244	2.435090	0.412515	0.000024
 991	9.8505e+01	9.8473	21.314058	0.001096	10.957903	1.856319	0.000110
 992	9.8605e+01	9.8584	21.370578	0.000568	5.681876	0.962536	0.000057
 993	9.8704e+01	9.8682	21.475544	0.001055	10.552055	1.787566	0.000105
 994	9.8803e+01	9.8780	21.576472	0.001015	10.146206	1.718814	0.000101
 995	9.8903e+01	9.8884	21.657215	0.000812	8.116965	1.375051	0.000081
 996	9.9002e+01	9.8987	21.693549	0.000365	3.652634	0.618773	0.000037
 997	9.9102e+01	9.9075	21.826774	0.001339	13.392992	2.268834	0.000134
 998	9.9201e+01	9.9182	21.895406	0.000690	6.899420	1.168793	0.000069
 999	9.9301e+01	9.9281	22.004408	0.001096	10.957903	1.856319	0.000110
1000	9.9400e+01	9.9368	22.105337	0.001015	10.146206	1.718814	0.000101
1001	9.9500e+01	9.9477	22.137634	0.000325	3.246786	0.550020	0.000032
1002	9.9600e+01	9.9585	22.214339	0.000771	7.711117	1.306299	0.000077
1003	9.9699e+01	9.9680	22.323342	0.001096	10.957903	1.856319	0.000110
1004	9.9799e+01	9.9765	22.396011	0.000731	7.305269	1.237546	0.000073
1005	9.9898e+01	9.9873	22.509050	0.001136	11.363751	1.925072	0.000114
1006	9.9998e+01	9.9976	22.609979	0.001015	10.146206	1.718814	0.000101
1007	1.0010e+02	9.9878	22.654387	-0.000446	-4.464331	-0.756278	0.000045
1008	1.0020e+02	9.9771	22.638239	0.000162	1.623393	0.275010	-0.000016
1009	1.0030e+02	9.9683	22.698796	-0.000609	-6.087724	-1.031288	0.000061
1010	1.0040e+02	9.9572	22.739167	-0.000406	-4.058483	-0.687526	0.000041
1011	1.0050e+02	9.9481	22.739167	-0.000000	-0.000000	-0.000000	0.000000
1012	1.0059e+02	9.9376	22.832021	-0.000933	-9.334510	-1.581309	0.000093
1013	1.0069e+02	9.9279	22.827984	0.000041	0.405848	0.068753	-0.000004
1014	1.0079e+02	9.9181	22.872393	-0.000446	-4.464331	-0.756278	0.000045
1015	1.0089e+02	9.9084	22.888541	-0.000162	-1.623393	-0.275010	0.000016
1016	1.0099e+02	9.8981	22.892578	-0.000041	-0.405848	-0.068753	0.000004
1017	1.0109e+02	9.8880	22.932950	-0.000406	-4.058483	-0.687526	0.000041
1018	1.0119e+02	9.8785	22.973321	-0.000406	-4.058483	-0.687526	0.000041
1019	1.0129e+02	9.8688	23.009655	-0.000365	-3.652634	-0.618773	0.000037
1020	1.0139e+02	9.8584	23.001581	0.000081	0.811697	0.137505	-0.000008
1021	1.0149e+02	9.8486	23.001581	-0.000000	-0.000000	-0.000000	0.000000
1022	1.0159e+02	9.8389	23.066175	-0.000649	-6.493572	-1.100041	0.000065
1023	1.0169e+02	9.8291	23.045989	0.000203	2.029241	0.343763	-0.000020
1024	1.0179e+02	9.8182	23.114621	-0.000690	-6.899420	-1.168793	0.000069
1025	1.0189e+02	9.8084	23.110584	0.000041	0.405848	0.068753	-0.000004
1026	1.0199e+02	9.7986	23.130769	-0.000203	-2.029241	-0.343763	0.000020
1027	1.0209e+02	9.7891	23.159029	-0.000284	-2.840938	-0.481268	0.000028
1028	1.0219e+02	9.7782	23.175178	-0.000162	-1.623393	-0.275010	0.000016
1029	1.0229e+02	9.7683	23.227660	-0.000528	-5.276027	-0.893783	0.000053
1030	1.0239e+02	9.7588	23.235735	-0.000081	-0.811697	-0.137505	0.000008
1031	1.0248e+02	9.7485	23.251883	-0.000162	-1.623393	-0.275010	0.000016
1032	1.0258e+02	9.7395	23.227660	0.000244	2.435090	0.412515	-0.000024
1033	1.0268e+02	9.7284	23.247846	-0.000203	-2.029241	-0.343763	0.000020
1034	1.0278e+02	9.7180	23.268032	-0.000203	-2.029241	-0.343763	0.000020
1035	1.0288e+02	9.7097	23.288218	-0.000203	-2.029241	-0.343763	0.000020
1036	1.0298e+02	9.6997	23.296292	-0.000081	-0.811697	-0.137505	0.000008
1037	1.0308e+02	9.6900	23.328589	-0.000325	-3.246786	-0.550020	0.000032
1038	1.0318e+02	9.6796	23.308403	0.000203	2.029241	0.343763	-0.000020
1039	1.0328e+02	9.6692	23.356849	-0.000487	-4.870179	-0.825031	0.000049
1040	1.0338e+02	9.6595	23.360886	-0.000041	-0.405848	-0.068753	0.000004
1041	1.0348e+02	9.6491	23.344737	0.000162	1.623393	0.275010	-0.000016
1042	1.0358e+02	9.6395	23.381072	-0.000365	-3.652634	-0.618773	0.000037
1043	1.0368e+02	9.6298	23.397220	-0.000162	-1.623393	-0.275010	0.000016
1044	1.0378e+02	9.6200	23.409332	-0.000122	-1.217545	-0.206258	0.000012
1045	1.0388e+02	9.6108	23.372997	0.000365	3.652634	0.618773	-0.000037
1046	1.0398e+02	9.5997	23.385109	-0.000122	-1.217545	-0.206258	0.000012
1047	1.0408e+02	9.5899	23.417406	-0.000325	-3.246786	-0.550020	0.000032
1048	1.0418e+02	9.5805	23.429517	-0.000122	-1.217545	-0.206258	0.000012
1049	1.0428e+02	9.5703	23.425480	0.000041	0.405848	0.068753	-0.000004
1050	1.0438e+02	9.5596	23.417406	0.000081	0.811697	0.137505	-0.000008
1051	1.0447e+02	9.5496	23.421443	-0.000041	-0.405848	-0.068753	0.000004
1052	1.0457e+02	9.5401	23.457777	-0.000365	-3.652634	-0.618773	0.000037
1053	1.0467e+02	9.5288	23.453740	0.000041	0.405848	0.068753	-0.000004
1054	1.0477e+02	9.5199	23.465851	-0.000122	-1.217545	-0.206258	0.000012
1055	1.0487e+02	9.5084	23.417406	0.000487	4.870179	0.825031	-0.000049
1056	1.0497e+02	9.4999	23.457777	-0.000406	-4.058483	-0.687526	0.000041
1057	1.0507e+02	9.4907	23.469889	-0.000122	-1.217545	-0.206258	0.000012
1058	1.0517e+02	9.4801	23.461814	0.000081	0.811697	0.137505	-0.000008
1059	1.0527e+02	9.4708	23.490074	-0.000284	-2.840938	-0.481268	0.000028
1060	1.0537e+02	9.4611	23.449703	0.000406	4.058483	0.687526	-0.000041
1061	1.0547e+02	9.4492	23.498149	-0.000487	-4.870179	-0.825031	0.000049
1062	1.0557e+02	9.4404	23.473926	0.000244	2.435090	0.412515	-0.000024
1063	1.0567e+02	9.4307	23.482000	-0.000081	-0.811697	-0.137505	0.000008
1064	1.0577e+02	9.4214	23.461814	0.000203	2.029241	0.343763	-0.000020
1065	1.0587e+02	9.4110	23.465851	-0.000041	-0.405848	-0.068753	0.000004
1066	1.0597e+02	9.3998	23.453740	0.000122	1.217545	0.206258	-0.000012
1067	1.0607e+02	9.3909	23.473926	-0.000203	-2.029241	-0.343763	0.000020
1068	1.0617e+02	9.3811	23.441629	0.000325	3.246786	0.550020	-0.000032
1069	1.0627e+02	9.3704	23.453740	-0.000122	-1.217545	-0.206258	0.000012
1070	1.0637e+02	9.3604	23.449703	0.000041	0.405848	0.068753	-0.000004
1071	1.0647e+02	9.3516	23.469889	-0.000203	-2.029241	-0.343763	0.000020
1072	1.0656e+02	9.3409	23.469889	-0.000000	-0.000000	-0.000000	0.000000
1073	1.0666e+02	9.3317	23.429517	0.000406	4.058483	0.687526	-0.000041
1074	1.0676e+02	9.3203	23.469889	-0.000406	-4.058483	-0.687526	0.000041
1075	1.0686e+02	9.3118	23.445666	0.000244	2.435090	0.412515	-0.000024
1076	1.0696e+02	9.3012	23.401257	0.000446	4.464331	0.756278	-0.000045
1077	1.0706e+02	9.2908	23.453740	-0.000528	-5.276027	-0.893783	0.000053
1078	1.0716e+02	9.2822	23.413369	0.000406	4.058483	0.687526	-0.000041
1079	1.0726e+02	9.2707	23.441629	-0.000284	-2.840938	-0.481268	0.000028
1080	1.0736e+02	9.2619	23.437592	0.000041	0.405848	0.068753	-0.000004
1081	1.0746e+02	9.2516	23.437592	-0.000000	-0.000000	-0.000000	0.000000
1082	1.0756e+02	9.2413	23.405294	0.000325	3.246786	0.550020	-0.000032
1083	1.0766e+02	9.2323	23.437592	-0.000325	-3.246786	-0.550020	0.000032
1084	1.0776e+02	9.2213	23.409332	0.000284	2.840938	0.481268	-0.000028
1085	1.0786e+02	9.2117	23.401257	0.000081	0.811697	0.137505	-0.000008
1086	1.0796e+02	9.2017	23.401257	-0.000000	-0.000000	-0.000000	0.000000
1087	1.0806e+02	9.1916	23.364923	0.000365	3.652634	0.618773	-0.000037
1088	1.0816e+02	9.1813	23.348775	0.000162	1.623393	0.275010	-0.000016
1089	1.0826e+02	9.1720	23.368960	-0.000203	-2.029241	-0.343763	0.000020
1090	1.0836e+02	9.1621	23.364923	0.000041	0.405848	0.068753	-0.000004
1091	1.0845e+02	9.1532	23.336663	0.000284	2.840938	0.481268	-0.000028
1092	1.0855e+02	9.1415	23.308403	0.000284	2.840938	0.481268	-0.000028
1093	1.0865e+02	9.1321	23.336663	-0.000284	-2.840938	-0.481268	0.000028
1094	1.0875e+02	9.1217	23.328589	0.000081	0.811697	0.137505	-0.000008
1095	1.0885e+02	9.1120	23.328589	-0.000000	-0.000000	-0.000000	0.000000
1096	1.0895e+02	9.1022	23.324552	0.000041	0.405848	0.068753	-0.000004
1097	1.0905e+02	9.0925	23.296292	0.000284	2.840938	0.481268	-0.000028
1098	1.0915e+02	9.0814	23.300329	-0.000041	-0.405848	-0.068753	0.000004
1099	1.0925e+02	9.0726	23.272069	0.000284	2.840938	0.481268	-0.000028
1100	1.0935e+02	9.0626	23.272069	-0.000000	-0.000000	-0.000000	0.000000
1101	1.0945e+02	9.0527	23.276106	-0.000041	-0.405848	-0.068753	0.000004
1102	1.0955e+02	9.0425	23.272069	0.000041	0.405848	0.068753	-0.000004
1103	1.0965e+02	9.0324	23.259958	0.000122	1.217545	0.206258	-0.000012
1104	1.0975e+02	9.0222	23.207475	0.000528	5.276027	0.893783	-0.000053
1105	1.0985e+02	9.0128	23.227660	-0.000203	-2.029241	-0.343763	0.000020
1106	1.0995e+02	9.0029	23.223623	0.000041	0.405848	0.068753	-0.000004
1107	1.1005e+02	8.9928	23.207475	0.000162	1.623393	0.275010	-0.000016
1108	1.1015e+02	8.9828	23.179215	0.000284	2.840938	0.481268	-0.000028
1109	1.1025e+02	8.9735	23.219586	-0.000406	-4.058483	-0.687526	0.000041
1110	1.1035e+02	8.9628	23.175178	0.000446	4.464331	0.756278	-0.000045
1111	1.1044e+02	8.9526	23.126732	0.000487	4.870179	0.825031	-0.000049
1112	1.1054e+02	8.9435	23.167103	-0.000406	-4.058483	-0.687526	0.000041
1113	1.1064e+02	8.9339	23.122695	0.000446	4.464331	0.756278	-0.000045
1114	1.1074e+02	8.9233	23.159029	-0.000365	-3.652634	-0.618773	0.000037
1115	1.1084e+02	8.9130	23.126732	0.000325	3.246786	0.550020	-0.000032
1116	1.1094e+02	8.9034	23.114621	0.000122	1.217545	0.206258	-0.000012
1117	1.1104e+02	8.8929	23.078286	0.000365	3.652634	0.618773	-0.000037
1118	1.1114e+02	8.8831	23.062138	0.000162	1.623393	0.275010	-0.000016
1119	1.1124e+02	8.8737	23.078286	-0.000162	-1.623393	-0.275010	0.000016
1120	1.1134e+02	8.8634	23.054064	0.000244	2.435090	0.412515	-0.000024
1121	1.1144e+02	8.8531	23.033878	0.000203	2.029241	0.343763	-0.000020
1122	1.1154e+02	8.8440	23.033878	-0.000000	-0.000000	-0.000000	0.000000
1123	1.1164e+02	8.8336	23.017729	0.000162	1.623393	0.275010	-0.000016
1124	1.1174e+02	8.8248	22.969284	0.000487	4.870179	0.825031	-0.000049
1125	1.1184e+02	8.8145	22.989469	-0.000203	-2.029241	-0.343763	0.000020
1126	1.1194e+02	8.8046	22.965247	0.000244	2.435090	0.412515	-0.000024
1127	1.1204e+02	8.7945	22.949098	0.000162	1.623393	0.275010	-0.000016
1128	1.1214e+02	8.7844	22.916801	0.000325	3.246786	0.550020	-0.000032
1129	1.1224e+02	8.7735	22.924875	-0.000081	-0.811697	-0.137505	0.000008
1130	1.1234e+02	8.7659	22.924875	-0.000000	-0.000000	-0.000000	0.000000
1131	1.1244e+02	8.7554	22.908727	0.000162	1.623393	0.275010	-0.000016
1132	1.1253e+02	8.7441	22.900652	0.000081	0.811697	0.137505	-0.000008
1133	1.1263e+02	8.7354	22.860281	0.000406	4.058483	0.687526	-0.000041
1134	1.1273e+02	8.7246	22.848170	0.000122	1.217545	0.206258	-0.000012
1135	1.1283e+02	8.7165	22.836058	0.000122	1.217545	0.206258	-0.000012
1136	1.1293e+02	8.7049	22.815873	0.000203	2.029241	0.343763	-0.000020
1137	1.1303e+02	8.6951	22.815873	-0.000000	-0.000000	-0.000000	0.000000
1138	1.1313e+02	8.6851	22.787613	0.000284	2.840938	0.481268	-0.000028
1139	1.1323e+02	8.6753	22.791650	-0.000041	-0.405848	-0.068753	0.000004
1140	1.1333e+02	8.6646	22.747241	0.000446	4.464331	0.756278	-0.000045
1141	1.1343e+02	8.6555	22.735130	0.000122	1.217545	0.206258	-0.000012
1142	1.1353e+02	8.6440	22.694759	0.000406	4.058483	0.687526	-0.000041
1143	1.1363e+02	8.6353	22.698796	-0.000041	-0.405848	-0.068753	0.000004
1144	1.1373e+02	8.6256	22.690721	0.000081	0.811697	0.137505	-0.000008
1145	1.1383e+02	8.6155	22.650350	0.000406	4.058483	0.687526	-0.000041
1146	1.1393e+02	8.6040	22.674573	-0.000244	-2.435090	-0.412515	0.000024
1147	1.1403e+02	8.5955	22.658424	0.000162	1.623393	0.275010	-0.000016
1148	1.1413e+02	8.5861	22.634202	0.000244	2.435090	0.412515	-0.000024
1149	1.1423e+02	8.5749	22.589793	0.000446	4.464331	0.756278	-0.000045
1150	1.1433e+02	8.5656	22.573644	0.000162	1.623393	0.275010	-0.000016
1151	1.1442e+02	8.5549	22.581719	-0.000081	-0.811697	-0.137505	0.000008
1152	1.1452e+02	8.5470	22.549422	0.000325	3.246786	0.550020	-0.000032
1153	1.1462e+02	8.5352	22.569607	-0.000203	-2.029241	-0.343763	0.000020
1154	1.1472e+02	8.5256	22.500976	0.000690	6.899420	1.168793	-0.000069
1155	1.1482e+02	8.5162	22.472716	0.000284	2.840938	0.481268	-0.000028
1156	1.1492e+02	8.5051	22.456568	0.000162	1.623393	0.275010	-0.000016
1157	1.1502e+02	8.4961	22.488865	-0.000325	-3.246786	-0.550020	0.000032
1158	1.1512e+02	8.4863	22.456568	0.000325	3.246786	0.550020	-0.000032
1159	1.1522e+02	8.4771	22.432345	0.000244	2.435090	0.412515	-0.000024
1160	1.1532e+02	8.4659	22.396011	0.000365	3.652634	0.618773	-0.000037
1161	1.1542e+02	8.4563	22.383899	0.000122	1.217545	0.206258	-0.000012
1162	1.1552e+02	8.4463	22.379862	0.000041	0.405848	0.068753	-0.000004
1163	1.1562e+02	8.4356	22.355639	0.000244	2.435090	0.412515	-0.000024
1164	1.1572e+02	8.4265	22.371788	-0.000162	-1.623393	-0.275010	0.000016
1165	1.1582e+02	8.4158	22.323342	0.000487	4.870179	0.825031	-0.000049
1166	1.1592e+02	8.4066	22.270859	0.000528	5.276027	0.893783	-0.000053
1167	1.1602e+02	8.3971	22.266822	0.000041	0.405848	0.068753	-0.000004
1168	1.1612e+02	8.3866	22.278934	-0.000122	-1.217545	-0.206258	0.000012
1169	1.1622e+02	8.3765	22.230488	0.000487	4.870179	0.825031	-0.000049
1170	1.1632e+02	8.3662	22.230488	-0.000000	-0.000000	-0.000000	0.000000
1171	1.1642e+02	8.3578	22.198191	0.000325	3.246786	0.550020	-0.000032
1172	1.1651e+02	8.3466	22.182042	0.000162	1.623393	0.275010	-0.000016
1173	1.1661e+02	8.3371	22.133597	0.000487	4.870179	0.825031	-0.000049
1174	1.1671e+02	8.3266	22.109374	0.000244	2.435090	0.412515	-0.000024
1175	1.1681e+02	8.3176	22.109374	-0.000000	-0.000000	-0.000000	0.000000
1176	1.1691e+02	8.3062	22.097262	0.000122	1.217545	0.206258	-0.000012
1177	1.1701e+02	8.2982	22.077077	0.000203	2.029241	0.343763	-0.000020
1178	1.1711e+02	8.2874	22.048817	0.000284	2.840938	0.481268	-0.000028
1179	1.1721e+02	8.2775	22.056891	-0.000081	-0.811697	-0.137505	0.000008
1180	1.1731e+02	8.2668	22.008445	0.000487	4.870179	0.825031	-0.000049
1181	1.1741e+02	8.2574	21.984223	0.000244	2.435090	0.412515	-0.000024
1182	1.1751e+02	8.2472	21.972111	0.000122	1.217545	0.206258	-0.000012
1183	1.1761e+02	8.2374	21.996334	-0.000244	-2.435090	-0.412515	0.000024
1184	1.1771e+02	8.2256	21.919628	0.000771	7.711117	1.306299	-0.000077
1185	1.1781e+02	8.2178	21.955963	-0.000365	-3.652634	-0.618773	0.000037
1186	1.1791e+02	8.2073	21.907517	0.000487	4.870179	0.825031	-0.000049
1187	1.1801e+02	8.1971	21.895406	0.000122	1.217545	0.206258	-0.000012
1188	1.1811e+02	8.1872	21.859071	0.000365	3.652634	0.618773	-0.000037
1189	1.1821e+02	8.1781	21.855034	0.000041	0.405848	0.068753	-0.000004
1190	1.1831e+02	8.1680	21.810626	0.000446	4.464331	0.756278	-0.000045
1191	1.1841e+02	8.1577	21.818700	-0.000081	-0.811697	-0.137505	0.000008
1192	1.1850e+02	8.1483	21.790440	0.000284	2.840938	0.481268	-0.000028
1193	1.1860e+02	8.1390	21.741995	0.000487	4.870179	0.825031	-0.000049
1194	1.1870e+02	8.1280	21.721809	0.000203	2.029241	0.343763	-0.000020
1195	1.1880e+02	8.1177	21.689512	0.000325	3.246786	0.550020	-0.000032
1196	1.1890e+02	8.1079	21.705660	-0.000162	-1.623393	-0.275010	0.000016
1197	1.1900e+02	8.0986	21.677400	0.000284	2.840938	0.481268	-0.000028
1198	1.1910e+02	8.0884	21.624918	0.000528	5.276027	0.893783	-0.000053
1199	1.1920e+02	8.0779	21.620880	0.000041	0.405848	0.068753	-0.000004
1200	1.1930e+02	8.0682	21.649140	-0.000284	-2.840938	-0.481268	0.000028
1201	1.1940e+02	8.0585	21.584546	0.000649	6.493572	1.100041	-0.000065
1202	1.1950e+02	8.0480	21.576472	0.000081	0.811697	0.137505	-0.000008
1203	1.1960e+02	8.0392	21.536101	0.000406	4.058483	0.687526	-0.000041
1204	1.1970e+02	8.0286	21.495729	0.000406	4.058483	0.687526	-0.000041
1205	1.1980e+02	8.0194	21.471506	0.000244	2.435090	0.412515	-0.000024
1206	1.1990e+02	8.0081	21.451321	0.000203	2.029241	0.343763	-0.000020
1207	1.2000e+02	7.9976	21.467469	-0.000162	-1.623393	-0.275010	0.000016
1208	1.2010e+02	7.9883	21.394801	0.000731	7.305269	1.237546	-0.000073
1209	1.2020e+02	7.9790	21.406912	-0.000122	-1.217545	-0.206258	0.000012
1210	1.2030e+02	7.9691	21.394801	0.000122	1.217545	0.206258	-0.000012
1211	1.2039e+02	7.9584	21.318095	0.000771	7.711117	1.306299	-0.000077
1212	1.2049e+02	7.9492	21.326170	-0.000081	-0.811697	-0.137505	0.000008
1213	1.2059e+02	7.9398	21.293872	0.000325	3.246786	0.550020	-0.000032
1214	1.2069e+02	7.9282	21.301947	-0.000081	-0.811697	-0.137505	0.000008
1215	1.2079e+02	7.9192	21.273687	0.000284	2.840938	0.481268	-0.000028
1216	1.2089e+02	7.9091	21.209093	0.000649	6.493572	1.100041	-0.000065
1217	1.2099e+02	7.8987	21.205055	0.000041	0.405848	0.068753	-0.000004
1218	1.2109e+02	7.8892	21.176796	0.000284	2.840938	0.481268	-0.000028
1219	1.2119e+02	7.8795	21.160647	0.000162	1.623393	0.275010	-0.000016
1220	1.2129e+02	7.8693	21.136424	0.000244	2.435090	0.412515	-0.000024
1221	1.2139e+02	7.8593	21.128350	0.000081	0.811697	0.137505	-0.000008
1222	1.2149e+02	7.8492	21.067793	0.000609	6.087724	1.031288	-0.000061
1223	1.2159e+02	7.8397	21.063756	0.000041	0.405848	0.068753	-0.000004
1224	1.2169e+02	7.8295	21.027421	0.000365	3.652634	0.618773	-0.000037
1225	1.2179e+02	7.8199	21.031459	-0.000041	-0.405848	-0.068753	0.000004
1226	1.2189e+02	7.8094	21.023384	0.000081	0.811697	0.137505	-0.000008
1227	1.2199e+02	7.7990	20.970902	0.000528	5.276027	0.893783	-0.000053
1228	1.2209e+02	7.7897	20.958790	0.000122	1.217545	0.206258	-0.000012
1229	1.2219e+02	7.7801	20.918419	0.000406	4.058483	0.687526	-0.000041
1230	1.2229e+02	7.7699	20.910345	0.000081	0.811697	0.137505	-0.000008
1231	1.2239e+02	7.7588	20.882085	0.000284	2.840938	0.481268	-0.000028
1232	1.2248e+02	7.7494	20.878047	0.000041	0.405848	0.068753	-0.000004
1233	1.2258e+02	7.7403	20.841713	0.000365	3.652634	0.618773	-0.000037
1234	1.2268e+02	7.7303	20.825565	0.000162	1.623393	0.275010	-0.000016
1235	1.2278e+02	7.7204	20.777119	0.000487	4.870179	0.825031	-0.000049
1236	1.2288e+02	7.7100	20.756933	0.000203	2.029241	0.343763	-0.000020
1237	1.2298e+02	7.6996	20.760971	-0.000041	-0.405848	-0.068753	0.000004
1238	1.2308e+02	7.6893	20.712525	0.000487	4.870179	0.825031	-0.000049
1239	1.2318e+02	7.6796	20.664079	0.000487	4.870179	0.825031	-0.000049
1240	1.2328e+02	7.6707	20.692339	-0.000284	-2.840938	-0.481268	0.000028
1241	1.2338e+02	7.6606	20.664079	0.000284	2.840938	0.481268	-0.000028
1242	1.2348e+02	7.6502	20.607559	0.000568	5.681876	0.962536	-0.000057
1243	1.2358e+02	7.6416	20.591411	0.000162	1.623393	0.275010	-0.000016
1244	1.2368e+02	7.6301	20.571225	0.000203	2.029241	0.343763	-0.000020
1245	1.2378e+02	7.6200	20.534891	0.000365	3.652634	0.618773	-0.000037
1246	1.2388e+02	7.6101	20.510668	0.000244	2.435090	0.412515	-0.000024
1247	1.2398e+02	7.6002	20.502594	0.000081	0.811697	0.137505	-0.000008
1248	1.2408e+02	7.5905	20.462222	0.000406	4.058483	0.687526	-0.000041
1249	1.2418e+02	7.5800	20.417814	0.000446	4.464331	0.756278	-0.000045
1250	1.2428e+02	7.5712	20.385517	0.000325	3.246786	0.550020	-0.000032
1251	1.2438e+02	7.5614	20.365331	0.000203	2.029241	0.343763	-0.000020
1252	1.2447e+02	7.5504	20.349183	0.000162	1.623393	0.275010	-0.000016
1253	1.2457e+02	7.5410	20.341108	0.000081	0.811697	0.137505	-0.000008
1254	1.2467e+02	7.5309	20.328997	0.000122	1.217545	0.206258	-0.000012
1255	1.2477e+02	7.5214	20.296700	0.000325	3.246786	0.550020	-0.000032
1256	1.2487e+02	7.5103	20.272477	0.000244	2.435090	0.412515	-0.000024
1257	1.2497e+02	7.5017	20.232106	0.000406	4.058483	0.687526	-0.000041
1258	1.2507e+02	7.4921	20.203846	0.000284	2.840938	0.481268	-0.000028
1259	1.2517e+02	7.4819	20.195772	0.000081	0.811697	0.137505	-0.000008
1260	1.2527e+02	7.4715	20.151363	0.000446	4.464331	0.756278	-0.000045
1261	1.2537e+02	7.4610	20.123103	0.000284	2.840938	0.481268	-0.000028
1262	1.2547e+02	7.4512	20.110992	0.000122	1.217545	0.206258	-0.000012
1263	1.2557e+02	7.4417	20.090806	0.000203	2.029241	0.343763	-0.000020
1264	1.2567e+02	7.4317	20.054472	0.000365	3.652634	0.618773	-0.000037
1265	1.2577e+02	7.4220	20.006026	0.000487	4.870179	0.825031	-0.000049
1266	1.2587e+02	7.4111	20.010063	-0.000041	-0.405848	-0.068753	0.000004
1267	1.2597e+02	7.4010	20.001989	0.000081	0.811697	0.137505	-0.000008
1268	1.2607e+02	7.3919	19.961618	0.000406	4.058483	0.687526	-0.000041
1269	1.2617e+02	7.3812	19.925283	0.000365	3.652634	0.618773	-0.000037
1270	1.2627e+02	7.3724	19.917209	0.000081	0.811697	0.137505	-0.000008
1271	1.2636e+02	7.3612	19.868764	0.000487	4.870179	0.825031	-0.000049
1272	1.2646e+02	7.3527	19.840504	0.000284	2.840938	0.481268	-0.000028
1273	1.2656e+02	7.3431	19.832429	0.000081	0.811697	0.137505	-0.000008
1274	1.2666e+02	7.3318	19.800132	0.000325	3.246786	0.550020	-0.000032
1275	1.2676e+02	7.3218	19.775909	0.000244	2.435090	0.412515	-0.000024
1276	1.2686e+02	7.3122	19.763798	0.000122	1.217545	0.206258	-0.000012
1277	1.2696e+02	7.3019	19.719390	0.000446	4.464331	0.756278	-0.000045
1278	1.2706e+02	7.2922	19.711315	0.000081	0.811697	0.137505	-0.000008
1279	1.2716e+02	7.2817	19.695167	0.000162	1.623393	0.275010	-0.000016
1280	1.2726e+02	7.2713	19.650758	0.000446	4.464331	0.756278	-0.000045
1281	1.2736e+02	7.2625	19.606350	0.000446	4.464331	0.756278	-0.000045
1282	1.2746e+02	7.2529	19.586164	0.000203	2.029241	0.343763	-0.000020
1283	1.2756e+02	7.2433	19.582127	0.000041	0.405848	0.068753	-0.000004
1284	1.2766e+02	7.2315	19.537718	0.000446	4.464331	0.756278	-0.000045
1285	1.2776e+02	7.2231	19.497347	0.000406	4.058483	0.687526	-0.000041
1286	1.2786e+02	7.2133	19.481199	0.000162	1.623393	0.275010	-0.000016
1287	1.2796e+02	7.2029	19.448901	0.000325	3.246786	0.550020	-0.000032
1288	1.2806e+02	7.1935	19.432753	0.000162	1.623393	0.275010	-0.000016
1289	1.2816e+02	7.1835	19.404493	0.000284	2.840938	0.481268	-0.000028
1290	1.2826e+02	7.1732	19.368159	0.000365	3.652634	0.618773	-0.000037
1291	1.2835e+02	7.1622	19.343936	0.000244	2.435090	0.412515	-0.000024
1292	1.2845e+02	7.1523	19.352010	-0.000081	-0.811697	-0.137505	0.000008
1293	1.2855e+02	7.1436	19.311639	0.000406	4.058483	0.687526	-0.000041
1294	1.2865e+02	7.1331	19.287416	0.000244	2.435090	0.412515	-0.000024
1295	1.2875e+02	7.1230	19.263193	0.000244	2.435090	0.412515	-0.000024
1296	1.2885e+02	7.1124	19.210710	0.000528	5.276027	0.893783	-0.000053
1297	1.2895e+02	7.1035	19.226859	-0.000162	-1.623393	-0.275010	0.000016
1298	1.2905e+02	7.0937	19.206673	0.000203	2.029241	0.343763	-0.000020
1299	1.2915e+02	7.0831	19.117856	0.000893	8.928662	1.512556	-0.000089
1300	1.2925e+02	7.0730	19.109782	0.000081	0.811697	0.137505	-0.000008
1301	1.2935e+02	7.0634	19.069411	0.000406	4.058483	0.687526	-0.000041
1302	1.2945e+02	7.0534	19.057299	0.000122	1.217545	0.206258	-0.000012
1303	1.2955e+02	7.0428	19.065374	-0.000081	-0.811697	-0.137505	0.000008
1304	1.2965e+02	7.0330	19.025002	0.000406	4.058483	0.687526	-0.000041
1305	1.2975e+02	7.0235	18.992705	0.000325	3.246786	0.550020	-0.000032
1306	1.2985e+02	7.0133	18.936185	0.000568	5.681876	0.962536	-0.000057
1307	1.2995e+02	7.0028	18.911962	0.000244	2.435090	0.412515	-0.000024
1308	1.3005e+02	6.9941	18.907925	0.000041	0.405848	0.068753	-0.000004
1309	1.3015e+02	6.9838	18.871591	0.000365	3.652634	0.618773	-0.000037
1310	1.3025e+02	6.9741	18.859480	0.000122	1.217545	0.206258	-0.000012
1311	1.3034e+02	6.9642	18.827183	0.000325	3.246786	0.550020	-0.000032
1312	1.3044e+02	6.9540	18.778737	0.000487	4.870179	0.825031	-0.000049
1313	1.3054e+02	6.9439	18.702031	0.000771	7.711117	1.306299	-0.000077
1314	1.3064e+02	6.9341	18.726254	-0.000244	-2.435090	-0.412515	0.000024
1315	1.3074e+02	6.9249	18.689920	0.000365	3.652634	0.618773	-0.000037
1316	1.3084e+02	6.9150	18.665697	0.000244	2.435090	0.412515	-0.000024
1317	1.3094e+02	6.9044	18.641474	0.000244	2.435090	0.412515	-0.000024
1318	1.3104e+02	6.8940	18.649549	-0.000081	-0.811697	-0.137505	0.000008
1319	1.3114e+02	6.8841	18.593029	0.000568	5.681876	0.962536	-0.000057
1320	1.3124e+02	6.8742	18.584954	0.000081	0.811697	0.137505	-0.000008
1321	1.3134e+02	6.8645	18.516323	0.000690	6.899420	1.168793	-0.000069
1322	1.3144e+02	6.8545	18.524397	-0.000081	-0.811697	-0.137505	0.000008
1323	1.3154e+02	6.8442	18.447692	0.000771	7.711117	1.306299	-0.000077
1324	1.3164e+02	6.8337	18.423469	0.000244	2.435090	0.412515	-0.000024
1325	1.3174e+02	6.8243	18.411358	0.000122	1.217545	0.206258	-0.000012
1326	1.3184e+02	6.8157	18.391172	0.000203	2.029241	0.343763	-0.000020
1327	1.3194e+02	6.8044	18.383098	0.000081	0.811697	0.137505	-0.000008
1328	1.3204e+02	6.7949	18.366949	0.000162	1.623393	0.275010	-0.000016
1329	1.3214e+02	6.7838	18.294281	0.000731	7.305269	1.237546	-0.000073
1330	1.3224e+02	6.7757	18.257946	0.000365	3.652634	0.618773	-0.000037
1331	1.3234e+02	6.7653	18.253909	0.000041	0.405848	0.068753	-0.000004
1332	1.3243e+02	6.7541	18.213538	0.000406	4.058483	0.687526	-0.000041
1333	1.3253e+02	6.7449	18.205464	0.000081	0.811697	0.137505	-0.000008
1334	1.3263e+02	6.7345	18.173167	0.000325	3.246786	0.550020	-0.000032
1335	1.3273e+02	6.7255	18.128758	0.000446	4.464331	0.756278	-0.000045
1336	1.3283e+02	6.7147	18.088387	0.000406	4.058483	0.687526	-0.000041
1337	1.3293e+02	6.7034	18.084350	0.000041	0.405848	0.068753	-0.000004
1338	1.3303e+02	6.6943	18.056090	0.000284	2.840938	0.481268	-0.000028
1339	1.3313e+02	6.6848	18.007644	0.000487	4.870179	0.825031	-0.000049
1340	1.3323e+02	6.6744	17.987458	0.000203	2.029241	0.343763	-0.000020
1341	1.3333e+02	6.6656	17.971310	0.000162	1.623393	0.275010	-0.000016
1342	1.3343e+02	6.6553	17.934976	0.000365	3.652634	0.618773	-0.000037
1343	1.3353e+02	6.6463	17.910753	0.000244	2.435090	0.412515	-0.000024
1344	1.3363e+02	6.6354	17.890567	0.000203	2.029241	0.343763	-0.000020
1345	1.3373e+02	6.6252	17.825973	0.000649	6.493572	1.100041	-0.000065
1346	1.3383e+02	6.6158	17.838084	-0.000122	-1.217545	-0.206258	0.000012
1347	1.3393e+02	6.6061	17.777527	0.000609	6.087724	1.031288	-0.000061
1348	1.3403e+02	6.5950	17.741193	0.000365	3.652634	0.618773	-0.000037
1349	1.3413e+02	6.5862	17.721007	0.000203	2.029241	0.343763	-0.000020
1350	1.3423e+02	6.5762	17.733119	-0.000122	-1.217545	-0.206258	0.000012
1351	1.3432e+02	6.5664	17.688710	0.000446	4.464331	0.756278	-0.000045
1352	1.3442e+02	6.5566	17.664487	0.000244	2.435090	0.412515	-0.000024
1353	1.3452e+02	6.5455	17.628153	0.000365	3.652634	0.618773	-0.000037
1354	1.3462e+02	6.5350	17.603930	0.000244	2.435090	0.412515	-0.000024
1355	1.3472e+02	6.5263	17.559522	0.000446	4.464331	0.756278	-0.000045
1356	1.3482e+02	6.5151	17.523188	0.000365	3.652634	0.618773	-0.000037
1357	1.3492e+02	6.5060	17.503002	0.000203	2.029241	0.343763	-0.000020
1358	1.3502e+02	6.4956	17.430334	0.000731	7.305269	1.237546	-0.000073
1359	1.3512e+02	6.4863	17.414185	0.000162	1.623393	0.275010	-0.000016
1360	1.3522e+02	6.4765	17.422259	-0.000081	-0.811697	-0.137505	0.000008
1361	1.3532e+02	6.4666	17.393999	0.000284	2.840938	0.481268	-0.000028
1362	1.3542e+02	6.4559	17.349591	0.000446	4.464331	0.756278	-0.000045
1363	1.3552e+02	6.4471	17.325368	0.000244	2.435090	0.412515	-0.000024
1364	1.3562e+02	6.4364	17.293071	0.000325	3.246786	0.550020	-0.000032
1365	1.3572e+02	6.4268	17.268848	0.000244	2.435090	0.412515	-0.000024
1366	1.3582e+02	6.4171	17.236551	0.000325	3.246786	0.550020	-0.000032
1367	1.3592e+02	6.4066	17.184068	0.000528	5.276027	0.893783	-0.000053
1368	1.3602e+02	6.3964	17.175994	0.000081	0.811697	0.137505	-0.000008
1369	1.3612e+02	6.3868	17.163883	0.000122	1.217545	0.206258	-0.000012
1370	1.3622e+02	6.3773	17.139660	0.000244	2.435090	0.412515	-0.000024
1371	1.3631e+02	6.3680	17.123511	0.000162	1.623393	0.275010	-0.000016
1372	1.3641e+02	6.3566	17.046806	0.000771	7.711117	1.306299	-0.000077
1373	1.3651e+02	6.3464	17.022583	0.000244	2.435090	0.412515	-0.000024
1374	1.3661e+02	6.3369	17.002397	0.000203	2.029241	0.343763	-0.000020
1375	1.3671e+02	6.3265	16.974137	0.000284	2.840938	0.481268	-0.000028
1376	1.3681e+02	6.3174	16.929729	0.000446	4.464331	0.756278	-0.000045
1377	1.3691e+02	6.3061	16.861097	0.000690	6.899420	1.168793	-0.000069
1378	1.3701e+02	6.2975	16.873209	-0.000122	-1.217545	-0.206258	0.000012
1379	1.3711e+02	6.2879	16.853023	0.000203	2.029241	0.343763	-0.000020
1380	1.3721e+02	6.2783	16.816689	0.000365	3.652634	0.618773	-0.000037
1381	1.3731e+02	6.2685	16.760169	0.000568	5.681876	0.962536	-0.000057
1382	1.3741e+02	6.2572	16.760169	-0.000000	-0.000000	-0.000000	0.000000
1383	1.3751e+02	6.2479	16.723835	0.000365	3.652634	0.618773	-0.000037
1384	1.3761e+02	6.2374	16.671352	0.000528	5.276027	0.893783	-0.000053
1385	1.3771e+02	6.2285	16.683463	-0.000122	-1.217545	-0.206258	0.000012
1386	1.3781e+02	6.2182	16.614832	0.000690	6.899420	1.168793	-0.000069
1387	1.3791e+02	6.2080	16.594646	0.000203	2.029241	0.343763	-0.000020
1388	1.3801e+02	6.1982	16.574461	0.000203	2.029241	0.343763	-0.000020
1389	1.3811e+02	6.1886	16.538127	0.000365	3.652634	0.618773	-0.000037
1390	1.3821e+02	6.1791	16.530052	0.000081	0.811697	0.137505	-0.000008
1391	1.3831e+02	6.1678	16.505829	0.000244	2.435090	0.412515	-0.000024
1392	1.3840e+02	6.1579	16.461421	0.000446	4.464331	0.756278	-0.000045
1393	1.3850e+02	6.1485	16.429124	0.000325	3.246786	0.550020	-0.000032
1394	1.3860e+02	6.1385	16.400864	0.000284	2.840938	0.481268	-0.000028
1395	1.3870e+02	6.1294	16.380678	0.000203	2.029241	0.343763	-0.000020
1396	1.3880e+02	6.1187	16.295898	0.000852	8.522813	1.443804	-0.000085
1397	1.3890e+02	6.1089	16.308010	-0.000122	-1.217545	-0.206258	0.000012
1398	1.3900e+02	6.0987	16.251490	0.000568	5.681876	0.962536	-0.000057
1399	1.3910e+02	6.0891	16.219193	0.000325	3.246786	0.550020	-0.000032
1400	1.3920e+02	6.0783	16.182859	0.000365	3.652634	0.618773	-0.000037
1401	1.3930e+02	6.0696	16.186896	-0.000041	-0.405848	-0.068753	0.000004
1402	1.3940e+02	6.0590	16.130376	0.000568	5.681876	0.962536	-0.000057
1403	1.3950e+02	6.0488	16.126339	0.000041	0.405848	0.068753	-0.000004
1404	1.3960e+02	6.0390	16.094042	0.000325	3.246786	0.550020	-0.000032
1405	1.3970e+02	6.0294	16.053670	0.000406	4.058483	0.687526	-0.000041
1406	1.3980e+02	6.0195	16.045596	0.000081	0.811697	0.137505	-0.000008
1407	1.3990e+02	6.0085	16.005225	0.000406	4.058483	0.687526	-0.000041
1408	1.4000e+02	5.9988	15.952742	0.000528	5.276027	0.893783	-0.000053
1409	1.4010e+02	5.9890	15.896222	0.000568	5.681876	0.962536	-0.000057
1410	1.4020e+02	5.9788	15.851813	0.000446	4.464331	0.756278	-0.000045
1411	1.4029e+02	5.9701	15.863925	-0.000122	-1.217545	-0.206258	0.000012
1412	1.4039e+02	5.9586	15.839702	0.000244	2.435090	0.412515	-0.000024
1413	1.4049e+02	5.9499	15.799331	0.000406	4.058483	0.687526	-0.000041
1414	1.4059e+02	5.9393	15.771071	0.000284	2.840938	0.481268	-0.000028
1415	1.4069e+02	5.9301	15.775108	-0.000041	-0.405848	-0.068753	0.000004
1416	1.4079e+02	5.9199	15.698402	0.000771	7.711117	1.306299	-0.000077
1417	1.4089e+02	5.9098	15.694365	0.000041	0.405848	0.068753	-0.000004
1418	1.4099e+02	5.8999	15.658031	0.000365	3.652634	0.618773	-0.000037
1419	1.4109e+02	5.8901	15.589400	0.000690	6.899420	1.168793	-0.000069
1420	1.4119e+02	5.8802	15.573251	0.000162	1.623393	0.275010	-0.000016
1421	1.4129e+02	5.8697	15.557103	0.000162	1.623393	0.275010	-0.000016
1422	1.4139e+02	5.8599	15.540954	0.000162	1.623393	0.275010	-0.000016
1423	1.4149e+02	5.8506	15.516731	0.000244	2.435090	0.412515	-0.000024
1424	1.4159e+02	5.8399	15.444063	0.000731	7.305269	1.237546	-0.000073
1425	1.4169e+02	5.8300	15.464248	-0.000203	-2.029241	-0.343763	0.000020
1426	1.4179e+02	5.8203	15.411766	0.000528	5.276027	0.893783	-0.000053
1427	1.4189e+02	5.8108	15.391580	0.000203	2.029241	0.343763	-0.000020
1428	1.4199e+02	5.7996	15.322949	0.000690	6.899420	1.168793	-0.000069
1429	1.4209e+02	5.7906	15.290652	0.000325	3.246786	0.550020	-0.000032
1430	1.4219e+02	5.7796	15.258355	0.000325	3.246786	0.550020	-0.000032
1431	1.4228e+02	5.7705	15.270466	-0.000122	-1.217545	-0.206258	0.000012
1432	1.4238e+02	5.7598	15.246243	0.000244	2.435090	0.412515	-0.000024
1433	1.4248e+02	5.7508	15.213946	0.000325	3.246786	0.550020	-0.000032
1434	1.4258e+02	5.7403	15.141278	0.000731	7.305269	1.237546	-0.000073
1435	1.4268e+02	5.7304	15.117055	0.000244	2.435090	0.412515	-0.000024
1436	1.4278e+02	5.7204	15.100906	0.000162	1.623393	0.275010	-0.000016
1437	1.4288e+02	5.7100	15.068609	0.000325	3.246786	0.550020	-0.000032
1438	1.4298e+02	5.7003	15.032275	0.000365	3.652634	0.618773	-0.000037
1439	1.4308e+02	5.6899	15.024201	0.000081	0.811697	0.137505	-0.000008
1440	1.4318e+02	5.6805	14.967681	0.000568	5.681876	0.962536	-0.000057
1441	1.4328e+02	5.6707	14.947495	0.000203	2.029241	0.343763	-0.000020
1442	1.4338e+02	5.6612	14.903087	0.000446	4.464331	0.756278	-0.000045
1443	1.4348e+02	5.6515	14.870789	0.000325	3.246786	0.550020	-0.000032
1444	1.4358e+02	5.6413	14.806195	0.000649	6.493572	1.100041	-0.000065
1445	1.4368e+02	5.6312	14.810232	-0.000041	-0.405848	-0.068753	0.000004
1446	1.4378e+02	5.6207	14.753713	0.000568	5.681876	0.962536	-0.000057
1447	1.4388e+02	5.6116	14.721415	0.000325	3.246786	0.550020	-0.000032
1448	1.4398e+02	5.6018	14.725453	-0.000041	-0.405848	-0.068753	0.000004
1449	1.4408e+02	5.5917	14.628561	0.000974	9.740358	1.650061	-0.000097
1450	1.4418e+02	5.5811	14.624524	0.000041	0.405848	0.068753	-0.000004
1451	1.4428e+02	5.5714	14.608376	0.000162	1.623393	0.275010	-0.000016
1452	1.4437e+02	5.5606	14.580116	0.000284	2.840938	0.481268	-0.000028
1453	1.4447e+02	5.5512	14.547819	0.000325	3.246786	0.550020	-0.000032
1454	1.4457e+02	5.5415	14.499373	0.000487	4.870179	0.825031	-0.000049
1455	1.4467e+02	5.5322	14.507447	-0.000081	-0.811697	-0.137505	0.000008
1456	1.4477e+02	5.5230	14.446890	0.000609	6.087724	1.031288	-0.000061
1457	1.4487e+02	5.5112	14.422667	0.000244	2.435090	0.412515	-0.000024
1458	1.4497e+02	5.5019	14.378259	0.000446	4.464331	0.756278	-0.000045
1459	1.4507e+02	5.4920	14.349999	0.000284	2.840938	0.481268	-0.000028
1460	1.4517e+02	5.4825	14.329813	0.000203	2.029241	0.343763	-0.000020
1461	1.4527e+02	5.4716	14.261182	0.000690	6.899420	1.168793	-0.000069
1462	1.4537e+02	5.4615	14.224848	0.000365	3.652634	0.618773	-0.000037
1463	1.4547e+02	5.4522	14.220811	0.000041	0.405848	0.068753	-0.000004
1464	1.4557e+02	5.4416	14.200625	0.000203	2.029241	0.343763	-0.000020
1465	1.4567e+02	5.4318	14.176402	0.000244	2.435090	0.412515	-0.000024
1466	1.4577e+02	5.4224	14.099697	0.000771	7.711117	1.306299	-0.000077
1467	1.4587e+02	5.4127	14.095659	0.000041	0.405848	0.068753	-0.000004
1468	1.4597e+02	5.4021	14.075474	0.000203	2.029241	0.343763	-0.000020
1469	1.4607e+02	5.3924	14.018954	0.000568	5.681876	0.962536	-0.000057
1470	1.4617e+02	5.3826	13.998768	0.000203	2.029241	0.343763	-0.000020
1471	1.4626e+02	5.3716	13.954360	0.000446	4.464331	0.756278	-0.000045
1472	1.4636e+02	5.3623	13.913988	0.000406	4.058483	0.687526	-0.000041
1473	1.4646e+02	5.3527	13.865543	0.000487	4.870179	0.825031	-0.000049
1474	1.4656e+02	5.3429	13.873617	-0.000081	-0.811697	-0.137505	0.000008
1475	1.4666e+02	5.3327	13.837283	0.000365	3.652634	0.618773	-0.000037
1476	1.4676e+02	5.3217	13.772689	0.000649	6.493572	1.100041	-0.000065
1477	1.4686e+02	5.3133	13.744429	0.000284	2.840938	0.481268	-0.000028
1478	1.4696e+02	5.3028	13.728280	0.000162	1.623393	0.275010	-0.000016
1479	1.4706e+02	5.2927	13.695983	0.000325	3.246786	0.550020	-0.000032
1480	1.4716e+02	5.2826	13.679834	0.000162	1.623393	0.275010	-0.000016
1481	1.4726e+02	5.2734	13.647537	0.000325	3.246786	0.550020	-0.000032
1482	1.4736e+02	5.2618	13.570832	0.000771	7.711117	1.306299	-0.000077
1483	1.4746e+02	5.2535	13.534498	0.000365	3.652634	0.618773	-0.000037
1484	1.4756e+02	5.2431	13.514312	0.000203	2.029241	0.343763	-0.000020
1485	1.4766e+02	5.2332	13.490089	0.000244	2.435090	0.412515	-0.000024
1486	1.4776e+02	5.2229	13.437606	0.000528	5.276027	0.893783	-0.000053
1487	1.4786e+02	5.2132	13.437606	-0.000000	-0.000000	-0.000000	0.000000
1488	1.4796e+02	5.2030	13.429532	0.000081	0.811697	0.137505	-0.000008
1489	1.4806e+02	5.1934	13.364938	0.000649	6.493572	1.100041	-0.000065
1490	1.4816e+02	5.1833	13.316492	0.000487	4.870179	0.825031	-0.000049
1491	1.4825e+02	5.1733	13.284195	0.000325	3.246786	0.550020	-0.000032
1492	1.4835e+02	5.1622	13.247861	0.000365	3.652634	0.618773	-0.000037
1493	1.4845e+02	5.1534	13.215564	0.000325	3.246786	0.550020	-0.000032
1494	1.4855e+02	5.1434	13.187304	0.000284	2.840938	0.481268	-0.000028
1495	1.4865e+02	5.1336	13.171155	0.000162	1.623393	0.275010	-0.000016
1496	1.4875e+02	5.1247	13.106561	0.000649	6.493572	1.100041	-0.000065
1497	1.4885e+02	5.1138	13.110598	-0.000041	-0.405848	-0.068753	0.000004
1498	1.4895e+02	5.1034	13.050041	0.000609	6.087724	1.031288	-0.000061
1499	1.4905e+02	5.0941	13.005633	0.000446	4.464331	0.756278	-0.000045
1500	1.4915e+02	5.0834	13.001596	0.000041	0.405848	0.068753	-0.000004
1501	1.4925e+02	5.0734	12.961224	0.000406	4.058483	0.687526	-0.000041
1502	1.4935e+02	5.0640	12.912779	0.000487	4.870179	0.825031	-0.000049
1503	1.4945e+02	5.0544	12.888556	0.000244	2.435090	0.412515	-0.000024
1504	1.4955e+02	5.0442	12.872407	0.000162	1.623393	0.275010	-0.000016
1505	1.4965e+02	5.0335	12.815887	0.000568	5.681876	0.962536	-0.000057
1506	1.4975e+02	5.0243	12.775516	0.000406	4.058483	0.687526	-0.000041
1507	1.4985e+02	5.0155	12.779553	-0.000041	-0.405848	-0.068753	0.000004
1508	1.4995e+02	5.0037	12.727070	0.000528	5.276027	0.893783	-0.000053
1509	1.5005e+02	4.9952	12.666513	0.000609	6.087724	1.031288	-0.000061
1510	1.5015e+02	4.9842	12.662476	0.000041	0.405848	0.068753	-0.000004
1511	1.5025e+02	4.9751	12.609993	0.000528	5.276027	0.893783	-0.000053
1512	1.5034e+02	4.9644	12.577696	0.000325	3.246786	0.550020	-0.000032
1513	1.5044e+02	4.9548	12.533288	0.000446	4.464331	0.756278	-0.000045
1514	1.5054e+02	4.9448	12.505028	0.000284	2.840938	0.481268	-0.000028
1515	1.5064e+02	4.9348	12.476768	0.000284	2.840938	0.481268	-0.000028
1516	1.5074e+02	4.9254	12.452545	0.000244	2.435090	0.412515	-0.000024
1517	1.5084e+02	4.9148	12.416211	0.000365	3.652634	0.618773	-0.000037
1518	1.5094e+02	4.9053	12.396025	0.000203	2.029241	0.343763	-0.000020
1519	1.5104e+02	4.8949	12.343543	0.000528	5.276027	0.893783	-0.000053
1520	1.5114e+02	4.8852	12.282985	0.000609	6.087724	1.031288	-0.000061
1521	1.5124e+02	4.8742	12.278948	0.000041	0.405848	0.068753	-0.000004
1522	1.5134e+02	4.8650	12.206280	0.000731	7.305269	1.237546	-0.000073
1523	1.5144e+02	4.8562	12.182057	0.000244	2.435090	0.412515	-0.000024
1524	1.5154e+02	4.8443	12.157834	0.000244	2.435090	0.412515	-0.000024
1525	1.5164e+02	4.8350	12.129574	0.000284	2.840938	0.481268	-0.000028
1526	1.5174e+02	4.8254	12.060943	0.000690	6.899420	1.168793	-0.000069
1527	1.5184e+02	4.8147	12.052869	0.000081	0.811697	0.137505	-0.000008
1528	1.5194e+02	4.8053	12.032683	0.000203	2.029241	0.343763	-0.000020
1529	1.5204e+02	4.7950	12.000386	0.000325	3.246786	0.550020	-0.000032
1530	1.5214e+02	4.7852	11.964052	0.000365	3.652634	0.618773	-0.000037
1531	1.5224e+02	4.7759	11.931755	0.000325	3.246786	0.550020	-0.000032
1532	1.5233e+02	4.7652	11.891383	0.000406	4.058483	0.687526	-0.000041
1533	1.5243e+02	4.7555	11.842938	0.000487	4.870179	0.825031	-0.000049
1534	1.5253e+02	4.7463	11.814678	0.000284	2.840938	0.481268	-0.000028
1535	1.5263e+02	4.7356	11.766232	0.000487	4.870179	0.825031	-0.000049
1536	1.5273e+02	4.7250	11.742009	0.000244	2.435090	0.412515	-0.000024
1537	1.5283e+02	4.7158	11.733935	0.000081	0.811697	0.137505	-0.000008
1538	1.5293e+02	4.7051	11.677415	0.000568	5.681876	0.962536	-0.000057
1539	1.5303e+02	4.6963	11.637044	0.000406	4.058483	0.687526	-0.000041
1540	1.5313e+02	4.6865	11.624932	0.000122	1.217545	0.206258	-0.000012
1541	1.5323e+02	4.6762	11.564375	0.000609	6.087724	1.031288	-0.000061
1542	1.5333e+02	4.6664	11.515930	0.000487	4.870179	0.825031	-0.000049
1543	1.5343e+02	4.6556	11.528041	-0.000122	-1.217545	-0.206258	0.000012
1544	1.5353e+02	4.6458	11.447298	0.000812	8.116965	1.375051	-0.000081
1545	1.5363e+02	4.6365	11.415001	0.000325	3.246786	0.550020	-0.000032
1546	1.5373e+02	4.6259	11.431150	-0.000162	-1.623393	-0.275010	0.000016
1547	1.5383e+02	4.6165	11.342333	0.000893	8.928662	1.512556	-0.000089
1548	1.5393e+02	4.6066	11.297924	0.000446	4.464331	0.756278	-0.000045
1549	1.5403e+02	4.5968	11.314073	-0.000162	-1.623393	-0.275010	0.000016
1550	1.5413e+02	4.5860	11.257553	0.000568	5.681876	0.962536	-0.000057
1551	1.5422e+02	4.5788	11.205070	0.000528	5.276027	0.893783	-0.000053
1552	1.5432e+02	4.5663	11.201033	0.000041	0.405848	0.068753	-0.000004
1553	1.5442e+02	4.5572	11.128365	0.000731	7.305269	1.237546	-0.000073
1554	1.5452e+02	4.5463	11.140476	-0.000122	-1.217545	-0.206258	0.000012
1555	1.5462e+02	4.5361	11.092030	0.000487	4.870179	0.825031	-0.000049
1556	1.5472e+02	4.5261	11.035511	0.000568	5.681876	0.962536	-0.000057
1557	1.5482e+02	4.5164	11.015325	0.000203	2.029241	0.343763	-0.000020
1558	1.5492e+02	4.5068	10.978991	0.000365	3.652634	0.618773	-0.000037
1559	1.5502e+02	4.4962	10.914396	0.000649	6.493572	1.100041	-0.000065
1560	1.5512e+02	4.4866	10.857877	0.000568	5.681876	0.962536	-0.000057
1561	1.5522e+02	4.4771	10.878062	-0.000203	-2.029241	-0.343763	0.000020
1562	1.5532e+02	4.4666	10.845765	0.000325	3.246786	0.550020	-0.000032
1563	1.5542e+02	4.4570	10.785208	0.000609	6.087724	1.031288	-0.000061
1564	1.5552e+02	4.4465	10.736762	0.000487	4.870179	0.825031	-0.000049
1565	1.5562e+02	4.4369	10.696391	0.000406	4.058483	0.687526	-0.000041
1566	1.5572e+02	4.4271	10.668131	0.000284	2.840938	0.481268	-0.000028
1567	1.5582e+02	4.4173	10.631797	0.000365	3.652634	0.618773	-0.000037
1568	1.5592e+02	4.4074	10.619686	0.000122	1.217545	0.206258	-0.000012
1569	1.5602e+02	4.3964	10.575277	0.000446	4.464331	0.756278	-0.000045
1570	1.5612e+02	4.3864	10.534906	0.000406	4.058483	0.687526	-0.000041
1571	1.5622e+02	4.3768	10.502609	0.000325	3.246786	0.550020	-0.000032
1572	1.5631e+02	4.3674	10.429940	0.000731	7.305269	1.237546	-0.000073
1573	1.5641e+02	4.3575	10.421866	0.000081	0.811697	0.137505	-0.000008
1574	1.5651e+02	4.3478	10.421866	-0.000000	-0.000000	-0.000000	0.000000
1575	1.5661e+02	4.3385	10.349197	0.000731	7.305269	1.237546	-0.000073
1576	1.5671e+02	4.3282	10.308826	0.000406	4.058483	0.687526	-0.000041
1577	1.5681e+02	4.3176	10.256343	0.000528	5.276027	0.893783	-0.000053
1578	1.5691e+02	4.3081	10.228083	0.000284	2.840938	0.481268	-0.000028
1579	1.5701e+02	4.2983	10.215972	0.000122	1.217545	0.206258	-0.000012
1580	1.5711e+02	4.2874	10.183675	0.000325	3.246786	0.550020	-0.000032
1581	1.5721e+02	4.2783	10.167526	0.000162	1.623393	0.275010	-0.000016
1582	1.5731e+02	4.2670	10.070635	0.000974	9.740358	1.650061	-0.000097
1583	1.5741e+02	4.2580	10.050449	0.000203	2.029241	0.343763	-0.000020
1584	1.5751e+02	4.2471	10.022189	0.000284	2.840938	0.481268	-0.000028
1585	1.5761e+02	4.2375	9.977781	0.000446	4.464331	0.756278	-0.000045
1586	1.5771e+02	4.2281	9.917224	0.000609	6.087724	1.031288	-0.000061
1587	1.5781e+02	4.2195	9.917224	-0.000000	-0.000000	-0.000000	0.000000
1588	1.5791e+02	4.2088	9.880890	0.000365	3.652634	0.618773	-0.000037
1589	1.5801e+02	4.1978	9.824370	0.000568	5.681876	0.962536	-0.000057
1590	1.5811e+02	4.1884	9.800147	0.000244	2.435090	0.412515	-0.000024
1591	1.5821e+02	4.1778	9.731516	0.000690	6.899420	1.168793	-0.000069
1592	1.5830e+02	4.1689	9.687107	0.000446	4.464331	0.756278	-0.000045
1593	1.5840e+02	4.1589	9.691144	-0.000041	-0.405848	-0.068753	0.000004
1594	1.5850e+02	4.1482	9.650773	0.000406	4.058483	0.687526	-0.000041
1595	1.5860e+02	4.1383	9.590216	0.000609	6.087724	1.031288	-0.000061
1596	1.5870e+02	4.1280	9.561956	0.000284	2.840938	0.481268	-0.000028
1597	1.5880e+02	4.1189	9.533696	0.000284	2.840938	0.481268	-0.000028
1598	1.5890e+02	4.1092	9.489288	0.000446	4.464331	0.756278	-0.000045
1599	1.5900e+02	4.0989	9.465065	0.000244	2.435090	0.412515	-0.000024
1600	1.5910e+02	4.0894	9.448916	0.000162	1.623393	0.275010	-0.000016
1601	1.5920e+02	4.0780	9.368173	0.000812	8.116965	1.375051	-0.000081
1602	1.5930e+02	4.0681	9.335876	0.000325	3.246786	0.550020	-0.000032
1603	1.5940e+02	4.0602	9.339914	-0.000041	-0.405848	-0.068753	0.000004
1604	1.5950e+02	4.0491	9.307616	0.000325	3.246786	0.550020	-0.000032
1605	1.5960e+02	4.0388	9.251097	0.000568	5.681876	0.962536	-0.000057
1606	1.5970e+02	4.0298	9.194577	0.000568	5.681876	0.962536	-0.000057
1607	1.5980e+02	4.0184	9.129982	0.000649	6.493572	1.100041	-0.000065
1608	1.5990e+02	4.0092	9.117871	0.000122	1.217545	0.206258	-0.000012
1609	1.6000e+02	3.9991	9.113834	0.000041	0.405848	0.068753	-0.000004
1610	1.6010e+02	3.9892	8.996757	0.001177	11.769599	1.993824	-0.000118
1611	1.6019e+02	3.9795	8.992720	0.000041	0.405848	0.068753	-0.000004
1612	1.6029e+02	3.9682	8.968497	0.000244	2.435090	0.412515	-0.000024
1613	1.6039e+02	3.9595	8.948311	0.000203	2.029241	0.343763	-0.000020
1614	1.6049e+02	3.9492	8.920051	0.000284	2.840938	0.481268	-0.000028
1615	1.6059e+02	3.9400	8.831234	0.000893	8.928662	1.512556	-0.000089
1616	1.6069e+02	3.9297	8.819123	0.000122	1.217545	0.206258	-0.000012
1617	1.6079e+02	3.9187	8.754529	0.000649	6.493572	1.100041	-0.000065
1618	1.6089e+02	3.9098	8.722232	0.000325	3.246786	0.550020	-0.000032
1619	1.6099e+02	3.9001	8.714157	0.000081	0.811697	0.137505	-0.000008
1620	1.6109e+02	3.8901	8.665712	0.000487	4.870179	0.825031	-0.000049
1621	1.6119e+02	3.8805	8.661675	0.000041	0.405848	0.068753	-0.000004
1622	1.6129e+02	3.8700	8.601118	0.000609	6.087724	1.031288	-0.000061
1623	1.6139e+02	3.8597	8.556709	0.000446	4.464331	0.756278	-0.000045
1624	1.6149e+02	3.8503	8.536524	0.000203	2.029241	0.343763	-0.000020
1625	1.6159e+02	3.8408	8.488078	0.000487	4.870179	0.825031	-0.000049
1626	1.6169e+02	3.8296	8.411372	0.000771	7.711117	1.306299	-0.000077
1627	1.6179e+02	3.8190	8.391187	0.000203	2.029241	0.343763	-0.000020
1628	1.6189e+02	3.8097	8.362927	0.000284	2.840938	0.481268	-0.000028
1629	1.6199e+02	3.8000	8.318518	0.000446	4.464331	0.756278	-0.000045
1630	1.6209e+02	3.7896	8.278147	0.000406	4.058483	0.687526	-0.000041
1631	1.6219e+02	3.7807	8.233738	0.000446	4.464331	0.756278	-0.000045
1632	1.6228e+02	3.7709	8.201441	0.000325	3.246786	0.550020	-0.000032
1633	1.6238e+02	3.7601	8.193367	0.000081	0.811697	0.137505	-0.000008
1634	1.6248e+02	3.7511	8.132810	0.000609	6.087724	1.031288	-0.000061
1635	1.6258e+02	3.7414	8.100513	0.000325	3.246786	0.550020	-0.000032
1636	1.6268e+02	3.7307	8.035919	0.000649	6.493572	1.100041	-0.000065
1637	1.6278e+02	3.7206	8.015733	0.000203	2.029241	0.343763	-0.000020
1638	1.6288e+02	3.7109	7.967287	0.000487	4.870179	0.825031	-0.000049
1639	1.6298e+02	3.7002	7.906730	0.000609	6.087724	1.031288	-0.000061
1640	1.6308e+02	3.6911	7.866359	0.000406	4.058483	0.687526	-0.000041
1641	1.6318e+02	3.6803	7.846173	0.000203	2.029241	0.343763	-0.000020
1642	1.6328e+02	3.6711	7.821950	0.000244	2.435090	0.412515	-0.000024
1643	1.6338e+02	3.6611	7.785616	0.000365	3.652634	0.618773	-0.000037
1644	1.6348e+02	3.6511	7.741208	0.000446	4.464331	0.756278	-0.000045
1645	1.6358e+02	3.6414	7.684688	0.000568	5.681876	0.962536	-0.000057
1646	1.6368e+02	3.6318	7.648354	0.000365	3.652634	0.618773	-0.000037
1647	1.6378e+02	3.6216	7.587797	0.000609	6.087724	1.031288	-0.000061
1648	1.6388e+02	3.6119	7.535314	0.000528	5.276027	0.893783	-0.000053
1649	1.6398e+02	3.6017	7.551462	-0.000162	-1.623393	-0.275010	0.000016
1650	1.6408e+02	3.5914	7.503017	0.000487	4.870179	0.825031	-0.000049
1651	1.6418e+02	3.5818	7.458608	0.000446	4.464331	0.756278	-0.000045
1652	1.6427e+02	3.5712	7.454571	0.000041	0.405848	0.068753	-0.000004
1653	1.6437e+02	3.5612	7.385940	0.000690	6.899420	1.168793	-0.000069
1654	1.6447e+02	3.5516	7.321346	0.000649	6.493572	1.100041	-0.000065
1655	1.6457e+02	3.5407	7.293086	0.000284	2.840938	0.481268	-0.000028
1656	1.6467e+02	3.5322	7.285011	0.000081	0.811697	0.137505	-0.000008
1657	1.6477e+02	3.5222	7.224454	0.000609	6.087724	1.031288	-0.000061
1658	1.6487e+02	3.5110	7.180046	0.000446	4.464331	0.756278	-0.000045
1659	1.6497e+02	3.5011	7.127563	0.000528	5.276027	0.893783	-0.000053
1660	1.6507e+02	3.4914	7.103340	0.000244	2.435090	0.412515	-0.000024
1661	1.6517e+02	3.4814	7.083155	0.000203	2.029241	0.343763	-0.000020
1662	1.6527e+02	3.4725	7.038746	0.000446	4.464331	0.756278	-0.000045
1663	1.6537e+02	3.4621	6.986263	0.000528	5.276027	0.893783	-0.000053
1664	1.6547e+02	3.4522	6.941855	0.000446	4.464331	0.756278	-0.000045
1665	1.6557e+02	3.4417	6.905521	0.000365	3.652634	0.618773	-0.000037
1666	1.6567e+02	3.4316	6.853038	0.000528	5.276027	0.893783	-0.000053
1667	1.6577e+02	3.4234	6.808629	0.000446	4.464331	0.756278	-0.000045
1668	1.6587e+02	3.4119	6.784407	0.000244	2.435090	0.412515	-0.000024
1669	1.6597e+02	3.4020	6.748072	0.000365	3.652634	0.618773	-0.000037
1670	1.6607e+02	3.3916	6.687515	0.000609	6.087724	1.031288	-0.000061
1671	1.6616e+02	3.3828	6.647144	0.000406	4.058483	0.687526	-0.000041
1672	1.6626e+02	3.3729	6.614847	0.000325	3.246786	0.550020	-0.000032
1673	1.6636e+02	3.3610	6.550253	0.000649	6.493572	1.100041	-0.000065
1674	1.6646e+02	3.3526	6.526030	0.000244	2.435090	0.412515	-0.000024
1675	1.6656e+02	3.3421	6.489696	0.000365	3.652634	0.618773	-0.000037
1676	1.6666e+02	3.3324	6.457399	0.000325	3.246786	0.550020	-0.000032
1677	1.6676e+02	3.3231	6.408953	0.000487	4.870179	0.825031	-0.000049
1678	1.6686e+02	3.3124	6.368582	0.000406	4.058483	0.687526	-0.000041
1679	1.6696e+02	3.3032	6.332247	0.000365	3.652634	0.618773	-0.000037
1680	1.6706e+02	3.2924	6.271690	0.000609	6.087724	1.031288	-0.000061
1681	1.6716e+02	3.2829	6.239393	0.000325	3.246786	0.550020	-0.000032
1682	1.6726e+02	3.2729	6.207096	0.000325	3.246786	0.550020	-0.000032
1683	1.6736e+02	3.2634	6.182873	0.000244	2.435090	0.412515	-0.000024
1684	1.6746e+02	3.2529	6.138465	0.000446	4.464331	0.756278	-0.000045
1685	1.6756e+02	3.2422	6.094056	0.000446	4.464331	0.756278	-0.000045
1686	1.6766e+02	3.2327	6.041574	0.000528	5.276027	0.893783	-0.000053
1687	1.6776e+02	3.2227	6.021388	0.000203	2.029241	0.343763	-0.000020
1688	1.6786e+02	3.2130	5.960831	0.000609	6.087724	1.031288	-0.000061
1689	1.6796e+02	3.2032	5.932571	0.000284	2.840938	0.481268	-0.000028
1690	1.6806e+02	3.1938	5.908348	0.000244	2.435090	0.412515	-0.000024
1691	1.6816e+02	3.1834	5.855865	0.000528	5.276027	0.893783	-0.000053
1692	1.6825e+02	3.1733	5.787234	0.000690	6.899420	1.168793	-0.000069
1693	1.6835e+02	3.1623	5.763011	0.000244	2.435090	0.412515	-0.000024
1694	1.6845e+02	3.1541	5.710529	0.000528	5.276027	0.893783	-0.000053
1695	1.6855e+02	3.1441	5.678231	0.000325	3.246786	0.550020	-0.000032
1696	1.6865e+02	3.1337	5.637860	0.000406	4.058483	0.687526	-0.000041
1697	1.6875e+02	3.1242	5.605563	0.000325	3.246786	0.550020	-0.000032
1698	1.6885e+02	3.1139	5.524820	0.000812	8.116965	1.375051	-0.000081
1699	1.6895e+02	3.1039	5.512709	0.000122	1.217545	0.206258	-0.000012
1700	1.6905e+02	3.0946	5.480412	0.000325	3.246786	0.550020	-0.000032
1701	1.6915e+02	3.0837	5.452152	0.000284	2.840938	0.481268	-0.000028
1702	1.6925e+02	3.0735	5.379483	0.000731	7.305269	1.237546	-0.000073
1703	1.6935e+02	3.0637	5.335075	0.000446	4.464331	0.756278	-0.000045
1704	1.6945e+02	3.0535	5.262406	0.000731	7.305269	1.237546	-0.000073
1705	1.6955e+02	3.0435	5.230109	0.000325	3.246786	0.550020	-0.000032
1706	1.6965e+02	3.0343	5.230109	-0.000000	-0.000000	-0.000000	0.000000
1707	1.6975e+02	3.0251	5.177627	0.000528	5.276027	0.893783	-0.000053
1708	1.6985e+02	3.0148	5.157441	0.000203	2.029241	0.343763	-0.000020
1709	1.6995e+02	3.0039	5.072661	0.000852	8.522813	1.443804	-0.000085
1710	1.7005e+02	2.9945	5.052475	0.000203	2.029241	0.343763	-0.000020
1711	1.7015e+02	2.9845	4.991918	0.000609	6.087724	1.031288	-0.000061
1712	1.7024e+02	2.9742	4.971733	0.000203	2.029241	0.343763	-0.000020
1713	1.7034e+02	2.9649	4.919250	0.000528	5.276027	0.893783	-0.000053
1714	1.7044e+02	2.9548	4.878879	0.000406	4.058483	0.687526	-0.000041
1715	1.7054e+02	2.9452	4.810247	0.000690	6.899420	1.168793	-0.000069
1716	1.7064e+02	2.9342	4.794099	0.000162	1.623393	0.275010	-0.000016
1717	1.7074e+02	2.9244	4.733542	0.000609	6.087724	1.031288	-0.000061
1718	1.7084e+02	2.9139	4.717393	0.000162	1.623393	0.275010	-0.000016
1719	1.7094e+02	2.9052	4.672985	0.000446	4.464331	0.756278	-0.000045
1720	1.7104e+02	2.8947	4.636650	0.000365	3.652634	0.618773	-0.000037
1721	1.7114e+02	2.8847	4.572056	0.000649	6.493572	1.100041	-0.000065
1722	1.7124e+02	2.8744	4.535722	0.000365	3.652634	0.618773	-0.000037
1723	1.7134e+02	2.8653	4.471128	0.000649	6.493572	1.100041	-0.000065
1724	1.7144e+02	2.8551	4.467091	0.000041	0.405848	0.068753	-0.000004
1725	1.7154e+02	2.8445	4.402497	0.000649	6.493572	1.100041	-0.000065
1726	1.7164e+02	2.8345	4.370199	0.000325	3.246786	0.550020	-0.000032
1727	1.7174e+02	2.8244	4.350014	0.000203	2.029241	0.343763	-0.000020
1728	1.7184e+02	2.8156	4.269271	0.000812	8.116965	1.375051	-0.000081
1729	1.7194e+02	2.8050	4.241011	0.000284	2.840938	0.481268	-0.000028
1730	1.7204e+02	2.7943	4.164306	0.000771	7.711117	1.306299	-0.000077
1731	1.7213e+02	2.7853	4.164306	-0.000000	-0.000000	-0.000000	0.000000
1732	1.7223e+02	2.7747	4.123934	0.000406	4.058483	0.687526	-0.000041
1733	1.7233e+02	2.7657	4.071451	0.000528	5.276027	0.893783	-0.000053
1734	1.7243e+02	2.7552	4.018969	0.000528	5.276027	0.893783	-0.000053
1735	1.7253e+02	2.7447	3.942263	0.000771	7.711117	1.306299	-0.000077
1736	1.7263e+02	2.7352	3.950337	-0.000081	-0.811697	-0.137505	0.000008
1737	1.7273e+02	2.7255	3.873632	0.000771	7.711117	1.306299	-0.000077
1738	1.7283e+02	2.7161	3.877669	-0.000041	-0.405848	-0.068753	0.000004
1739	1.7293e+02	2.7065	3.792889	0.000852	8.522813	1.443804	-0.000085
1740	1.7303e+02	2.6949	3.764629	0.000284	2.840938	0.481268	-0.000028
1741	1.7313e+02	2.6858	3.724258	0.000406	4.058483	0.687526	-0.000041
1742	1.7323e+02	2.6752	3.659664	0.000649	6.493572	1.100041	-0.000065
1743	1.7333e+02	2.6658	3.623329	0.000365	3.652634	0.618773	-0.000037
1744	1.7343e+02	2.6550	3.574884	0.000487	4.870179	0.825031	-0.000049
1745	1.7353e+02	2.6460	3.578921	-0.000041	-0.405848	-0.068753	0.000004
1746	1.7363e+02	2.6363	3.530475	0.000487	4.870179	0.825031	-0.000049
1747	1.7373e+02	2.6257	3.494141	0.000365	3.652634	0.618773	-0.000037
1748	1.7383e+02	2.6153	3.409361	0.000852	8.522813	1.443804	-0.000085
1749	1.7393e+02	2.6055	3.377064	0.000325	3.246786	0.550020	-0.000032
1750	1.7403e+02	2.5969	3.320544	0.000568	5.681876	0.962536	-0.000057
1751	1.7413e+02	2.5866	3.264024	0.000568	5.681876	0.962536	-0.000057
1752	1.7422e+02	2.5758	3.207504	0.000568	5.681876	0.962536	-0.000057
1753	1.7432e+02	2.5652	3.203467	0.000041	0.405848	0.068753	-0.000004
1754	1.7442e+02	2.5573	3.150984	0.000528	5.276027	0.893783	-0.000053
1755	1.7452e+02	2.5466	3.050056	0.001015	10.146206	1.718814	-0.000101
1756	1.7462e+02	2.5364	3.102539	-0.000528	-5.276027	-0.893783	0.000053
1757	1.7472e+02	2.5259	3.046019	0.000568	5.681876	0.962536	-0.000057
1758	1.7482e+02	2.5162	2.953165	0.000933	9.334510	1.581309	-0.000093
1759	1.7492e+02	2.5063	2.904719	0.000487	4.870179	0.825031	-0.000049
1760	1.7502e+02	2.4969	2.844162	0.000609	6.087724	1.031288	-0.000061
1761	1.7512e+02	2.4866	2.832051	0.000122	1.217545	0.206258	-0.000012
1762	1.7522e+02	2.4768	2.815902	0.000162	1.623393	0.275010	-0.000016
1763	1.7532e+02	2.4670	2.723048	0.000933	9.334510	1.581309	-0.000093
1764	1.7542e+02	2.4569	2.678640	0.000446	4.464331	0.756278	-0.000045
1765	1.7552e+02	2.4474	2.626157	0.000528	5.276027	0.893783	-0.000053
1766	1.7562e+02	2.4374	2.605971	0.000203	2.029241	0.343763	-0.000020
1767	1.7572e+02	2.4280	2.565600	0.000406	4.058483	0.687526	-0.000041
1768	1.7582e+02	2.4172	2.537340	0.000284	2.840938	0.481268	-0.000028
1769	1.7592e+02	2.4070	2.432374	0.001055	10.552055	1.787566	-0.000105
1770	1.7602e+02	2.3974	2.408151	0.000244	2.435090	0.412515	-0.000024
1771	1.7612e+02	2.3873	2.387966	0.000203	2.029241	0.343763	-0.000020
1772	1.7621e+02	2.3768	2.327409	0.000609	6.087724	1.031288	-0.000061
1773	1.7631e+02	2.3669	2.319334	0.000081	0.811697	0.137505	-0.000008
1774	1.7641e+02	2.3573	2.222443	0.000974	9.740358	1.650061	-0.000097
1775	1.7651e+02	2.3479	2.182072	0.000406	4.058483	0.687526	-0.000041
1776	1.7661e+02	2.3381	2.173998	0.000081	0.811697	0.137505	-0.000008
1777	1.7671e+02	2.3275	2.125552	0.000487	4.870179	0.825031	-0.000049
1778	1.7681e+02	2.3171	2.077106	0.000487	4.870179	0.825031	-0.000049
1779	1.7691e+02	2.3078	2.008475	0.000690	6.899420	1.168793	-0.000069
1780	1.7701e+02	2.2971	1.955992	0.000528	5.276027	0.893783	-0.000053
1781	1.7711e+02	2.2879	1.951955	0.000041	0.405848	0.068753	-0.000004
1782	1.7721e+02	2.2782	1.871212	0.000812	8.116965	1.375051	-0.000081
1783	1.7731e+02	2.2678	1.838915	0.000325	3.246786	0.550020	-0.000032
1784	1.7741e+02	2.2577	1.750098	0.000893	8.928662	1.512556	-0.000089
1785	1.7751e+02	2.2475	1.742024	0.000081	0.811697	0.137505	-0.000008
1786	1.7761e+02	2.2380	1.673393	0.000690	6.899420	1.168793	-0.000069
1787	1.7771e+02	2.2268	1.624947	0.000487	4.870179	0.825031	-0.000049
1788	1.7781e+02	2.2180	1.580539	0.000446	4.464331	0.756278	-0.000045
1789	1.7791e+02	2.2083	1.536130	0.000446	4.464331	0.756278	-0.000045
1790	1.7801e+02	2.1978	1.495759	0.000406	4.058483	0.687526	-0.000041
1791	1.7810e+02	2.1886	1.451350	0.000446	4.464331	0.756278	-0.000045
1792	1.7820e+02	2.1784	1.419053	0.000325	3.246786	0.550020	-0.000032
1793	1.7830e+02	2.1688	1.382719	0.000365	3.652634	0.618773	-0.000037
1794	1.7840e+02	2.1587	1.350422	0.000325	3.246786	0.550020	-0.000032
1795	1.7850e+02	2.1494	1.281791	0.000690	6.899420	1.168793	-0.000069
1796	1.7860e+02	2.1380	1.237382	0.000446	4.464331	0.756278	-0.000045
1797	1.7870e+02	2.1285	1.168751	0.000690	6.899420	1.168793	-0.000069
1798	1.7880e+02	2.1191	1.132417	0.000365	3.652634	0.618773	-0.000037
1799	1.7890e+02	2.1083	1.112231	0.000203	2.029241	0.343763	-0.000020
1800	1.7900e+02	2.0988	1.055711	0.000568	5.681876	0.962536	-0.000057
1801	1.7910e+02	2.0892	1.003228	0.000528	5.276027	0.893783	-0.000053
1802	1.7920e+02	2.0792	0.966894	0.000365	3.652634	0.618773	-0.000037
1803	1.7930e+02	2.0686	0.906337	0.000609	6.087724	1.031288	-0.000061
1804	1.7940e+02	2.0589	0.853854	0.000528	5.276027	0.893783	-0.000053
1805	1.7950e+02	2.0489	0.801371	0.000528	5.276027	0.893783	-0.000053
1806	1.7960e+02	2.0387	0.765037	0.000365	3.652634	0.618773	-0.000037
1807	1.7970e+02	2.0287	0.688332	0.000771	7.711117	1.306299	-0.000077
1808	1.7980e+02	2.0188	0.635849	0.000528	5.276027	0.893783	-0.000053
1809	1.7990e+02	2.0098	0.651997	-0.000162	-1.623393	-0.275010	0.000016
1810	1.8000e+02	1.9998	0.579329	0.000731	7.305269	1.237546	-0.000073
1811	1.8009e+02	1.9894	0.502623	0.000771	7.711117	1.306299	-0.000077
1812	1.8019e+02	1.9794	0.510698	-0.000081	-0.811697	-0.137505	0.000008
1813	1.8029e+02	1.9692	0.429955	0.000812	8.116965	1.375051	-0.000081
1814	1.8039e+02	1.9589	0.365361	0.000649	6.493572	1.100041	-0.000065
1815	1.8049e+02	1.9497	0.337101	0.000284	2.840938	0.481268	-0.000028
1816	1.8059e+02	1.9392	0.284618	0.000528	5.276027	0.893783	-0.000053
1817	1.8069e+02	1.9299	0.224061	0.000609	6.087724	1.031288	-0.000061
1818	1.8079e+02	1.9195	0.183690	0.000406	4.058483	0.687526	-0.000041
1819	1.8089e+02	1.9092	0.139281	0.000446	4.464331	0.756278	-0.000045
1820	1.8099e+02	1.8990	0.078724	0.000609	6.087724	1.031288	-0.000061
1821	1.8109e+02	1.8894	0.050464	0.000284	2.840938	0.481268	-0.000028
1822	1.8119e+02	1.8797	-0.022204	0.000731	7.305269	1.237546	-0.000073
1823	1.8129e+02	1.8697	-0.042390	0.000203	2.029241	0.343763	-0.000020
1824	1.8139e+02	1.8600	-0.086798	0.000446	4.464331	0.756278	-0.000045
1825	1.8149e+02	1.8499	-0.143318	0.000568	5.681876	0.962536	-0.000057
1826	1.8159e+02	1.8394	-0.199838	0.000568	5.681876	0.962536	-0.000057
1827	1.8169e+02	1.8302	-0.224061	0.000244	2.435090	0.412515	-0.000024
1828	1.8179e+02	1.8193	-0.300767	0.000771	7.711117	1.306299	-0.000077
1829	1.8189e+02	1.8105	-0.345175	0.000446	4.464331	0.756278	-0.000045
1830	1.8199e+02	1.8001	-0.389584	0.000446	4.464331	0.756278	-0.000045
1831	1.8209e+02	1.7902	-0.429955	0.000406	4.058483	0.687526	-0.000041
1832	1.8218e+02	1.7805	-0.486475	0.000568	5.681876	0.962536	-0.000057
1833	1.8228e+02	1.7699	-0.534920	0.000487	4.870179	0.825031	-0.000049
1834	1.8238e+02	1.7603	-0.563180	0.000284	2.840938	0.481268	-0.000028
1835	1.8248e+02	1.7497	-0.651997	0.000893	8.928662	1.512556	-0.000089
1836	1.8258e+02	1.7399	-0.688332	0.000365	3.652634	0.618773	-0.000037
1837	1.8268e+02	1.7309	-0.700443	0.000122	1.217545	0.206258	-0.000012
1838	1.8278e+02	1.7206	-0.785223	0.000852	8.522813	1.443804	-0.000085
1839	1.8288e+02	1.7103	-0.805409	0.000203	2.029241	0.343763	-0.000020
1840	1.8298e+02	1.7006	-0.865966	0.000609	6.087724	1.031288	-0.000061
1841	1.8308e+02	1.6909	-0.914411	0.000487	4.870179	0.825031	-0.000049
1842	1.8318e+02	1.6804	-0.979005	0.000649	6.493572	1.100041	-0.000065
1843	1.8328e+02	1.6707	-1.011303	0.000325	3.246786	0.550020	-0.000032
1844	1.8338e+02	1.6605	-1.035525	0.000244	2.435090	0.412515	-0.000024
1845	1.8348e+02	1.6503	-1.132417	0.000974	9.740358	1.650061	-0.000097
1846	1.8358e+02	1.6409	-1.152602	0.000203	2.029241	0.343763	-0.000020
1847	1.8368e+02	1.6307	-1.229308	0.000771	7.711117	1.306299	-0.000077
1848	1.8378e+02	1.6194	-1.281791	0.000528	5.276027	0.893783	-0.000053
1849	1.8388e+02	1.6108	-1.289865	0.000081	0.811697	0.137505	-0.000008
1850	1.8398e+02	1.6011	-1.354459	0.000649	6.493572	1.100041	-0.000065
1851	1.8407e+02	1.5915	-1.423090	0.000690	6.899420	1.168793	-0.000069
1852	1.8417e+02	1.5811	-1.495759	0.000731	7.305269	1.237546	-0.000073
1853	1.8427e+02	1.5704	-1.532093	0.000365	3.652634	0.618773	-0.000037
1854	1.8437e+02	1.5613	-1.536130	0.000041	0.405848	0.068753	-0.000004
1855	1.8447e+02	1.5517	-1.665318	0.001299	12.987144	2.200082	-0.000130
1856	1.8457e+02	1.5409	-1.673393	0.000081	0.811697	0.137505	-0.000008
1857	1.8467e+02	1.5321	-1.717801	0.000446	4.464331	0.756278	-0.000045
1858	1.8477e+02	1.5211	-1.762210	0.000446	4.464331	0.756278	-0.000045
1859	1.8487e+02	1.5115	-1.814693	0.000528	5.276027	0.893783	-0.000053
1860	1.8497e+02	1.5014	-1.867175	0.000528	5.276027	0.893783	-0.000053
1861	1.8507e+02	1.4919	-1.943881	0.000771	7.711117	1.306299	-0.000077
1862	1.8517e+02	1.4819	-1.964067	0.000203	2.029241	0.343763	-0.000020
1863	1.8527e+02	1.4718	-1.996364	0.000325	3.246786	0.550020	-0.000032
1864	1.8537e+02	1.4614	-2.060958	0.000649	6.493572	1.100041	-0.000065
1865	1.8547e+02	1.4516	-2.153812	0.000933	9.334510	1.581309	-0.000093
1866	1.8557e+02	1.4416	-2.190146	0.000365	3.652634	0.618773	-0.000037
1867	1.8567e+02	1.4315	-2.210332	0.000203	2.029241	0.343763	-0.000020
1868	1.8577e+02	1.4211	-2.274926	0.000649	6.493572	1.100041	-0.000065
1869	1.8587e+02	1.4120	-2.351632	0.000771	7.711117	1.306299	-0.000077
1870	1.8597e+02	1.4010	-2.387966	0.000365	3.652634	0.618773	-0.000037
1871	1.8606e+02	1.3920	-2.408151	0.000203	2.029241	0.343763	-0.000020
1872	1.8616e+02	1.3811	-2.505043	0.000974	9.740358	1.650061	-0.000097
1873	1.8626e+02	1.3717	-2.541377	0.000365	3.652634	0.618773	-0.000037
1874	1.8636e+02	1.3612	-2.610008	0.000690	6.899420	1.168793	-0.000069
1875	1.8646e+02	1.3522	-2.618083	0.000081	0.811697	0.137505	-0.000008
1876	1.8656e+02	1.3416	-2.694788	0.000771	7.711117	1.306299	-0.000077
1877	1.8666e+02	1.3320	-2.743234	0.000487	4.870179	0.825031	-0.000049
1878	1.8676e+02	1.3220	-2.795716	0.000528	5.276027	0.893783	-0.000053
1879	1.8686e+02	1.3126	-2.848199	0.000528	5.276027	0.893783	-0.000053
1880	1.8696e+02	1.3016	-2.916831	0.000690	6.899420	1.168793	-0.000069
1881	1.8706e+02	1.2927	-2.928942	0.000122	1.217545	0.206258	-0.000012
1882	1.8716e+02	1.2832	-2.981425	0.000528	5.276027	0.893783	-0.000053
1883	1.8726e+02	1.2733	-3.046019	0.000649	6.493572	1.100041	-0.000065
1884	1.8736e+02	1.2629	-3.110613	0.000649	6.493572	1.100041	-0.000065
1885	1.8746e+02	1.2538	-3.179244	0.000690	6.899420	1.168793	-0.000069
1886	1.8756e+02	1.2432	-3.183282	0.000041	0.405848	0.068753	-0.000004
1887	1.8766e+02	1.2332	-3.247876	0.000649	6.493572	1.100041	-0.000065
1888	1.8776e+02	1.2234	-3.280173	0.000325	3.246786	0.550020	-0.000032
1889	1.8786e+02	1.2140	-3.373027	0.000933	9.334510	1.581309	-0.000093
1890	1.8796e+02	1.2029	-3.393213	0.000203	2.029241	0.343763	-0.000020
1891	1.8806e+02	1.1948	-3.465881	0.000731	7.305269	1.237546	-0.000073
1892	1.8815e+02	1.1843	-3.562772	0.000974	9.740358	1.650061	-0.000097
1893	1.8825e+02	1.1740	-3.562772	-0.000000	-0.000000	-0.000000	0.000000
1894	1.8835e+02	1.1645	-3.615255	0.000528	5.276027	0.893783	-0.000053
1895	1.8845e+02	1.1539	-3.691961	0.000771	7.711117	1.306299	-0.000077
1896	1.8855e+02	1.1440	-3.752518	0.000609	6.087724	1.031288	-0.000061
1897	1.8865e+02	1.1341	-3.780778	0.000284	2.840938	0.481268	-0.000028
1898	1.8875e+02	1.1240	-3.833260	0.000528	5.276027	0.893783	-0.000053
1899	1.8885e+02	1.1147	-3.861520	0.000284	2.840938	0.481268	-0.000028
1900	1.8895e+02	1.1044	-3.946300	0.000852	8.522813	1.443804	-0.000085
1901	1.8905e+02	1.0946	-3.954374	0.000081	0.811697	0.137505	-0.000008
1902	1.8915e+02	1.0842	-4.039154	0.000852	8.522813	1.443804	-0.000085
1903	1.8925e+02	1.0745	-4.132008	0.000933	9.334510	1.581309	-0.000093
1904	1.8935e+02	1.0636	-4.160268	0.000284	2.840938	0.481268	-0.000028
1905	1.8945e+02	1.0537	-4.196603	0.000365	3.652634	0.618773	-0.000037
1906	1.8955e+02	1.0451	-4.241011	0.000446	4.464331	0.756278	-0.000045
1907	1.8965e+02	1.0344	-4.313680	0.000731	7.305269	1.237546	-0.000073
1908	1.8975e+02	1.0245	-4.398459	0.000852	8.522813	1.443804	-0.000085
1909	1.8985e+02	1.0144	-4.430756	0.000325	3.246786	0.550020	-0.000032
1910	1.8995e+02	1.0044	-4.459016	0.000284	2.840938	0.481268	-0.000028
1911	1.9004e+02	0.9945	-4.511499	0.000528	5.276027	0.893783	-0.000053
1912	1.9014e+02	0.9846	-4.568019	0.000568	5.681876	0.962536	-0.000057
1913	1.9024e+02	0.9748	-4.640688	0.000731	7.305269	1.237546	-0.000073
1914	1.9034e+02	0.9635	-4.677022	0.000365	3.652634	0.618773	-0.000037
1915	1.9044e+02	0.9549	-4.733542	0.000568	5.681876	0.962536	-0.000057
1916	1.9054e+02	0.9444	-4.802173	0.000690	6.899420	1.168793	-0.000069
1917	1.9064e+02	0.9350	-4.854656	0.000528	5.276027	0.893783	-0.000053
1918	1.9074e+02	0.9245	-4.915213	0.000609	6.087724	1.031288	-0.000061
1919	1.9084e+02	0.9154	-4.951547	0.000365	3.652634	0.618773	-0.000037
1920	1.9094e+02	0.9051	-5.040364	0.000893	8.928662	1.512556	-0.000089
1921	1.9104e+02	0.8955	-5.072661	0.000325	3.246786	0.550020	-0.000032
1922	1.9114e+02	0.8849	-5.121107	0.000487	4.870179	0.825031	-0.000049
1923	1.9124e+02	0.8759	-5.161478	0.000406	4.058483	0.687526	-0.000041
1924	1.9134e+02	0.8640	-5.242221	0.000812	8.116965	1.375051	-0.000081
1925	1.9144e+02	0.8552	-5.298741	0.000568	5.681876	0.962536	-0.000057
1926	1.9154e+02	0.8458	-5.351223	0.000528	5.276027	0.893783	-0.000053
1927	1.9164e+02	0.8354	-5.415818	0.000649	6.493572	1.100041	-0.000065
1928	1.9174e+02	0.8252	-5.444078	0.000284	2.840938	0.481268	-0.000028
1929	1.9184e+02	0.8151	-5.504635	0.000609	6.087724	1.031288	-0.000061
1930	1.9194e+02	0.8057	-5.569229	0.000649	6.493572	1.100041	-0.000065
1931	1.9203e+02	0.7961	-5.557117	-0.000122	-1.217545	-0.206258	0.000012
1932	1.9213e+02	0.7860	-5.666120	0.001096	10.957903	1.856319	-0.000110
1933	1.9223e+02	0.7748	-5.746863	0.000812	8.116965	1.375051	-0.000081
1934	1.9233e+02	0.7657	-5.795308	0.000487	4.870179	0.825031	-0.000049
1935	1.9243e+02	0.7559	-5.827605	0.000325	3.246786	0.550020	-0.000032
1936	1.9253e+02	0.7462	-5.908348	0.000812	8.116965	1.375051	-0.000081
1937	1.9263e+02	0.7351	-5.924497	0.000162	1.623393	0.275010	-0.000016
1938	1.9273e+02	0.7256	-5.993128	0.000690	6.899420	1.168793	-0.000069
1939	1.9283e+02	0.7154	-6.073871	0.000812	8.116965	1.375051	-0.000081
1940	1.9293e+02	0.7053	-6.114242	0.000406	4.058483	0.687526	-0.000041
1941	1.9303e+02	0.6960	-6.166725	0.000528	5.276027	0.893783	-0.000053
1942	1.9313e+02	0.6878	-6.199022	0.000325	3.246786	0.550020	-0.000032
1943	1.9323e+02	0.6753	-6.231319	0.000325	3.246786	0.550020	-0.000032
1944	1.9333e+02	0.6660	-6.303987	0.000731	7.305269	1.237546	-0.000073
1945	1.9343e+02	0.6563	-6.376656	0.000731	7.305269	1.237546	-0.000073
1946	1.9353e+02	0.6459	-6.404916	0.000284	2.840938	0.481268	-0.000028
1947	1.9363e+02	0.6367	-6.521993	0.001177	11.769599	1.993824	-0.000118
1948	1.9373e+02	0.6265	-6.550253	0.000284	2.840938	0.481268	-0.000028
1949	1.9383e+02	0.6168	-6.582550	0.000325	3.246786	0.550020	-0.000032
1950	1.9393e+02	0.6060	-6.655218	0.000731	7.305269	1.237546	-0.000073
1951	1.9403e+02	0.5973	-6.727887	0.000731	7.305269	1.237546	-0.000073
1952	1.9412e+02	0.5853	-6.764221	0.000365	3.652634	0.618773	-0.000037
1953	1.9422e+02	0.5766	-6.832852	0.000690	6.899420	1.168793	-0.000069
1954	1.9432e+02	0.5666	-6.881298	0.000487	4.870179	0.825031	-0.000049
1955	1.9442e+02	0.5568	-6.905521	0.000244	2.435090	0.412515	-0.000024
1956	1.9452e+02	0.5465	-7.026635	0.001218	12.175448	2.062577	-0.000122
1957	1.9462e+02	0.5371	-7.050858	0.000244	2.435090	0.412515	-0.000024
1958	1.9472e+02	0.5264	-7.091229	0.000406	4.058483	0.687526	-0.000041
1959	1.9482e+02	0.5176	-7.151786	0.000609	6.087724	1.031288	-0.000061
1960	1.9492e+02	0.5064	-7.212343	0.000609	6.087724	1.031288	-0.000061
1961	1.9502e+02	0.4965	-7.276937	0.000649	6.493572	1.100041	-0.000065
1962	1.9512e+02	0.4873	-7.329420	0.000528	5.276027	0.893783	-0.000053
1963	1.9522e+02	0.4771	-7.389977	0.000609	6.087724	1.031288	-0.000061
1964	1.9532e+02	0.4671	-7.498980	0.001096	10.957903	1.856319	-0.000110
1965	1.9542e+02	0.4575	-7.507054	0.000081	0.811697	0.137505	-0.000008
1966	1.9552e+02	0.4467	-7.543388	0.000365	3.652634	0.618773	-0.000037
1967	1.9562e+02	0.4372	-7.636242	0.000933	9.334510	1.581309	-0.000093
1968	1.9572e+02	0.4263	-7.676614	0.000406	4.058483	0.687526	-0.000041
1969	1.9582e+02	0.4172	-7.712948	0.000365	3.652634	0.618773	-0.000037
1970	1.9592e+02	0.4073	-7.785616	0.000731	7.305269	1.237546	-0.000073
1971	1.9601e+02	0.3972	-7.821950	0.000365	3.652634	0.618773	-0.000037
1972	1.9611e+02	0.3866	-7.878470	0.000568	5.681876	0.962536	-0.000057
1973	1.9621e+02	0.3777	-7.955176	0.000771	7.711117	1.306299	-0.000077
1974	1.9631e+02	0.3676	-8.052067	0.000974	9.740358	1.650061	-0.000097
1975	1.9641e+02	0.3571	-8.076290	0.000244	2.435090	0.412515	-0.000024
1976	1.9651e+02	0.3468	-8.152996	0.000771	7.711117	1.306299	-0.000077
1977	1.9661e+02	0.3381	-8.201441	0.000487	4.870179	0.825031	-0.000049
1978	1.9671e+02	0.3276	-8.274110	0.000731	7.305269	1.237546	-0.000073
1979	1.9681e+02	0.3169	-8.326592	0.000528	5.276027	0.893783	-0.000053
1980	1.9691e+02	0.3081	-8.346778	0.000203	2.029241	0.343763	-0.000020
1981	1.9701e+02	0.2971	-8.455781	0.001096	10.957903	1.856319	-0.000110
1982	1.9711e+02	0.2879	-8.512301	0.000568	5.681876	0.962536	-0.000057
1983	1.9721e+02	0.2784	-8.532486	0.000203	2.029241	0.343763	-0.000020
1984	1.9731e+02	0.2680	-8.593043	0.000609	6.087724	1.031288	-0.000061
1985	1.9741e+02	0.2577	-8.649563	0.000568	5.681876	0.962536	-0.000057
1986	1.9751e+02	0.2483	-8.722232	0.000731	7.305269	1.237546	-0.000073
1987	1.9761e+02	0.2395	-8.802974	0.000812	8.116965	1.375051	-0.000081
1988	1.9771e+02	0.2285	-8.831234	0.000284	2.840938	0.481268	-0.000028
1989	1.9781e+02	0.2181	-8.895829	0.000649	6.493572	1.100041	-0.000065
1990	1.9791e+02	0.2085	-8.916014	0.000203	2.029241	0.343763	-0.000020
1991	1.9800e+02	0.1980	-9.020980	0.001055	10.552055	1.787566	-0.000105
1992	1.9810e+02	0.1886	-9.065388	0.000446	4.464331	0.756278	-0.000045
1993	1.9820e+02	0.1778	-9.113834	0.000487	4.870179	0.825031	-0.000049
1994	1.9830e+02	0.1697	-9.174391	0.000609	6.087724	1.031288	-0.000061
1995	1.9840e+02	0.1588	-9.234948	0.000609	6.087724	1.031288	-0.000061
1996	1.9850e+02	0.1478	-9.307616	0.000731	7.305269	1.237546	-0.000073
1997	1.9860e+02	0.1379	-9.356062	0.000487	4.870179	0.825031	-0.000049
1998	1.9870e+02	0.1293	-9.432768	0.000771	7.711117	1.306299	-0.000077
1999	1.9880e+02	0.1189	-9.497362	0.000649	6.493572	1.100041	-0.000065
2000	1.9890e+02	0.1084	-9.553882	0.000568	5.681876	0.962536	-0.000057
2001	1.9900e+02	0.0984	-9.586179	0.000325	3.246786	0.550020	-0.000032
2002	1.9910e+02	0.0890	-9.666922	0.000812	8.116965	1.375051	-0.000081
2003	1.9920e+02	0.0786	-9.699219	0.000325	3.246786	0.550020	-0.000032
2004	1.9930e+02	0.0684	-9.792073	0.000933	9.334510	1.581309	-0.000093
2005	1.9940e+02	0.0592	-9.816296	0.000244	2.435090	0.412515	-0.000024
2006	1.9950e+02	0.0490	-9.860704	0.000446	4.464331	0.756278	-0.000045
2007	1.9960e+02	0.0383	-9.941447	0.000812	8.116965	1.375051	-0.000081
2008	1.9970e+02	0.0287	-9.993930	0.000528	5.276027	0.893783	-0.000053
2009	1.9980e+02	0.0190	-10.082747	0.000893	8.928662	1.512556	-0.000089
2010	1.9990e+02	0.0081	-10.127155	0.000446	4.464331	0.756278	-0.000045
2011	2.0000e+02	0.0005	-10.187712	0.000446	4.464331	0.756278	-0.000061

PMax (uC/cm2):	4.61e+01
Pr (uC/cm2):	1.33e+01
-Pr (uC/cm2):	0.00e+00
PLoss (uC/cm2):	0.00e+00
C (Max-Eff) (nF):	4.61e-01
K (Eff):	7.81e+02
Vert. (+/-Pr) Shift (uC/cm2):	6.65e+00
Offset (uC/cm2):	2.35e+01

A (Loop Area - uC/cm2·Volts):	-9.35e-02



Hysteresis Version: 5.48.1 - Radiant Technologies, Inc., 1999 - 9/12/24

