»»»»»»»»»»»»»»»»»»»»»»»»»»»»»»»»»»»» Hysteresis ««««««««««««««««««««««««««««««««««««
»»»  Executed Version:	5.48.1
»»»  Vision Version:	5.48.4 (R)
»»»  Vision Compiled:	9/18/24
»»»  Driver Version:	5.47.0
»»»  Windows Version:	Windows 8 or 8.1
»»»  Processor Information:	x86 (AMD or Intel) - 32 Processors
»»»  Tester Name:	PMF21124-494 (100V)
»»»  Tester S/N:	PMF21124-494
»»»  Internal Amp Type:	100V RevK 270k
»»»  Internal Amp S/N:	iAB2-596/K     
»»»  Execution Count:	1
»»»»»»»»»»»»»»»»»»»»»»»»»»»»»»»»»»»»»»»»»»««««««««««««««««««««««««««««««««««««««««««

Stored:	6/13/2025 - 11:55:53
Configured:	06/13/25 10:12:58 AM
Executed:	06/13/25 11:55:15 AM

»»»»»»»»»»»»»»»»»»»»»»»»»»»»»»»»»»» Sample Info ««««««««««««««««««««««««««««««««««««
Sample Name:	
Lot Name:	
Wafer Name:	
Die Row/Column:	0/0
Capacitor Number:	0
Sample Area (cm2):	1.00e-04
Sample Thickness (microns):	3.00e-01

Amplifier:	Internal

»»»»»»»»»»»»»»»»»»»»»»»»»»»»»»»»»»» Tester Info «««««««««««««««««««««««««««««««««««
Tester Name:	PMF21124-494 (100V)
Tester Serial Number:	PMF21124-494
Return Signal Amp. Level:	1.9 [Index: 2]

»»»»»»»»»»»»»»»»»»»»»»»»»»»»»»»» Hysteresis Info ««««««««««««««««««««««««««««««««««
Task Name:	Hyst-1704
Volts:	20.00
Field:	666.67 (kV/cm)
DCBias:	0.00
DCField:	0.00 (kV/cm)
Hysteresis Period (ms):	2.00e+02
Preset:	Enabled
Preset Delay (ms):	1.00e+03
Profile:	Standard Bipolar

»»»»»»»»»»»»»»»»»»»»»»»»»»»»»»»»»»»»»» Data «««««««««««««««««««««««««««««««««««««««
Points:	2009

Valid Data

Point	Time (ms)	Drive Voltage	Measured Polarization (uC/cm2)	Capacitance (uF)	Normalized Capacitance (uF/cm2)	Dielectric Constant	Instantaneous Current (mA)
   1	0.0000e+00	0.0241	-9.814104	0.000001	0.010068	0.003411	0.000000
   2	9.9500e-02	0.0658	-9.813697	0.000001	0.010068	0.003411	0.000000
   3	1.9900e-01	0.1251	-9.810845	0.000007	0.070479	0.023879	0.000003
   4	2.9850e-01	0.1283	-9.809216	0.000004	0.040274	0.013645	0.000002
   5	3.9800e-01	0.1781	-9.805550	0.000009	0.090616	0.030701	0.000004
   6	4.9750e-01	0.2021	-9.803513	0.000005	0.050342	0.017056	0.000002
   7	5.9700e-01	0.2583	-9.802699	0.000002	0.020137	0.006823	0.000001
   8	6.9650e-01	0.3048	-9.799032	0.000009	0.090616	0.030701	0.000004
   9	7.9600e-01	0.3497	-9.797403	0.000004	0.040274	0.013645	0.000002
  10	8.9550e-01	0.3930	-9.791700	0.000014	0.140958	0.047758	0.000006
  11	9.9500e-01	0.4444	-9.794144	-0.000006	-0.060410	-0.020468	-0.000002
  12	1.0945e+00	0.4684	-9.791293	0.000007	0.070479	0.023879	0.000003
  13	1.1940e+00	0.4973	-9.792108	-0.000002	-0.020137	-0.006823	-0.000001
  14	1.2935e+00	0.5454	-9.789664	0.000006	0.060410	0.020468	0.000002
  15	1.3930e+00	0.5711	-9.783553	0.000015	0.151026	0.051169	0.000006
  16	1.4925e+00	0.6144	-9.786812	-0.000008	-0.080547	-0.027290	-0.000003
  17	1.5920e+00	0.6353	-9.784775	0.000005	0.050342	0.017056	0.000002
  18	1.6915e+00	0.6994	-9.784368	0.000001	0.010068	0.003411	0.000000
  19	1.7910e+00	0.7299	-9.783553	0.000002	0.020137	0.006823	0.000001
  20	1.8905e+00	0.7668	-9.783146	0.000001	0.010068	0.003411	0.000000
  21	1.9900e+00	0.8085	-9.780702	0.000006	0.060410	0.020468	0.000002
  22	2.0895e+00	0.8583	-9.777443	0.000008	0.080547	0.027290	0.000003
  23	2.1890e+00	0.8823	-9.777443	0.000000	0.000000	0.000000	0.000000
  24	2.2885e+00	0.9305	-9.775814	0.000004	0.040274	0.013645	0.000002
  25	2.3880e+00	0.9834	-9.776629	-0.000002	-0.020137	-0.006823	-0.000001
  26	2.4875e+00	1.0219	-9.770111	0.000016	0.161095	0.054580	0.000007
  27	2.5870e+00	1.0652	-9.776221	-0.000015	-0.151026	-0.051169	-0.000006
  28	2.6865e+00	1.1069	-9.772148	0.000010	0.100684	0.034113	0.000004
  29	2.7860e+00	1.1422	-9.766038	0.000015	0.151026	0.051169	0.000006
  30	2.8855e+00	1.1599	-9.766038	0.000000	0.000000	0.000000	0.000000
  31	2.9850e+00	1.2256	-9.769704	-0.000009	-0.090616	-0.030701	-0.000004
  32	3.0845e+00	1.2754	-9.765630	0.000010	0.100684	0.034113	0.000004
  33	3.1840e+00	1.2770	-9.759113	0.000016	0.161095	0.054580	0.000007
  34	3.2835e+00	1.3283	-9.757076	0.000005	0.050342	0.017056	0.000002
  35	3.3830e+00	1.3893	-9.761150	-0.000010	-0.100684	-0.034113	-0.000004
  36	3.4825e+00	1.4374	-9.757483	0.000009	0.090616	0.030701	0.000004
  37	3.5820e+00	1.4502	-9.756261	0.000003	0.030205	0.010234	0.000001
  38	3.6815e+00	1.4967	-9.753817	0.000006	0.060410	0.020468	0.000002
  39	3.7810e+00	1.5481	-9.750151	0.000009	0.090616	0.030701	0.000004
  40	3.8805e+00	1.5754	-9.747707	0.000006	0.060410	0.020468	0.000002
  41	3.9800e+00	1.6235	-9.746485	0.000003	0.030205	0.010234	0.000001
  42	4.0795e+00	1.6604	-9.743634	0.000007	0.070479	0.023879	0.000003
  43	4.1790e+00	1.6572	-9.742819	-0.000002	-0.020137	-0.006823	0.000001
  44	4.2785e+00	1.7470	-9.739968	0.000007	0.070479	0.023879	0.000003
  45	4.3780e+00	1.8064	-9.737931	0.000005	0.050342	0.017056	0.000002
  46	4.4775e+00	1.8048	-9.731414	-0.000016	-0.161095	-0.054580	0.000007
  47	4.5770e+00	1.8465	-9.731006	0.000001	0.010068	0.003411	0.000000
  48	4.6765e+00	1.9042	-9.731414	-0.000001	-0.010068	-0.003411	-0.000000
  49	4.7760e+00	1.9299	-9.728562	0.000007	0.070479	0.023879	0.000003
  50	4.8755e+00	1.9652	-9.726933	0.000004	0.040274	0.013645	0.000002
  51	4.9750e+00	2.0245	-9.722045	0.000012	0.120821	0.040935	0.000005
  52	5.0745e+00	2.0374	-9.718379	0.000009	0.090616	0.030701	0.000004
  53	5.1740e+00	2.0807	-9.717157	0.000003	0.030205	0.010234	0.000001
  54	5.2735e+00	2.1481	-9.707380	0.000024	0.241642	0.081870	0.000010
  55	5.3730e+00	2.1593	-9.706566	0.000002	0.020137	0.006823	0.000001
  56	5.4725e+00	2.2523	-9.703307	0.000008	0.080547	0.027290	0.000003
  57	5.5720e+00	2.2411	-9.698419	-0.000012	-0.120821	-0.040935	0.000005
  58	5.6715e+00	2.2780	-9.690272	0.000020	0.201368	0.068225	0.000008
  59	5.7710e+00	2.3438	-9.681310	0.000022	0.221505	0.075048	0.000009
  60	5.8705e+00	2.3711	-9.677644	0.000009	0.090616	0.030701	0.000004
  61	5.9700e+00	2.3839	-9.673978	0.000009	0.090616	0.030701	0.000004
  62	6.0695e+00	2.4529	-9.669905	0.000010	0.100684	0.034113	0.000004
  63	6.1690e+00	2.4850	-9.663387	0.000016	0.161095	0.054580	0.000007
  64	6.2685e+00	2.5219	-9.659721	0.000009	0.090616	0.030701	0.000004
  65	6.3680e+00	2.5732	-9.649538	0.000025	0.251710	0.085282	0.000010
  66	6.4675e+00	2.6069	-9.644650	0.000012	0.120821	0.040935	0.000005
  67	6.5670e+00	2.6550	-9.638947	0.000014	0.140958	0.047758	0.000006
  68	6.6665e+00	2.6919	-9.629985	0.000022	0.221505	0.075048	0.000009
  69	6.7660e+00	2.7593	-9.624690	0.000013	0.130889	0.044346	0.000005
  70	6.8655e+00	2.7689	-9.615321	0.000023	0.231573	0.078459	0.000009
  71	6.9650e+00	2.8347	-9.603101	0.000030	0.302052	0.102338	0.000012
  72	7.0645e+00	2.8507	-9.602693	0.000001	0.010068	0.003411	0.000000
  73	7.1640e+00	2.9069	-9.596583	0.000015	0.151026	0.051169	0.000006
  74	7.2635e+00	2.9245	-9.585992	0.000026	0.261779	0.088693	0.000011
  75	7.3630e+00	2.9710	-9.580289	0.000014	0.140958	0.047758	0.000006
  76	7.4625e+00	3.0561	-9.577031	0.000008	0.080547	0.027290	0.000003
  77	7.5620e+00	3.0513	-9.571328	-0.000014	-0.140958	-0.047758	0.000006
  78	7.6615e+00	3.1042	-9.568069	0.000008	0.080547	0.027290	0.000003
  79	7.7610e+00	3.1315	-9.555849	0.000030	0.302052	0.102338	0.000012
  80	7.8605e+00	3.1475	-9.552590	0.000008	0.080547	0.027290	0.000003
  81	7.9600e+00	3.2069	-9.550553	0.000005	0.050342	0.017056	0.000002
  82	8.0595e+00	3.2229	-9.539963	0.000026	0.261779	0.088693	0.000011
  83	8.1590e+00	3.2919	-9.531408	0.000021	0.211437	0.071637	0.000009
  84	8.2585e+00	3.3384	-9.524484	0.000017	0.171163	0.057992	0.000007
  85	8.3580e+00	3.3801	-9.520003	0.000011	0.110752	0.037524	0.000005
  86	8.4575e+00	3.4250	-9.508190	0.000029	0.291984	0.098927	0.000012
  87	8.5570e+00	3.4523	-9.500858	0.000018	0.181231	0.061403	0.000007
  88	8.6565e+00	3.4796	-9.493118	0.000019	0.191300	0.064814	0.000008
  89	8.7560e+00	3.5373	-9.492303	0.000002	0.020137	0.006823	0.000001
  90	8.8555e+00	3.5774	-9.484971	0.000018	0.181231	0.061403	0.000007
  91	8.9550e+00	3.5919	-9.470307	0.000036	0.362463	0.122806	0.000015
  92	9.0545e+00	3.6175	-9.462567	0.000019	0.191300	0.064814	0.000008
  93	9.1540e+00	3.6817	-9.459716	0.000007	0.070479	0.023879	0.000003
  94	9.2535e+00	3.7363	-9.446681	0.000032	0.322189	0.109161	0.000013
  95	9.3530e+00	3.7523	-9.439756	0.000017	0.171163	0.057992	0.000007
  96	9.4525e+00	3.8084	-9.425092	0.000036	0.362463	0.122806	0.000015
  97	9.5520e+00	3.8437	-9.414094	0.000027	0.271847	0.092104	0.000011
  98	9.6515e+00	3.8822	-9.403095	0.000027	0.271847	0.092104	0.000011
  99	9.7510e+00	3.9304	-9.392912	0.000025	0.251710	0.085282	0.000010
 100	9.8505e+00	3.9416	-9.379470	0.000033	0.332257	0.112572	0.000014
 101	9.9500e+00	3.9817	-9.370101	0.000023	0.231573	0.078459	0.000009
 102	1.0050e+01	4.0507	-9.353400	0.000041	0.412805	0.139862	0.000017
 103	1.0149e+01	4.0844	-9.341179	0.000030	0.302052	0.102338	0.000012
 104	1.0248e+01	4.0972	-9.330181	0.000027	0.271847	0.092104	0.000011
 105	1.0348e+01	4.1405	-9.313887	0.000040	0.402736	0.136451	0.000016
 106	1.0447e+01	4.1822	-9.302889	0.000027	0.271847	0.092104	0.000011
 107	1.0547e+01	4.2432	-9.287003	0.000039	0.392668	0.133039	0.000016
 108	1.0646e+01	4.2929	-9.274375	0.000031	0.312121	0.105749	0.000013
 109	1.0746e+01	4.3507	-9.259711	0.000036	0.362463	0.122806	0.000015
 110	1.0845e+01	4.3667	-9.249935	0.000024	0.241642	0.081870	0.000010
 111	1.0945e+01	4.4229	-9.234863	0.000037	0.372531	0.126217	0.000015
 112	1.1044e+01	4.4485	-9.218977	0.000039	0.392668	0.133039	0.000016
 113	1.1144e+01	4.4662	-9.203498	0.000038	0.382599	0.129628	0.000016
 114	1.1243e+01	4.4967	-9.189241	0.000035	0.352394	0.119394	0.000014
 115	1.1343e+01	4.5560	-9.170503	0.000046	0.463147	0.156918	0.000019
 116	1.1443e+01	4.5993	-9.155839	0.000036	0.362463	0.122806	0.000015
 117	1.1542e+01	4.6683	-9.138730	0.000042	0.422873	0.143273	0.000017
 118	1.1642e+01	4.6795	-9.122844	0.000039	0.392668	0.133039	0.000016
 119	1.1741e+01	4.7148	-9.103291	0.000048	0.483284	0.163741	0.000020
 120	1.1841e+01	4.7549	-9.088627	0.000036	0.362463	0.122806	0.000015
 121	1.1940e+01	4.8352	-9.069482	0.000047	0.473215	0.160330	0.000019
 122	1.2040e+01	4.8384	-9.049522	0.000049	0.493352	0.167152	0.000020
 123	1.2139e+01	4.8769	-9.032821	0.000041	0.412805	0.139862	0.000017
 124	1.2239e+01	4.9394	-9.021008	0.000029	0.291984	0.098927	0.000012
 125	1.2338e+01	4.9458	-8.994531	0.000065	0.654446	0.221732	0.000027
 126	1.2438e+01	5.0132	-8.975793	0.000046	0.463147	0.156918	0.000019
 127	1.2537e+01	5.0453	-8.957870	0.000044	0.443010	0.150096	0.000018
 128	1.2636e+01	5.1063	-8.933429	0.000060	0.604104	0.204676	0.000025
 129	1.2736e+01	5.1207	-8.918358	0.000037	0.372531	0.126217	0.000015
 130	1.2835e+01	5.1528	-8.893510	0.000061	0.614173	0.208087	0.000025
 131	1.2935e+01	5.2025	-8.871513	0.000054	0.543694	0.184209	0.000022
 132	1.3034e+01	5.2138	-8.847480	0.000059	0.594036	0.201265	0.000024
 133	1.3134e+01	5.2908	-8.832409	0.000037	0.372531	0.126217	0.000015
 134	1.3233e+01	5.3517	-8.805524	0.000066	0.664515	0.225144	0.000027
 135	1.3333e+01	5.3597	-8.787194	0.000045	0.453078	0.153507	0.000018
 136	1.3432e+01	5.4223	-8.760309	0.000066	0.664515	0.225144	0.000027
 137	1.3532e+01	5.4480	-8.738720	0.000053	0.533626	0.180797	0.000022
 138	1.3632e+01	5.4801	-8.717131	0.000053	0.533626	0.180797	0.000022
 139	1.3731e+01	5.5154	-8.695949	0.000052	0.523557	0.177386	0.000021
 140	1.3831e+01	5.5699	-8.669879	0.000064	0.644378	0.218321	0.000026
 141	1.3930e+01	5.5875	-8.646660	0.000057	0.573899	0.194442	0.000023
 142	1.4030e+01	5.6501	-8.627923	0.000046	0.463147	0.156918	0.000019
 143	1.4129e+01	5.6726	-8.603482	0.000060	0.604104	0.204676	0.000025
 144	1.4229e+01	5.7030	-8.582300	0.000052	0.523557	0.177386	0.000021
 145	1.4328e+01	5.7544	-8.555008	0.000067	0.674583	0.228555	0.000027
 146	1.4428e+01	5.8137	-8.532604	0.000055	0.553762	0.187620	0.000023
 147	1.4527e+01	5.8266	-8.500017	0.000081	0.805473	0.272901	0.000033
 148	1.4627e+01	5.8859	-8.475576	0.000060	0.604104	0.204676	0.000025
 149	1.4726e+01	5.9437	-8.445433	0.000075	0.745062	0.252434	0.000030
 150	1.4825e+01	5.9501	-8.431176	0.000035	0.352394	0.119394	0.000014
 151	1.4925e+01	5.9998	-8.393293	0.000094	0.936362	0.317248	0.000038
 152	1.5024e+01	6.0496	-8.371704	0.000053	0.533626	0.180797	0.000022
 153	1.5124e+01	6.0624	-8.345227	0.000065	0.654446	0.221732	0.000027
 154	1.5223e+01	6.1201	-8.318750	0.000065	0.654446	0.221732	0.000027
 155	1.5323e+01	6.1667	-8.295124	0.000058	0.583968	0.197854	0.000024
 156	1.5422e+01	6.1972	-8.265388	0.000073	0.734994	0.249023	0.000030
 157	1.5522e+01	6.2340	-8.235244	0.000075	0.745062	0.252434	0.000030
 158	1.5621e+01	6.2774	-8.199398	0.000089	0.886020	0.300192	0.000036
 159	1.5721e+01	6.3287	-8.172514	0.000066	0.664515	0.225144	0.000027
 160	1.5820e+01	6.3672	-8.139926	0.000081	0.805473	0.272901	0.000033
 161	1.5920e+01	6.4073	-8.106931	0.000082	0.815541	0.276313	0.000033
 162	1.6020e+01	6.4586	-8.075566	0.000078	0.775267	0.262668	0.000032
 163	1.6119e+01	6.5036	-8.042571	0.000082	0.815541	0.276313	0.000033
 164	1.6218e+01	6.5324	-8.010391	0.000080	0.795404	0.269490	0.000032
 165	1.6318e+01	6.5725	-7.969250	0.000102	1.016909	0.344538	0.000041
 166	1.6418e+01	6.5918	-7.938699	0.000076	0.755131	0.255845	0.000031
 167	1.6517e+01	6.6479	-7.905297	0.000083	0.825609	0.279724	0.000034
 168	1.6616e+01	6.6720	-7.869858	0.000088	0.875951	0.296780	0.000036
 169	1.6716e+01	6.7105	-7.831568	0.000095	0.946430	0.320659	0.000038
 170	1.6816e+01	6.7586	-7.792463	0.000097	0.966567	0.327482	0.000039
 171	1.6915e+01	6.7779	-7.757024	0.000088	0.875951	0.296780	0.000036
 172	1.7015e+01	6.8324	-7.728103	0.000071	0.714857	0.242200	0.000029
 173	1.7114e+01	6.8629	-7.686554	0.000103	1.026977	0.347949	0.000042
 174	1.7213e+01	6.9191	-7.647042	0.000098	0.976635	0.330893	0.000040
 175	1.7313e+01	6.9447	-7.607122	0.000099	0.986704	0.334304	0.000040
 176	1.7413e+01	6.9993	-7.568832	0.000095	0.946430	0.320659	0.000038
 177	1.7512e+01	7.0586	-7.533800	0.000087	0.865883	0.293369	0.000035
 178	1.7611e+01	7.0795	-7.497547	0.000090	0.896088	0.303603	0.000036
 179	1.7711e+01	7.1003	-7.454369	0.000107	1.067251	0.361594	0.000043
 180	1.7811e+01	7.1629	-7.410783	0.000108	1.077320	0.365006	0.000044
 181	1.7910e+01	7.1870	-7.372085	0.000096	0.956499	0.324071	0.000039
 182	1.8009e+01	7.2239	-7.338683	0.000083	0.825609	0.279724	0.000034
 183	1.8109e+01	7.2640	-7.298356	0.000100	0.996772	0.337716	0.000041
 184	1.8209e+01	7.3089	-7.256808	0.000103	1.026977	0.347949	0.000042
 185	1.8308e+01	7.3297	-7.213629	0.000107	1.067251	0.361594	0.000043
 186	1.8407e+01	7.3827	-7.176968	0.000091	0.906157	0.307014	0.000037
 187	1.8507e+01	7.4196	-7.135827	0.000102	1.016909	0.344538	0.000041
 188	1.8607e+01	7.4725	-7.092649	0.000107	1.067251	0.361594	0.000043
 189	1.8706e+01	7.5110	-7.050285	0.000105	1.047114	0.354772	0.000043
 190	1.8805e+01	7.5479	-7.009958	0.000100	0.996772	0.337716	0.000041
 191	1.8905e+01	7.6137	-6.969631	0.000100	0.996772	0.337716	0.000041
 192	1.9005e+01	7.6297	-6.922379	0.000117	1.167935	0.395707	0.000047
 193	1.9104e+01	7.6602	-6.877979	0.000110	1.097456	0.371828	0.000045
 194	1.9203e+01	7.7115	-6.837245	0.000101	1.006841	0.341127	0.000041
 195	1.9303e+01	7.7404	-6.792030	0.000112	1.117593	0.378651	0.000045
 196	1.9402e+01	7.7998	-6.748851	0.000107	1.067251	0.361594	0.000043
 197	1.9502e+01	7.8158	-6.699970	0.000121	1.208209	0.409352	0.000049
 198	1.9602e+01	7.8623	-6.658829	0.000102	1.016909	0.344538	0.000041
 199	1.9701e+01	7.8944	-6.607096	0.000128	1.278688	0.433231	0.000052
 200	1.9800e+01	7.9570	-6.563511	0.000108	1.077320	0.365006	0.000044
 201	1.9900e+01	7.9778	-6.518296	0.000112	1.117593	0.378651	0.000045
 202	2.0000e+01	8.0292	-6.464934	0.000132	1.318961	0.446876	0.000054
 203	2.0099e+01	8.0581	-6.418904	0.000114	1.137730	0.385473	0.000046
 204	2.0198e+01	8.1126	-6.374504	0.000110	1.097456	0.371828	0.000045
 205	2.0298e+01	8.1351	-6.326437	0.000119	1.188072	0.402530	0.000048
 206	2.0398e+01	8.1848	-6.277149	0.000122	1.218277	0.412763	0.000050
 207	2.0497e+01	8.2137	-6.222157	0.000136	1.359235	0.460521	0.000055
 208	2.0596e+01	8.2682	-6.177350	0.000111	1.107525	0.375240	0.000045
 209	2.0696e+01	8.3035	-6.123581	0.000133	1.329030	0.450287	0.000054
 210	2.0796e+01	8.3340	-6.071033	0.000130	1.298824	0.440054	0.000053
 211	2.0895e+01	8.4110	-6.025004	0.000114	1.137730	0.385473	0.000046
 212	2.0994e+01	8.4206	-5.972049	0.000131	1.308893	0.443465	0.000053
 213	2.1094e+01	8.4687	-5.922353	0.000123	1.228346	0.416175	0.000050
 214	2.1194e+01	8.5233	-5.873472	0.000121	1.208209	0.409352	0.000049
 215	2.1293e+01	8.5345	-5.821740	0.000128	1.278688	0.433231	0.000052
 216	2.1392e+01	8.5907	-5.769193	0.000130	1.298824	0.440054	0.000053
 217	2.1492e+01	8.6292	-5.711757	0.000142	1.419645	0.480989	0.000058
 218	2.1591e+01	8.6420	-5.655951	0.000138	1.379372	0.467344	0.000056
 219	2.1691e+01	8.6869	-5.603811	0.000129	1.288756	0.436642	0.000052
 220	2.1791e+01	8.7559	-5.552079	0.000128	1.278688	0.433231	0.000052
 221	2.1890e+01	8.7912	-5.499532	0.000130	1.298824	0.440054	0.000053
 222	2.1989e+01	8.8297	-5.438838	0.000150	1.500193	0.508279	0.000061
 223	2.2089e+01	8.8826	-5.380180	0.000145	1.449851	0.491223	0.000059
 224	2.2189e+01	8.9276	-5.324782	0.000137	1.369303	0.463933	0.000056
 225	2.2288e+01	8.9677	-5.268161	0.000140	1.399509	0.474166	0.000057
 226	2.2387e+01	8.9997	-5.208282	0.000148	1.480056	0.501456	0.000060
 227	2.2487e+01	9.0350	-5.148810	0.000147	1.469987	0.498045	0.000060
 228	2.2587e+01	9.0767	-5.091782	0.000141	1.409577	0.477578	0.000057
 229	2.2686e+01	9.1249	-5.032717	0.000146	1.459919	0.494634	0.000059
 230	2.2785e+01	9.1377	-4.972838	0.000148	1.480056	0.501456	0.000060
 231	2.2885e+01	9.1538	-4.911736	0.000151	1.510261	0.511690	0.000061
 232	2.2985e+01	9.2003	-4.850635	0.000151	1.510261	0.511690	0.000061
 233	2.3084e+01	9.2677	-4.787904	0.000155	1.550535	0.525335	0.000063
 234	2.3183e+01	9.2853	-4.728432	0.000147	1.469987	0.498045	0.000060
 235	2.3283e+01	9.3366	-4.664887	0.000157	1.570671	0.532158	0.000064
 236	2.3383e+01	9.3703	-4.601341	0.000157	1.570671	0.532158	0.000064
 237	2.3482e+01	9.4201	-4.535759	0.000162	1.621013	0.549214	0.000066
 238	2.3581e+01	9.4345	-4.477509	0.000144	1.439782	0.487811	0.000059
 239	2.3681e+01	9.5051	-4.411927	0.000162	1.621013	0.549214	0.000066
 240	2.3780e+01	9.5548	-4.347567	0.000159	1.590808	0.538980	0.000065
 241	2.3880e+01	9.5741	-4.283614	0.000158	1.580740	0.535569	0.000064
 242	2.3980e+01	9.6158	-4.215995	0.000167	1.671356	0.566271	0.000068
 243	2.4079e+01	9.6799	-4.154079	0.000153	1.530398	0.518513	0.000062
 244	2.4178e+01	9.6928	-4.091756	0.000154	1.540466	0.521924	0.000063
 245	2.4278e+01	9.7457	-4.023730	0.000168	1.681424	0.569682	0.000068
 246	2.4378e+01	9.7794	-3.962628	0.000151	1.510261	0.511690	0.000061
 247	2.4477e+01	9.8051	-3.903156	0.000147	1.469987	0.498045	0.000060
 248	2.4576e+01	9.8789	-3.834723	0.000169	1.691492	0.573093	0.000069
 249	2.4676e+01	9.8933	-3.765882	0.000170	1.701561	0.576504	0.000069
 250	2.4776e+01	9.9495	-3.699078	0.000165	1.651219	0.559448	0.000067
 251	2.4875e+01	9.9815	-3.633088	0.000163	1.631082	0.552626	0.000066
 252	2.4974e+01	10.0152	-3.569543	0.000157	1.570671	0.532158	0.000064
 253	2.5074e+01	10.0489	-3.501517	0.000168	1.681424	0.569682	0.000068
 254	2.5174e+01	10.1099	-3.433490	0.000168	1.681424	0.569682	0.000068
 255	2.5273e+01	10.1291	-3.369130	0.000159	1.590808	0.538980	0.000065
 256	2.5372e+01	10.1564	-3.295401	0.000182	1.822382	0.617440	0.000074
 257	2.5472e+01	10.2029	-3.227375	0.000168	1.681424	0.569682	0.000068
 258	2.5572e+01	10.2462	-3.159756	0.000167	1.671356	0.566271	0.000068
 259	2.5671e+01	10.3008	-3.090915	0.000170	1.701561	0.576504	0.000069
 260	2.5770e+01	10.3425	-3.019223	0.000177	1.772040	0.600383	0.000072
 261	2.5870e+01	10.3649	-2.951197	0.000168	1.681424	0.569682	0.000068
 262	2.5970e+01	10.4179	-2.875838	0.000186	1.862655	0.631085	0.000076
 263	2.6069e+01	10.4596	-2.804961	0.000175	1.751903	0.593561	0.000071
 264	2.6169e+01	10.4949	-2.732861	0.000178	1.782108	0.603795	0.000072
 265	2.6268e+01	10.5510	-2.659132	0.000182	1.822382	0.617440	0.000074
 266	2.6367e+01	10.5783	-2.584181	0.000185	1.852587	0.627673	0.000075
 267	2.6467e+01	10.6040	-2.512896	0.000176	1.761971	0.596972	0.000072
 268	2.6567e+01	10.6489	-2.440797	0.000178	1.782108	0.603795	0.000072
 269	2.6666e+01	10.7018	-2.364216	0.000189	1.892860	0.641318	0.000077
 270	2.6765e+01	10.7211	-2.285599	0.000194	1.943203	0.658375	0.000079
 271	2.6865e+01	10.7724	-2.215943	0.000172	1.721698	0.583327	0.000070
 272	2.6965e+01	10.7965	-2.134475	0.000201	2.013681	0.682254	0.000082
 273	2.7064e+01	10.8526	-2.054636	0.000197	1.973408	0.668609	0.000080
 274	2.7163e+01	10.9152	-1.984573	0.000173	1.731766	0.586738	0.000070
 275	2.7263e+01	10.9280	-1.908400	0.000188	1.882792	0.637907	0.000077
 276	2.7363e+01	10.9906	-1.828561	0.000197	1.973408	0.668609	0.000080
 277	2.7462e+01	10.9954	-1.750351	0.000193	1.933134	0.654964	0.000079
 278	2.7561e+01	11.0692	-1.673363	0.000190	1.902929	0.644730	0.000077
 279	2.7661e+01	11.0949	-1.593931	0.000196	1.963339	0.665197	0.000080
 280	2.7761e+01	11.1526	-1.512463	0.000201	2.013681	0.682254	0.000082
 281	2.7860e+01	11.1927	-1.431809	0.000199	1.993545	0.675431	0.000081
 282	2.7959e+01	11.2296	-1.355636	0.000188	1.882792	0.637907	0.000077
 283	2.8059e+01	11.2489	-1.274982	0.000199	1.993545	0.675431	0.000081
 284	2.8159e+01	11.3130	-1.193514	0.000201	2.013681	0.682254	0.000082
 285	2.8258e+01	11.3114	-1.109194	-0.000208	-2.084160	-0.706133	0.000085
 286	2.8358e+01	11.4109	-1.031799	0.000191	1.912997	0.648141	0.000078
 287	2.8457e+01	11.4013	-0.948701	-0.000205	-2.053955	-0.695899	0.000084
 288	2.8556e+01	11.4622	-0.863974	0.000209	2.094229	0.709544	0.000085
 289	2.8656e+01	11.4879	-0.780468	0.000206	2.064023	0.699310	0.000084
 290	2.8756e+01	11.5296	-0.696148	0.000208	2.084160	0.706133	0.000085
 291	2.8855e+01	11.5681	-0.615902	0.000198	1.983476	0.672020	0.000081
 292	2.8954e+01	11.6082	-0.530767	0.000210	2.104297	0.712955	0.000086
 293	2.9054e+01	11.6483	-0.446447	0.000208	2.084160	0.706133	0.000085
 294	2.9154e+01	11.6916	-0.360498	0.000212	2.124434	0.719778	0.000086
 295	2.9253e+01	11.7366	-0.274549	0.000212	2.124434	0.719778	0.000086
 296	2.9352e+01	11.7735	-0.192266	0.000203	2.033818	0.689076	0.000083
 297	2.9452e+01	11.8152	-0.105909	0.000213	2.134502	0.723189	0.000087
 298	2.9552e+01	11.8441	-0.017923	0.000217	2.174776	0.736834	0.000088
 299	2.9651e+01	11.8922	0.068841	0.000214	2.144571	0.726600	0.000087
 300	2.9750e+01	11.9275	0.157234	0.000218	2.184844	0.740245	0.000089
 301	2.9850e+01	11.9708	0.245220	0.000217	2.174776	0.736834	0.000088
 302	2.9950e+01	12.0125	0.334428	0.000220	2.204981	0.747068	0.000090
 303	3.0049e+01	12.0622	0.418748	0.000208	2.084160	0.706133	0.000085
 304	3.0148e+01	12.1039	0.509178	0.000224	2.235186	0.757302	0.000091
 305	3.0248e+01	12.0991	0.600423	-0.000226	-2.255323	-0.764124	0.000092
 306	3.0348e+01	12.1553	0.688002	0.000216	2.164707	0.733423	0.000088
 307	3.0447e+01	12.1890	0.774358	0.000213	2.134502	0.723189	0.000087
 308	3.0547e+01	12.2740	0.866010	0.000227	2.265392	0.767535	0.000092
 309	3.0646e+01	12.2948	0.953589	0.000216	2.164707	0.733423	0.000088
 310	3.0745e+01	12.3414	1.040353	0.000214	2.144571	0.726600	0.000087
 311	3.0845e+01	12.3831	1.129154	0.000219	2.194913	0.743657	0.000089
 312	3.0945e+01	12.4087	1.221213	0.000228	2.275460	0.770947	0.000093
 313	3.1044e+01	12.4440	1.312458	0.000226	2.255323	0.764124	0.000092
 314	3.1143e+01	12.4777	1.409405	0.000240	2.396281	0.811882	0.000097
 315	3.1243e+01	12.5098	1.496984	0.000216	2.164707	0.733423	0.000088
 316	3.1343e+01	12.5868	1.587007	0.000223	2.225118	0.753890	0.000090
 317	3.1442e+01	12.6349	1.680695	0.000232	2.315734	0.784592	0.000094
 318	3.1541e+01	12.6333	1.773162	-0.000229	-2.285528	-0.774358	0.000093
 319	3.1641e+01	12.7151	1.869702	0.000239	2.386212	0.808471	0.000097
 320	3.1741e+01	12.7168	1.961354	0.000227	2.265392	0.767535	0.000092
 321	3.1840e+01	12.7970	2.052599	0.000226	2.255323	0.764124	0.000092
 322	3.1939e+01	12.8114	2.143029	0.000224	2.235186	0.757302	0.000091
 323	3.2039e+01	12.8467	2.237533	0.000234	2.335870	0.791414	0.000095
 324	3.2139e+01	12.8964	2.336517	0.000245	2.446623	0.828938	0.000099
 325	3.2238e+01	12.9349	2.437538	0.000250	2.496965	0.845995	0.000102
 326	3.2337e+01	12.9798	2.527153	0.000222	2.215049	0.750479	0.000090
 327	3.2437e+01	12.9911	2.626952	0.000247	2.466760	0.835761	0.000100
 328	3.2536e+01	13.0504	2.726751	0.000247	2.466760	0.835761	0.000100
 329	3.2636e+01	13.0937	2.828179	0.000251	2.507033	0.849406	0.000102
 330	3.2736e+01	13.0970	2.925942	0.000242	2.416418	0.818704	0.000098
 331	3.2835e+01	13.1964	3.023296	0.000241	2.406349	0.815293	0.000098
 332	3.2934e+01	13.1932	3.128391	-0.000260	-2.597649	-0.880107	0.000106
 333	3.3034e+01	13.2285	3.233078	0.000259	2.587581	0.876696	0.000105
 334	3.3133e+01	13.2830	3.332062	0.000245	2.446623	0.828938	0.000099
 335	3.3233e+01	13.3408	3.430232	0.000243	2.426486	0.822116	0.000099
 336	3.3333e+01	13.3633	3.535326	0.000260	2.597649	0.880107	0.000106
 337	3.3432e+01	13.4242	3.636754	0.000251	2.507033	0.849406	0.000102
 338	3.3532e+01	13.4707	3.740219	0.000256	2.557375	0.866462	0.000104
 339	3.3631e+01	13.4756	3.839204	0.000245	2.446623	0.828938	0.000099
 340	3.3730e+01	13.5189	3.947557	0.000268	2.678196	0.907397	0.000109
 341	3.3830e+01	13.5718	4.055095	0.000266	2.658059	0.900575	0.000108
 342	3.3929e+01	13.6039	4.154079	0.000245	2.446623	0.828938	0.000099
 343	3.4029e+01	13.6231	4.257137	0.000255	2.547307	0.863051	0.000104
 344	3.4129e+01	13.6969	4.359787	0.000254	2.537239	0.859640	0.000103
 345	3.4228e+01	13.7258	4.470585	0.000274	2.738607	0.927865	0.000111
 346	3.4328e+01	13.7483	4.573642	0.000255	2.547307	0.863051	0.000104
 347	3.4427e+01	13.8092	4.680366	0.000264	2.637923	0.893752	0.000107
 348	3.4526e+01	13.8381	4.785053	0.000259	2.587581	0.876696	0.000105
 349	3.4626e+01	13.8686	4.890147	0.000260	2.597649	0.880107	0.000106
 350	3.4725e+01	13.9199	4.997686	0.000266	2.658059	0.900575	0.000108
 351	3.4825e+01	13.9681	5.104817	0.000265	2.647991	0.897164	0.000108
 352	3.4925e+01	14.0178	5.208689	0.000257	2.567444	0.869873	0.000104
 353	3.5024e+01	14.0162	5.313784	-0.000260	-2.597649	-0.880107	0.000106
 354	3.5123e+01	14.0948	5.417249	0.000256	2.557375	0.866462	0.000104
 355	3.5223e+01	14.1108	5.529268	0.000277	2.768812	0.938099	0.000113
 356	3.5322e+01	14.1333	5.640065	0.000274	2.738607	0.927865	0.000111
 357	3.5422e+01	14.2119	5.738235	0.000243	2.426486	0.822116	0.000099
 358	3.5522e+01	14.2135	5.847810	0.000271	2.708401	0.917631	0.000110
 359	3.5621e+01	14.2713	5.955755	0.000267	2.668128	0.903986	0.000108
 360	3.5721e+01	14.3306	6.060035	0.000258	2.577512	0.873285	0.000105
 361	3.5820e+01	14.3515	6.168796	0.000269	2.688265	0.910809	0.000109
 362	3.5919e+01	14.4253	6.281222	0.000278	2.778880	0.941510	0.000113
 363	3.6019e+01	14.4445	6.389575	0.000268	2.678196	0.907397	0.000109
 364	3.6118e+01	14.4573	6.495484	0.000262	2.617786	0.886930	0.000106
 365	3.6218e+01	14.5440	6.609133	0.000281	2.809085	0.951744	0.000114
 366	3.6318e+01	14.5504	6.719115	0.000272	2.718470	0.921043	0.000111
 367	3.6417e+01	14.6065	6.825432	0.000263	2.627854	0.890341	0.000107
 368	3.6517e+01	14.6418	6.935414	0.000272	2.718470	0.921043	0.000111
 369	3.6616e+01	14.6499	7.043767	0.000268	2.678196	0.907397	0.000109
 370	3.6715e+01	14.7156	7.155787	0.000277	2.768812	0.938099	0.000113
 371	3.6815e+01	14.7413	7.263732	0.000267	2.668128	0.903986	0.000108
 372	3.6914e+01	14.8007	7.372900	0.000270	2.698333	0.914220	0.000110
 373	3.7014e+01	14.8552	7.487363	0.000283	2.829222	0.958566	0.000115
 374	3.7114e+01	14.8664	7.598568	0.000275	2.748675	0.931276	0.000112
 375	3.7213e+01	14.9162	7.713439	0.000284	2.839291	0.961978	0.000115
 376	3.7313e+01	14.9579	7.822199	0.000269	2.688265	0.910809	0.000109
 377	3.7412e+01	15.0220	7.932996	0.000274	2.738607	0.927865	0.000111
 378	3.7511e+01	15.0493	8.045423	0.000278	2.778880	0.941510	0.000113
 379	3.7611e+01	15.0846	8.161923	0.000288	2.879564	0.975623	0.000117
 380	3.7711e+01	15.1279	8.269868	0.000267	2.668128	0.903986	0.000108
 381	3.7810e+01	15.1744	8.380258	0.000273	2.728538	0.924454	0.000111
 382	3.7910e+01	15.1696	8.497166	-0.000289	-2.889633	-0.979034	0.000117
 383	3.8009e+01	15.2113	8.606741	0.000271	2.708401	0.917631	0.000110
 384	3.8108e+01	15.2851	8.722426	0.000286	2.859428	0.968800	0.000116
 385	3.8208e+01	15.3220	8.833631	0.000275	2.748675	0.931276	0.000112
 386	3.8307e+01	15.3750	8.948501	0.000284	2.839291	0.961978	0.000115
 387	3.8407e+01	15.4311	9.063372	0.000284	2.839291	0.961978	0.000115
 388	3.8507e+01	15.4279	9.181094	-0.000291	-2.909770	-0.985857	0.000118
 389	3.8606e+01	15.4825	9.294742	0.000281	2.809085	0.951744	0.000114
 390	3.8706e+01	15.5081	9.406762	0.000277	2.768812	0.938099	0.000113
 391	3.8805e+01	15.5386	9.524076	0.000290	2.899701	0.982445	0.000118
 392	3.8904e+01	15.5803	9.640169	0.000287	2.869496	0.972212	0.000117
 393	3.9004e+01	15.6172	9.761964	0.000301	3.010454	1.019969	0.000122
 394	3.9103e+01	15.6685	9.876428	0.000283	2.829222	0.958566	0.000115
 395	3.9203e+01	15.7215	9.995372	0.000294	2.939975	0.996090	0.000120
 396	3.9303e+01	15.7648	10.113501	0.000292	2.919838	0.989268	0.000119
 397	3.9402e+01	15.7921	10.230816	0.000290	2.899701	0.982445	0.000118
 398	3.9502e+01	15.8177	10.348538	0.000291	2.909770	0.985857	0.000118
 399	3.9601e+01	15.8963	10.465445	0.000289	2.889633	0.979034	0.000117
 400	3.9700e+01	15.9188	10.584389	0.000294	2.939975	0.996090	0.000120
 401	3.9800e+01	15.9557	10.705777	0.000300	3.000385	1.016558	0.000122
 402	3.9900e+01	16.0102	10.823092	0.000290	2.899701	0.982445	0.000118
 403	3.9999e+01	16.0343	10.942036	0.000294	2.939975	0.996090	0.000120
 404	4.0099e+01	16.0744	11.063424	0.000300	3.000385	1.016558	0.000122
 405	4.0198e+01	16.1129	11.185626	0.000302	3.020522	1.023381	0.000123
 406	4.0297e+01	16.1354	11.306200	0.000298	2.980248	1.009735	0.000121
 407	4.0397e+01	16.1899	11.424329	0.000292	2.919838	0.989268	0.000119
 408	4.0496e+01	16.2413	11.540422	0.000287	2.869496	0.972212	0.000117
 409	4.0596e+01	16.2605	11.663439	0.000304	3.040659	1.030203	0.000124
 410	4.0696e+01	16.3006	11.781976	0.000293	2.929906	0.992679	0.000119
 411	4.0795e+01	16.3439	11.900920	0.000294	2.939975	0.996090	0.000120
 412	4.0895e+01	16.3712	12.016605	0.000286	2.859428	0.968800	0.000116
 413	4.0994e+01	16.4273	12.138808	0.000302	3.020522	1.023381	0.000123
 414	4.1093e+01	16.4771	12.255308	0.000288	2.879564	0.975623	0.000117
 415	4.1193e+01	16.5220	12.374252	0.000294	2.939975	0.996090	0.000120
 416	4.1292e+01	16.5380	12.496455	0.000302	3.020522	1.023381	0.000123
 417	4.1392e+01	16.5910	12.617028	0.000298	2.980248	1.009735	0.000121
 418	4.1492e+01	16.6439	12.729862	0.000279	2.788949	0.944921	0.000113
 419	4.1591e+01	16.6616	12.852880	0.000304	3.040659	1.030203	0.000124
 420	4.1691e+01	16.6969	12.976304	0.000305	3.050727	1.033614	0.000124
 421	4.1790e+01	16.7466	13.098507	0.000302	3.020522	1.023381	0.000123
 422	4.1889e+01	16.7851	13.216229	0.000291	2.909770	0.985857	0.000118
 423	4.1989e+01	16.8364	13.339654	0.000305	3.050727	1.033614	0.000124
 424	4.2089e+01	16.8781	13.457376	0.000291	2.909770	0.985857	0.000118
 425	4.2188e+01	16.9214	13.580393	0.000304	3.040659	1.030203	0.000124
 426	4.2288e+01	16.9551	13.698930	0.000293	2.929906	0.992679	0.000119
 427	4.2387e+01	17.0081	13.824392	0.000310	3.101069	1.050671	0.000126
 428	4.2486e+01	17.0738	13.944150	0.000296	2.960112	1.002913	0.000120
 429	4.2586e+01	17.0787	14.065538	0.000300	3.000385	1.016558	0.000122
 430	4.2685e+01	17.0819	14.192222	0.000313	3.131275	1.060905	0.000127
 431	4.2785e+01	17.1637	14.310351	0.000292	2.919838	0.989268	0.000119
 432	4.2885e+01	17.1990	14.434998	0.000308	3.080932	1.043848	0.000125
 433	4.2984e+01	17.2295	14.559645	0.000308	3.080932	1.043848	0.000125
 434	4.3084e+01	17.2792	14.685106	0.000310	3.101069	1.050671	0.000126
 435	4.3183e+01	17.3193	14.808938	0.000306	3.060796	1.037026	0.000124
 436	4.3282e+01	17.3530	14.940103	0.000324	3.242027	1.098428	0.000132
 437	4.3382e+01	17.3995	15.064342	0.000307	3.070864	1.040437	0.000125
 438	4.3481e+01	17.4380	15.184101	0.000296	2.960112	1.002913	0.000120
 439	4.3581e+01	17.4653	15.315265	0.000324	3.242027	1.098428	0.000132
 440	4.3681e+01	17.4926	15.439505	0.000307	3.070864	1.040437	0.000125
 441	4.3780e+01	17.5583	15.564966	0.000310	3.101069	1.050671	0.000126
 442	4.3880e+01	17.5872	15.692057	0.000314	3.141343	1.064316	0.000128
 443	4.3979e+01	17.6594	15.817111	0.000309	3.091001	1.047259	0.000126
 444	4.4078e+01	17.6674	15.940943	0.000306	3.060796	1.037026	0.000124
 445	4.4178e+01	17.7171	16.069664	0.000318	3.181617	1.077961	0.000129
 446	4.4278e+01	17.7284	16.196755	0.000314	3.141343	1.064316	0.000128
 447	4.4377e+01	17.8006	16.322216	0.000310	3.101069	1.050671	0.000126
 448	4.4477e+01	17.8343	16.444011	0.000301	3.010454	1.019969	0.000122
 449	4.4576e+01	17.8712	16.578435	0.000332	3.322574	1.125719	0.000135
 450	4.4675e+01	17.8888	16.706747	0.000317	3.171548	1.074550	0.000129
 451	4.4775e+01	17.9466	16.832209	0.000310	3.101069	1.050671	0.000126
 452	4.4874e+01	17.9995	16.957670	0.000310	3.101069	1.050671	0.000126
 453	4.4974e+01	18.0460	17.088427	0.000323	3.231959	1.095017	0.000131
 454	4.5074e+01	18.0701	17.222036	0.000330	3.302437	1.118896	0.000134
 455	4.5173e+01	18.0701	17.346275	-0.000307	-3.070864	-1.040437	0.000125
 456	4.5273e+01	18.1567	17.472551	0.000312	3.121206	1.057493	0.000127
 457	4.5372e+01	18.1872	17.604938	0.000327	3.272232	1.108662	0.000133
 458	4.5471e+01	18.2064	17.732843	0.000316	3.161480	1.071138	0.000129
 459	4.5571e+01	18.2578	17.866859	0.000331	3.312506	1.122307	0.000135
 460	4.5670e+01	18.3203	17.987432	0.000298	2.980248	1.009735	0.000121
 461	4.5770e+01	18.3540	18.118189	0.000323	3.231959	1.095017	0.000131
 462	4.5870e+01	18.4166	18.254242	0.000336	3.362848	1.139364	0.000137
 463	4.5969e+01	18.4102	18.382555	-0.000317	-3.171548	-1.074550	0.000129
 464	4.6069e+01	18.4808	18.510868	0.000317	3.171548	1.074550	0.000129
 465	4.6168e+01	18.5080	18.642439	0.000325	3.252095	1.101840	0.000132
 466	4.6267e+01	18.5882	18.773196	0.000323	3.231959	1.095017	0.000131
 467	4.6367e+01	18.5770	18.910063	-0.000338	-3.382985	-1.146186	0.000138
 468	4.6467e+01	18.6139	19.039191	0.000319	3.191685	1.081372	0.000130
 469	4.6566e+01	18.6845	19.170763	0.000325	3.252095	1.101840	0.000132
 470	4.6666e+01	18.7086	19.300297	0.000320	3.201753	1.084783	0.000130
 471	4.6765e+01	18.7535	19.431054	0.000323	3.231959	1.095017	0.000131
 472	4.6864e+01	18.7808	19.568329	0.000339	3.393053	1.149598	0.000138
 473	4.6964e+01	18.8369	19.693383	0.000309	3.091001	1.047259	0.000126
 474	4.7063e+01	18.8674	19.826177	0.000328	3.282301	1.112074	0.000133
 475	4.7163e+01	18.8995	19.953268	0.000314	3.141343	1.064316	0.000128
 476	4.7263e+01	18.9332	20.077914	0.000308	3.080932	1.043848	0.000125
 477	4.7362e+01	18.9973	20.208264	0.000322	3.221890	1.091606	0.000131
 478	4.7462e+01	19.0294	20.343094	0.000333	3.332643	1.129130	0.000136
 479	4.7561e+01	19.0856	20.471407	0.000317	3.171548	1.074550	0.000129
 480	4.7660e+01	19.1353	20.594832	0.000305	3.050727	1.033614	0.000124
 481	4.7760e+01	19.1369	20.731699	0.000338	3.382985	1.146186	0.000138
 482	4.7859e+01	19.1658	20.865308	0.000330	3.302437	1.118896	0.000134
 483	4.7959e+01	19.2283	20.998916	0.000330	3.302437	1.118896	0.000134
 484	4.8059e+01	19.2492	21.127636	0.000318	3.181617	1.077961	0.000129
 485	4.8158e+01	19.3021	21.257986	0.000322	3.221890	1.091606	0.000131
 486	4.8258e+01	19.3390	21.387521	0.000320	3.201753	1.084783	0.000130
 487	4.8357e+01	19.4048	21.521536	0.000331	3.312506	1.122307	0.000135
 488	4.8456e+01	19.4337	21.649442	0.000316	3.161480	1.071138	0.000129
 489	4.8556e+01	19.4577	21.781421	0.000326	3.262164	1.105251	0.000133
 490	4.8656e+01	19.5155	21.915029	0.000330	3.302437	1.118896	0.000134
 491	4.8755e+01	19.5380	22.042120	0.000314	3.141343	1.064316	0.000128
 492	4.8855e+01	19.5877	22.177765	0.000335	3.352779	1.135952	0.000136
 493	4.8954e+01	19.6214	22.310152	0.000327	3.272232	1.108662	0.000133
 494	4.9053e+01	19.6486	22.444982	0.000333	3.332643	1.129130	0.000136
 495	4.9153e+01	19.7192	22.576146	0.000324	3.242027	1.098428	0.000132
 496	4.9252e+01	19.7337	22.711791	0.000335	3.352779	1.135952	0.000136
 497	4.9352e+01	19.7706	22.849066	0.000339	3.393053	1.149598	0.000138
 498	4.9452e+01	19.8203	22.983489	0.000332	3.322574	1.125719	0.000135
 499	4.9551e+01	19.8347	23.119134	0.000335	3.352779	1.135952	0.000136
 500	4.9651e+01	19.9101	23.257223	0.000341	3.413190	1.156420	0.000139
 501	4.9750e+01	19.9599	23.393275	0.000336	3.362848	1.139364	0.000137
 502	4.9849e+01	19.9968	23.523218	0.000321	3.211822	1.088195	0.000131
 503	4.9949e+01	20.0160	23.660492	0.000339	3.393053	1.149598	0.000138
 504	5.0048e+01	19.9310	23.790434	-0.000321	-3.211822	-1.088195	0.000131
 505	5.0148e+01	19.9567	23.924043	0.000330	3.302437	1.118896	0.000134
 506	5.0248e+01	19.8925	24.049912	-0.000311	-3.111138	-1.054082	0.000127
 507	5.0347e+01	19.8588	24.174558	-0.000308	-3.080932	-1.043848	0.000125
 508	5.0447e+01	19.8043	24.301649	-0.000314	-3.141343	-1.064316	0.000128
 509	5.0546e+01	19.7946	24.425074	-0.000305	-3.050727	-1.033614	0.000124
 510	5.0645e+01	19.7433	24.540352	-0.000285	-2.849359	-0.965389	0.000116
 511	5.0745e+01	19.7256	24.661740	-0.000300	-3.000385	-1.016558	0.000122
 512	5.0844e+01	19.6551	24.772945	-0.000275	-2.748675	-0.931276	0.000112
 513	5.0944e+01	19.6182	24.881705	-0.000269	-2.688265	-0.910809	0.000109
 514	5.1044e+01	19.5973	24.994539	-0.000279	-2.788949	-0.944921	0.000113
 515	5.1143e+01	19.5716	25.097597	-0.000255	-2.547307	-0.863051	0.000104
 516	5.1242e+01	19.5043	25.203098	-0.000261	-2.607717	-0.883519	0.000106
 517	5.1342e+01	19.4690	25.305341	-0.000253	-2.527170	-0.856228	0.000103
 518	5.1441e+01	19.4465	25.404733	-0.000246	-2.456691	-0.832350	0.000100
 519	5.1541e+01	19.3952	25.505347	-0.000249	-2.486896	-0.842583	0.000101
 520	5.1641e+01	19.3262	25.599850	-0.000234	-2.335870	-0.791414	0.000095
 521	5.1740e+01	19.2829	25.698427	-0.000244	-2.436554	-0.825527	0.000099
 522	5.1840e+01	19.2668	25.788042	-0.000222	-2.215049	-0.750479	0.000090
 523	5.1939e+01	19.2283	25.879694	-0.000227	-2.265392	-0.767535	0.000092
 524	5.2038e+01	19.1802	25.970124	-0.000224	-2.235186	-0.757302	0.000091
 525	5.2138e+01	19.1465	26.059332	-0.000220	-2.204981	-0.747068	0.000090
 526	5.2237e+01	19.1353	26.144060	-0.000209	-2.094229	-0.709544	0.000085
 527	5.2337e+01	19.0503	26.230009	-0.000212	-2.124434	-0.719778	0.000086
 528	5.2437e+01	19.0005	26.311070	-0.000200	-2.003613	-0.678842	0.000081
 529	5.2536e+01	18.9829	26.393761	-0.000204	-2.043887	-0.692488	0.000083
 530	5.2636e+01	18.9444	26.474414	-0.000199	-1.993545	-0.675431	0.000081
 531	5.2735e+01	18.8979	26.557512	-0.000205	-2.053955	-0.695899	0.000084
 532	5.2834e+01	18.8658	26.632463	-0.000185	-1.852587	-0.627673	0.000075
 533	5.2934e+01	18.8128	26.705378	-0.000180	-1.802245	-0.610617	0.000073
 534	5.3033e+01	18.7904	26.782773	-0.000191	-1.912997	-0.648141	0.000078
 535	5.3133e+01	18.7503	26.856502	-0.000182	-1.822382	-0.617440	0.000074
 536	5.3233e+01	18.7118	26.926972	-0.000174	-1.741834	-0.590149	0.000071
 537	5.3332e+01	18.6588	26.994591	-0.000167	-1.671356	-0.566271	0.000068
 538	5.3431e+01	18.6492	27.066283	-0.000177	-1.772040	-0.600383	0.000072
 539	5.3531e+01	18.5738	27.133902	-0.000167	-1.671356	-0.566271	0.000068
 540	5.3630e+01	18.5497	27.197855	-0.000158	-1.580740	-0.535569	0.000064
 541	5.3730e+01	18.5241	27.267510	-0.000172	-1.721698	-0.583327	0.000070
 542	5.3830e+01	18.4743	27.332278	-0.000160	-1.600877	-0.542392	0.000065
 543	5.3929e+01	18.4391	27.393787	-0.000152	-1.520329	-0.515102	0.000062
 544	5.4029e+01	18.3829	27.456517	-0.000155	-1.550535	-0.525335	0.000063
 545	5.4128e+01	18.3316	27.517211	-0.000150	-1.500193	-0.508279	0.000061
 546	5.4227e+01	18.3139	27.577498	-0.000149	-1.490124	-0.504868	0.000061
 547	5.4327e+01	18.2481	27.632897	-0.000137	-1.369303	-0.463933	0.000056
 548	5.4426e+01	18.2113	27.691961	-0.000146	-1.459919	-0.494634	0.000059
 549	5.4526e+01	18.1776	27.747767	-0.000138	-1.379372	-0.467344	0.000056
 550	5.4626e+01	18.1727	27.798278	-0.000125	-1.248482	-0.422997	0.000051
 551	5.4725e+01	18.1182	27.856528	-0.000144	-1.439782	-0.487811	0.000059
 552	5.4825e+01	18.0909	27.912741	-0.000139	-1.389440	-0.470755	0.000056
 553	5.4924e+01	18.0123	27.963659	-0.000126	-1.258551	-0.426409	0.000051
 554	5.5023e+01	17.9883	28.014984	-0.000127	-1.268619	-0.429820	0.000052
 555	5.5123e+01	17.9482	28.063865	-0.000121	-1.208209	-0.409352	0.000049
 556	5.5222e+01	17.8984	28.113561	-0.000123	-1.228346	-0.416175	0.000050
 557	5.5322e+01	17.8936	28.164479	-0.000126	-1.258551	-0.426409	0.000051
 558	5.5422e+01	17.8423	28.211730	-0.000117	-1.167935	-0.395707	0.000047
 559	5.5521e+01	17.8102	28.265092	-0.000132	-1.318961	-0.446876	0.000054
 560	5.5620e+01	17.7540	28.311122	-0.000114	-1.137730	-0.385473	0.000046
 561	5.5720e+01	17.6915	28.355522	-0.000110	-1.097456	-0.371828	0.000045
 562	5.5819e+01	17.6706	28.401145	-0.000113	-1.127662	-0.382062	0.000046
 563	5.5919e+01	17.6193	28.447989	-0.000116	-1.157867	-0.392296	0.000047
 564	5.6019e+01	17.5952	28.491167	-0.000107	-1.067251	-0.361594	0.000043
 565	5.6118e+01	17.5744	28.535568	-0.000110	-1.097456	-0.371828	0.000045
 566	5.6218e+01	17.4942	28.574265	-0.000096	-0.956499	-0.324071	0.000039
 567	5.6317e+01	17.4508	28.614185	-0.000099	-0.986704	-0.334304	0.000040
 568	5.6416e+01	17.4172	28.654512	-0.000100	-0.996772	-0.337716	0.000041
 569	5.6516e+01	17.3867	28.694839	-0.000100	-0.996772	-0.337716	0.000041
 570	5.6615e+01	17.3434	28.739239	-0.000110	-1.097456	-0.371828	0.000045
 571	5.6715e+01	17.3209	28.775493	-0.000090	-0.896088	-0.303603	0.000036
 572	5.6815e+01	17.2808	28.811746	-0.000090	-0.896088	-0.303603	0.000036
 573	5.6914e+01	17.2214	28.850444	-0.000096	-0.956499	-0.324071	0.000039
 574	5.7014e+01	17.1845	28.885068	-0.000086	-0.855815	-0.289958	0.000035
 575	5.7113e+01	17.1348	28.922136	-0.000092	-0.916225	-0.310425	0.000037
 576	5.7212e+01	17.1043	28.956353	-0.000085	-0.845746	-0.286547	0.000034
 577	5.7312e+01	17.0562	28.991384	-0.000087	-0.865883	-0.293369	0.000035
 578	5.7411e+01	17.0402	29.023971	-0.000081	-0.805473	-0.272901	0.000033
 579	5.7511e+01	17.0193	29.052485	-0.000070	-0.704788	-0.238789	0.000029
 580	5.7611e+01	16.9616	29.081814	-0.000072	-0.724925	-0.245611	0.000029
 581	5.7710e+01	16.9022	29.114402	-0.000081	-0.805473	-0.272901	0.000033
 582	5.7809e+01	16.8589	29.140471	-0.000064	-0.644378	-0.218321	0.000026
 583	5.7909e+01	16.8284	29.167356	-0.000066	-0.664515	-0.225144	0.000027
 584	5.8008e+01	16.7883	29.193019	-0.000063	-0.634310	-0.214910	0.000026
 585	5.8108e+01	16.7578	29.221125	-0.000069	-0.694720	-0.235378	0.000028
 586	5.8208e+01	16.7145	29.249232	-0.000069	-0.694720	-0.235378	0.000028
 587	5.8307e+01	16.6985	29.270006	-0.000051	-0.513489	-0.173975	0.000021
 588	5.8407e+01	16.6311	29.296891	-0.000066	-0.664515	-0.225144	0.000027
 589	5.8506e+01	16.5814	29.322146	-0.000062	-0.624241	-0.211499	0.000025
 590	5.8605e+01	16.5477	29.346587	-0.000060	-0.604104	-0.204676	0.000025
 591	5.8705e+01	16.5156	29.370620	-0.000059	-0.594036	-0.201265	0.000024
 592	5.8804e+01	16.4835	29.390580	-0.000049	-0.493352	-0.167152	0.000020
 593	5.8904e+01	16.4402	29.413798	-0.000057	-0.573899	-0.194442	0.000023
 594	5.9004e+01	16.3888	29.438646	-0.000061	-0.614173	-0.208087	0.000025
 595	5.9103e+01	16.3808	29.456569	-0.000044	-0.443010	-0.150096	0.000018
 596	5.9203e+01	16.2878	29.478973	-0.000055	-0.553762	-0.187620	0.000023
 597	5.9302e+01	16.2685	29.497304	-0.000045	-0.453078	-0.153507	0.000018
 598	5.9401e+01	16.2300	29.517671	-0.000050	-0.503420	-0.170563	0.000020
 599	5.9501e+01	16.2140	29.539667	-0.000054	-0.543694	-0.184209	0.000022
 600	5.9600e+01	16.1546	29.560442	-0.000051	-0.513489	-0.173975	0.000021
 601	5.9700e+01	16.1145	29.578365	-0.000044	-0.443010	-0.150096	0.000018
 602	5.9800e+01	16.0792	29.601176	-0.000056	-0.563831	-0.191031	0.000023
 603	5.9899e+01	16.0520	29.624802	-0.000058	-0.583968	-0.197854	0.000024
 604	5.9998e+01	16.0006	29.638244	-0.000033	-0.332257	-0.112572	0.000014
 605	6.0098e+01	15.9573	29.653316	-0.000037	-0.372531	-0.126217	0.000015
 606	6.0197e+01	15.9348	29.674905	-0.000053	-0.533626	-0.180797	0.000022
 607	6.0297e+01	15.8803	29.692013	-0.000042	-0.422873	-0.143273	0.000017
 608	6.0397e+01	15.8113	29.707492	-0.000038	-0.382599	-0.129628	0.000016
 609	6.0496e+01	15.8145	29.727452	0.000049	0.493352	0.167152	0.000020
 610	6.0596e+01	15.7696	29.745375	-0.000044	-0.443010	-0.150096	0.000018
 611	6.0695e+01	15.7215	29.757188	-0.000029	-0.291984	-0.098927	0.000012
 612	6.0794e+01	15.6750	29.774704	-0.000043	-0.432941	-0.146685	0.000018
 613	6.0894e+01	15.5964	29.790590	-0.000039	-0.392668	-0.133039	0.000016
 614	6.0993e+01	15.5899	29.803625	-0.000032	-0.322189	-0.109161	0.000013
 615	6.1093e+01	15.5643	29.813809	-0.000025	-0.251710	-0.085282	0.000010
 616	6.1193e+01	15.5049	29.828066	-0.000035	-0.352394	-0.119394	0.000014
 617	6.1292e+01	15.4680	29.845174	-0.000042	-0.422873	-0.143273	0.000017
 618	6.1392e+01	15.4472	29.860246	-0.000037	-0.372531	-0.126217	0.000015
 619	6.1491e+01	15.4103	29.873281	-0.000032	-0.322189	-0.109161	0.000013
 620	6.1590e+01	15.3653	29.881835	-0.000021	-0.211437	-0.071637	0.000009
 621	6.1690e+01	15.2883	29.896092	-0.000035	-0.352394	-0.119394	0.000014
 622	6.1789e+01	15.2915	29.913200	0.000042	0.422873	0.143273	0.000017
 623	6.1889e+01	15.2418	29.922162	-0.000022	-0.221505	-0.075048	0.000009
 624	6.1989e+01	15.1712	29.930309	-0.000020	-0.201368	-0.068225	0.000008
 625	6.2088e+01	15.1424	29.940900	-0.000026	-0.261779	-0.088693	0.000011
 626	6.2188e+01	15.1151	29.954749	-0.000034	-0.342326	-0.115983	0.000014
 627	6.2287e+01	15.0766	29.964118	-0.000023	-0.231573	-0.078459	0.000009
 628	6.2386e+01	15.0429	29.977968	-0.000034	-0.342326	-0.115983	0.000014
 629	6.2486e+01	15.0044	29.986522	-0.000021	-0.211437	-0.071637	0.000009
 630	6.2586e+01	14.9434	29.997520	-0.000027	-0.271847	-0.092104	0.000011
 631	6.2685e+01	14.9354	30.008111	-0.000026	-0.261779	-0.088693	0.000011
 632	6.2785e+01	14.8937	30.015036	-0.000017	-0.171163	-0.057992	0.000007
 633	6.2884e+01	14.8215	30.022775	-0.000019	-0.191300	-0.064814	0.000008
 634	6.2983e+01	14.8071	30.034181	-0.000028	-0.281915	-0.095516	0.000011
 635	6.3083e+01	14.7589	30.047216	-0.000032	-0.322189	-0.109161	0.000013
 636	6.3182e+01	14.7397	30.059029	-0.000029	-0.291984	-0.098927	0.000012
 637	6.3282e+01	14.7012	30.063102	-0.000010	-0.100684	-0.034113	0.000004
 638	6.3382e+01	14.6194	30.070434	-0.000018	-0.181231	-0.061403	0.000007
 639	6.3481e+01	14.6114	30.078989	-0.000021	-0.211437	-0.071637	0.000009
 640	6.3581e+01	14.5793	30.086321	-0.000018	-0.181231	-0.061403	0.000007
 641	6.3680e+01	14.5311	30.094060	-0.000019	-0.191300	-0.064814	0.000008
 642	6.3779e+01	14.4975	30.097726	-0.000009	-0.090616	-0.030701	0.000004
 643	6.3879e+01	14.4429	30.100578	-0.000007	-0.070479	-0.023879	0.000003
 644	6.3978e+01	14.4060	30.111169	-0.000026	-0.261779	-0.088693	0.000011
 645	6.4078e+01	14.3547	30.106688	0.000011	0.110752	0.037524	-0.000005
 646	6.4177e+01	14.3354	30.118501	-0.000029	-0.291984	-0.098927	0.000012
 647	6.4277e+01	14.2761	30.120130	-0.000004	-0.040274	-0.013645	0.000002
 648	6.4376e+01	14.2199	30.126240	-0.000015	-0.151026	-0.051169	0.000006
 649	6.4476e+01	14.2023	30.129092	-0.000007	-0.070479	-0.023879	0.000003
 650	6.4576e+01	14.1734	30.134795	-0.000014	-0.140958	-0.047758	0.000006
 651	6.4675e+01	14.1060	30.142941	-0.000020	-0.201368	-0.068225	0.000008
 652	6.4775e+01	14.0884	30.147422	-0.000011	-0.110752	-0.037524	0.000005
 653	6.4874e+01	14.0675	30.147830	-0.000001	-0.010068	-0.003411	0.000000
 654	6.4974e+01	14.0082	30.147015	0.000002	0.020137	0.006823	-0.000001
 655	6.5073e+01	13.9504	30.150274	-0.000008	-0.080547	-0.027290	0.000003
 656	6.5172e+01	13.9296	30.158013	-0.000019	-0.191300	-0.064814	0.000008
 657	6.5272e+01	13.8846	30.158420	-0.000001	-0.010068	-0.003411	0.000000
 658	6.5371e+01	13.8526	30.162901	-0.000011	-0.110752	-0.037524	0.000005
 659	6.5471e+01	13.8269	30.165345	-0.000006	-0.060410	-0.020468	0.000002
 660	6.5570e+01	13.7563	30.170233	-0.000012	-0.120821	-0.040935	0.000005
 661	6.5670e+01	13.7531	30.171048	-0.000002	-0.020137	-0.006823	0.000001
 662	6.5769e+01	13.6793	30.175529	-0.000011	-0.110752	-0.037524	0.000005
 663	6.5869e+01	13.6344	30.184490	-0.000022	-0.221505	-0.075048	0.000009
 664	6.5969e+01	13.6135	30.187749	-0.000008	-0.080547	-0.027290	0.000003
 665	6.6068e+01	13.5975	30.189379	-0.000004	-0.040274	-0.013645	0.000002
 666	6.6168e+01	13.5221	30.197525	-0.000020	-0.201368	-0.068225	0.000008
 667	6.6267e+01	13.4691	30.204043	-0.000016	-0.161095	-0.054580	0.000007
 668	6.6367e+01	13.4547	30.206487	-0.000006	-0.060410	-0.020468	0.000002
 669	6.6466e+01	13.3809	30.210153	-0.000009	-0.090616	-0.030701	0.000004
 670	6.6566e+01	13.3472	30.217078	-0.000017	-0.171163	-0.057992	0.000007
 671	6.6665e+01	13.3344	30.218707	-0.000004	-0.040274	-0.013645	0.000002
 672	6.6764e+01	13.2798	30.222373	-0.000009	-0.090616	-0.030701	0.000004
 673	6.6864e+01	13.2638	30.227669	-0.000013	-0.130889	-0.044346	0.000005
 674	6.6963e+01	13.1916	30.229298	-0.000004	-0.040274	-0.013645	0.000002
 675	6.7063e+01	13.1788	30.243148	-0.000034	-0.342326	-0.115983	0.000014
 676	6.7162e+01	13.1082	30.243148	-0.000000	-0.000000	-0.000000	0.000000
 677	6.7262e+01	13.1002	30.246406	-0.000008	-0.080547	-0.027290	0.000003
 678	6.7362e+01	13.0408	30.252517	-0.000015	-0.151026	-0.051169	0.000006
 679	6.7461e+01	13.0023	30.258219	-0.000014	-0.140958	-0.047758	0.000006
 680	6.7561e+01	12.9718	30.259441	-0.000003	-0.030205	-0.010234	0.000001
 681	6.7660e+01	12.9157	30.258627	0.000002	0.020137	0.006823	-0.000001
 682	6.7760e+01	12.8852	30.262700	-0.000010	-0.100684	-0.034113	0.000004
 683	6.7859e+01	12.8659	30.266366	-0.000009	-0.090616	-0.030701	0.000004
 684	6.7959e+01	12.7938	30.269218	-0.000007	-0.070479	-0.023879	0.000003
 685	6.8058e+01	12.7889	30.272884	-0.000009	-0.090616	-0.030701	0.000004
 686	6.8157e+01	12.7360	30.272069	0.000002	0.020137	0.006823	-0.000001
 687	6.8257e+01	12.7200	30.274106	-0.000005	-0.050342	-0.017056	0.000002
 688	6.8356e+01	12.6446	30.278179	-0.000010	-0.100684	-0.034113	0.000004
 689	6.8456e+01	12.6109	30.277365	0.000002	0.020137	0.006823	-0.000001
 690	6.8555e+01	12.5964	30.276550	0.000002	0.020137	0.006823	-0.000001
 691	6.8655e+01	12.5242	30.279401	-0.000007	-0.070479	-0.023879	0.000003
 692	6.8754e+01	12.5146	30.280623	-0.000003	-0.030205	-0.010234	0.000001
 693	6.8854e+01	12.4521	30.281438	-0.000002	-0.020137	-0.006823	0.000001
 694	6.8954e+01	12.4055	30.283067	-0.000004	-0.040274	-0.013645	0.000002
 695	6.9053e+01	12.4200	30.284289	0.000003	0.030205	0.010234	0.000001
 696	6.9153e+01	12.3366	30.286733	-0.000006	-0.060410	-0.020468	0.000002
 697	6.9252e+01	12.2916	30.288363	-0.000004	-0.040274	-0.013645	0.000002
 698	6.9352e+01	12.2499	30.287141	0.000003	0.030205	0.010234	-0.000001
 699	6.9451e+01	12.1986	30.291621	-0.000011	-0.110752	-0.037524	0.000005
 700	6.9550e+01	12.1809	30.293658	-0.000005	-0.050342	-0.017056	0.000002
 701	6.9650e+01	12.1280	30.290807	0.000007	0.070479	0.023879	-0.000003
 702	6.9749e+01	12.0751	30.294473	-0.000009	-0.090616	-0.030701	0.000004
 703	6.9849e+01	12.0350	30.294473	-0.000000	-0.000000	-0.000000	0.000000
 704	6.9948e+01	11.9932	30.292029	0.000006	0.060410	0.020468	-0.000002
 705	7.0048e+01	11.9740	30.294880	-0.000007	-0.070479	-0.023879	0.000003
 706	7.0147e+01	11.9050	30.296917	-0.000005	-0.050342	-0.017056	0.000002
 707	7.0247e+01	11.9098	30.299361	0.000006	0.060410	0.020468	0.000002
 708	7.0347e+01	11.8585	30.294880	0.000011	0.110752	0.037524	-0.000005
 709	7.0446e+01	11.8280	30.298954	-0.000010	-0.100684	-0.034113	0.000004
 710	7.0546e+01	11.7879	30.302212	-0.000008	-0.080547	-0.027290	0.000003
 711	7.0645e+01	11.7510	30.297324	0.000012	0.120821	0.040935	-0.000005
 712	7.0745e+01	11.6852	30.298546	-0.000003	-0.030205	-0.010234	0.000001
 713	7.0844e+01	11.6435	30.298954	-0.000001	-0.010068	-0.003411	0.000000
 714	7.0944e+01	11.6259	30.298954	-0.000000	-0.000000	-0.000000	0.000000
 715	7.1043e+01	11.5521	30.301398	-0.000006	-0.060410	-0.020468	0.000002
 716	7.1142e+01	11.5553	30.302212	0.000002	0.020137	0.006823	0.000001
 717	7.1242e+01	11.5072	30.297732	0.000011	0.110752	0.037524	-0.000005
 718	7.1341e+01	11.4478	30.296917	0.000002	0.020137	0.006823	-0.000001
 719	7.1441e+01	11.4334	30.301398	-0.000011	-0.110752	-0.037524	0.000005
 720	7.1540e+01	11.3836	30.299361	0.000005	0.050342	0.017056	-0.000002
 721	7.1640e+01	11.3419	30.299768	-0.000001	-0.010068	-0.003411	0.000000
 722	7.1740e+01	11.3130	30.300990	-0.000003	-0.030205	-0.010234	0.000001
 723	7.1839e+01	11.2713	30.300176	0.000002	0.020137	0.006823	-0.000001
 724	7.1939e+01	11.2248	30.302620	-0.000006	-0.060410	-0.020468	0.000002
 725	7.2038e+01	11.2024	30.304656	-0.000005	-0.050342	-0.017056	0.000002
 726	7.2138e+01	11.1205	30.307101	-0.000006	-0.060410	-0.020468	0.000002
 727	7.2237e+01	11.0869	30.308730	-0.000004	-0.040274	-0.013645	0.000002
 728	7.2337e+01	11.0756	30.306286	0.000006	0.060410	0.020468	-0.000002
 729	7.2436e+01	11.0034	30.307508	-0.000003	-0.030205	-0.010234	0.000001
 730	7.2535e+01	10.9890	30.309545	-0.000005	-0.050342	-0.017056	0.000002
 731	7.2635e+01	10.9361	30.308323	0.000003	0.030205	0.010234	-0.000001
 732	7.2734e+01	10.9296	30.308323	-0.000000	-0.000000	-0.000000	0.000000
 733	7.2834e+01	10.8558	30.310767	-0.000006	-0.060410	-0.020468	0.000002
 734	7.2933e+01	10.8157	30.307915	0.000007	0.070479	0.023879	-0.000003
 735	7.3033e+01	10.7772	30.310767	-0.000007	-0.070479	-0.023879	0.000003
 736	7.3132e+01	10.7355	30.315247	-0.000011	-0.110752	-0.037524	0.000005
 737	7.3232e+01	10.7050	30.322172	-0.000017	-0.171163	-0.057992	0.000007
 738	7.3332e+01	10.6489	30.318913	0.000008	0.080547	0.027290	-0.000003
 739	7.3431e+01	10.6104	30.317691	0.000003	0.030205	0.010234	-0.000001
 740	7.3531e+01	10.5992	30.325024	-0.000018	-0.181231	-0.061403	0.000007
 741	7.3630e+01	10.5286	30.324616	0.000001	0.010068	0.003411	-0.000000
 742	7.3730e+01	10.5430	30.323394	-0.000003	-0.030205	-0.010234	-0.000001
 743	7.3829e+01	10.4692	30.321765	0.000004	0.040274	0.013645	-0.000002
 744	7.3928e+01	10.4083	30.319728	0.000005	0.050342	0.017056	-0.000002
 745	7.4028e+01	10.3682	30.325024	-0.000013	-0.130889	-0.044346	0.000005
 746	7.4127e+01	10.3633	30.322172	0.000007	0.070479	0.023879	-0.000003
 747	7.4227e+01	10.2976	30.318099	0.000010	0.100684	0.034113	-0.000004
 748	7.4326e+01	10.2671	30.314840	0.000008	0.080547	0.027290	-0.000003
 749	7.4426e+01	10.2414	30.316469	-0.000004	-0.040274	-0.013645	0.000002
 750	7.4525e+01	10.1773	30.310767	0.000014	0.140958	0.047758	-0.000006
 751	7.4625e+01	10.1484	30.312803	-0.000005	-0.050342	-0.017056	0.000002
 752	7.4725e+01	10.1131	30.306286	0.000016	0.161095	0.054580	-0.000007
 753	7.4824e+01	10.0409	30.305064	0.000003	0.030205	0.010234	-0.000001
 754	7.4924e+01	10.0152	30.306286	-0.000003	-0.030205	-0.010234	0.000001
 755	7.5023e+01	9.9831	30.302212	0.000010	0.100684	0.034113	-0.000004
 756	7.5123e+01	9.9254	30.301805	0.000001	0.010068	0.003411	-0.000000
 757	7.5222e+01	9.9029	30.297324	0.000011	0.110752	0.037524	-0.000005
 758	7.5322e+01	9.8500	30.298546	-0.000003	-0.030205	-0.010234	0.000001
 759	7.5421e+01	9.8131	30.294473	0.000010	0.100684	0.034113	-0.000004
 760	7.5520e+01	9.8131	30.293251	0.000003	0.030205	0.010234	-0.000001
 761	7.5620e+01	9.7714	30.293251	-0.000000	-0.000000	-0.000000	0.000000
 762	7.5719e+01	9.7217	30.288770	0.000011	0.110752	0.037524	-0.000005
 763	7.5819e+01	9.6687	30.286733	0.000005	0.050342	0.017056	-0.000002
 764	7.5918e+01	9.6254	30.283475	0.000008	0.080547	0.027290	-0.000003
 765	7.6018e+01	9.5949	30.282660	0.000002	0.020137	0.006823	-0.000001
 766	7.6118e+01	9.5500	30.280623	0.000005	0.050342	0.017056	-0.000002
 767	7.6217e+01	9.5035	30.280623	-0.000000	-0.000000	-0.000000	0.000000
 768	7.6317e+01	9.4890	30.281845	-0.000003	-0.030205	-0.010234	0.000001
 769	7.6416e+01	9.4393	30.276550	0.000013	0.130889	0.044346	-0.000005
 770	7.6516e+01	9.3639	30.279401	-0.000007	-0.070479	-0.023879	0.000003
 771	7.6615e+01	9.3286	30.279401	-0.000000	-0.000000	-0.000000	0.000000
 772	7.6715e+01	9.2933	30.274920	0.000011	0.110752	0.037524	-0.000005
 773	7.6814e+01	9.2628	30.275328	-0.000001	-0.010068	-0.003411	0.000000
 774	7.6913e+01	9.2163	30.271254	0.000010	0.100684	0.034113	-0.000004
 775	7.7013e+01	9.1794	30.278994	-0.000019	-0.191300	-0.064814	0.000008
 776	7.7112e+01	9.1457	30.271662	0.000018	0.181231	0.061403	-0.000007
 777	7.7212e+01	9.1088	30.272884	-0.000003	-0.030205	-0.010234	0.000001
 778	7.7311e+01	9.0671	30.277772	-0.000012	-0.120821	-0.040935	0.000005
 779	7.7411e+01	9.0110	30.274513	0.000008	0.080547	0.027290	-0.000003
 780	7.7510e+01	8.9628	30.271254	0.000008	0.080547	0.027290	-0.000003
 781	7.7610e+01	8.9532	30.269625	0.000004	0.040274	0.013645	-0.000002
 782	7.7710e+01	8.9211	30.269625	-0.000000	-0.000000	-0.000000	0.000000
 783	7.7809e+01	8.8570	30.271662	-0.000005	-0.050342	-0.017056	0.000002
 784	7.7909e+01	8.8169	30.265552	0.000015	0.151026	0.051169	-0.000006
 785	7.8008e+01	8.7527	30.264737	0.000002	0.020137	0.006823	-0.000001
 786	7.8108e+01	8.7174	30.266366	-0.000004	-0.040274	-0.013645	0.000002
 787	7.8207e+01	8.6901	30.264737	0.000004	0.040274	0.013645	-0.000002
 788	7.8306e+01	8.6709	30.265552	-0.000002	-0.020137	-0.006823	0.000001
 789	7.8406e+01	8.6292	30.262293	0.000008	0.080547	0.027290	-0.000003
 790	7.8505e+01	8.6019	30.263515	-0.000003	-0.030205	-0.010234	0.000001
 791	7.8605e+01	8.5746	30.261885	0.000004	0.040274	0.013645	-0.000002
 792	7.8704e+01	8.5040	30.263515	-0.000004	-0.040274	-0.013645	0.000002
 793	7.8804e+01	8.4736	30.267996	-0.000011	-0.110752	-0.037524	0.000005
 794	7.8903e+01	8.4431	30.260256	0.000019	0.191300	0.064814	-0.000008
 795	7.9003e+01	8.3821	30.256997	0.000008	0.080547	0.027290	-0.000003
 796	7.9103e+01	8.3372	30.259441	-0.000006	-0.060410	-0.020468	0.000002
 797	7.9202e+01	8.3051	30.263108	-0.000009	-0.090616	-0.030701	0.000004
 798	7.9302e+01	8.2778	30.261478	0.000004	0.040274	0.013645	-0.000002
 799	7.9401e+01	8.2313	30.258627	0.000007	0.070479	0.023879	-0.000003
 800	7.9501e+01	8.2121	30.259034	-0.000001	-0.010068	-0.003411	0.000000
 801	7.9600e+01	8.1527	30.261885	-0.000007	-0.070479	-0.023879	0.000003
 802	7.9700e+01	8.1142	30.260663	0.000003	0.030205	0.010234	-0.000001
 803	7.9799e+01	8.0709	30.256590	0.000010	0.100684	0.034113	-0.000004
 804	7.9898e+01	8.0340	30.259441	-0.000007	-0.070479	-0.023879	0.000003
 805	7.9998e+01	7.9746	30.261071	-0.000004	-0.040274	-0.013645	0.000002
 806	8.0097e+01	7.9474	30.258627	0.000006	0.060410	0.020468	-0.000002
 807	8.0197e+01	7.8880	30.257405	0.000003	0.030205	0.010234	-0.000001
 808	8.0296e+01	7.9025	30.255775	-0.000004	-0.040274	-0.013645	-0.000002
 809	8.0396e+01	7.8190	30.257812	-0.000005	-0.050342	-0.017056	0.000002
 810	8.0496e+01	7.7966	30.258627	-0.000002	-0.020137	-0.006823	0.000001
 811	8.0595e+01	7.7356	30.253739	0.000012	0.120821	0.040935	-0.000005
 812	8.0695e+01	7.7356	30.245592	0.000020	0.201368	0.068225	-0.000008
 813	8.0794e+01	7.6779	30.250480	-0.000012	-0.120821	-0.040935	0.000005
 814	8.0894e+01	7.6121	30.248443	0.000005	0.050342	0.017056	-0.000002
 815	8.0993e+01	7.6009	30.243962	0.000011	0.110752	0.037524	-0.000005
 816	8.1093e+01	7.5848	30.242333	0.000004	0.040274	0.013645	-0.000002
 817	8.1192e+01	7.5030	30.244370	-0.000005	-0.050342	-0.017056	0.000002
 818	8.1291e+01	7.4693	30.246406	-0.000005	-0.050342	-0.017056	0.000002
 819	8.1391e+01	7.4324	30.243962	0.000006	0.060410	0.020468	-0.000002
 820	8.1490e+01	7.3650	30.239482	0.000011	0.110752	0.037524	-0.000005
 821	8.1590e+01	7.3490	30.237445	0.000005	0.050342	0.017056	-0.000002
 822	8.1689e+01	7.3057	30.238667	-0.000003	-0.030205	-0.010234	0.000001
 823	8.1789e+01	7.2736	30.237038	0.000004	0.040274	0.013645	-0.000002
 824	8.1888e+01	7.2431	30.233372	0.000009	0.090616	0.030701	-0.000004
 825	8.1988e+01	7.2014	30.228483	0.000012	0.120821	0.040935	-0.000005
 826	8.2088e+01	7.1404	30.224817	0.000009	0.090616	0.030701	-0.000004
 827	8.2187e+01	7.1116	30.228076	-0.000008	-0.080547	-0.027290	0.000003
 828	8.2287e+01	7.0586	30.232557	-0.000011	-0.110752	-0.037524	0.000005
 829	8.2386e+01	7.0330	30.227261	0.000013	0.130889	0.044346	-0.000005
 830	8.2486e+01	6.9864	30.228483	-0.000003	-0.030205	-0.010234	0.000001
 831	8.2585e+01	6.9624	30.229298	-0.000002	-0.020137	-0.006823	0.000001
 832	8.2684e+01	6.9158	30.232149	-0.000007	-0.070479	-0.023879	0.000003
 833	8.2784e+01	6.8693	30.235001	-0.000007	-0.070479	-0.023879	0.000003
 834	8.2883e+01	6.8100	30.234594	0.000001	0.010068	0.003411	-0.000000
 835	8.2983e+01	6.8212	30.238260	0.000009	0.090616	0.030701	0.000004
 836	8.3082e+01	6.7650	30.243555	-0.000013	-0.130889	-0.044346	0.000005
 837	8.3182e+01	6.7025	30.240296	0.000008	0.080547	0.027290	-0.000003
 838	8.3281e+01	6.6897	30.240704	-0.000001	-0.010068	-0.003411	0.000000
 839	8.3381e+01	6.6367	30.244370	-0.000009	-0.090616	-0.030701	0.000004
 840	8.3481e+01	6.5902	30.245999	-0.000004	-0.040274	-0.013645	0.000002
 841	8.3580e+01	6.5324	30.245592	0.000001	0.010068	0.003411	-0.000000
 842	8.3680e+01	6.4971	30.247629	-0.000005	-0.050342	-0.017056	0.000002
 843	8.3779e+01	6.4667	30.252924	-0.000013	-0.130889	-0.044346	0.000005
 844	8.3879e+01	6.4282	30.254146	-0.000003	-0.030205	-0.010234	0.000001
 845	8.3978e+01	6.3624	30.253331	0.000002	0.020137	0.006823	-0.000001
 846	8.4078e+01	6.3528	30.251702	0.000004	0.040274	0.013645	-0.000002
 847	8.4177e+01	6.3111	30.259034	-0.000018	-0.181231	-0.061403	0.000007
 848	8.4276e+01	6.3014	30.261478	-0.000006	-0.060410	-0.020468	0.000002
 849	8.4376e+01	6.2212	30.259441	0.000005	0.050342	0.017056	-0.000002
 850	8.4475e+01	6.1875	30.259849	-0.000001	-0.010068	-0.003411	0.000000
 851	8.4575e+01	6.1169	30.260256	-0.000001	-0.010068	-0.003411	0.000000
 852	8.4674e+01	6.1201	30.258219	-0.000005	-0.050342	-0.017056	-0.000002
 853	8.4774e+01	6.0977	30.257812	0.000001	0.010068	0.003411	-0.000000
 854	8.4874e+01	6.0496	30.264330	-0.000016	-0.161095	-0.054580	0.000007
 855	8.4973e+01	5.9934	30.262700	0.000004	0.040274	0.013645	-0.000002
 856	8.5073e+01	5.9260	30.263108	-0.000001	-0.010068	-0.003411	0.000000
 857	8.5172e+01	5.9212	30.263515	-0.000001	-0.010068	-0.003411	0.000000
 858	8.5272e+01	5.8490	30.260663	0.000007	0.070479	0.023879	-0.000003
 859	8.5371e+01	5.8458	30.263922	-0.000008	-0.080547	-0.027290	0.000003
 860	8.5471e+01	5.7817	30.265959	-0.000005	-0.050342	-0.017056	0.000002
 861	8.5570e+01	5.7464	30.261071	0.000012	0.120821	0.040935	-0.000005
 862	8.5669e+01	5.7111	30.260256	0.000002	0.020137	0.006823	-0.000001
 863	8.5769e+01	5.6629	30.260256	-0.000000	-0.000000	-0.000000	0.000000
 864	8.5868e+01	5.6244	30.265959	-0.000014	-0.140958	-0.047758	0.000006
 865	8.5968e+01	5.6068	30.262700	0.000008	0.080547	0.027290	-0.000003
 866	8.6067e+01	5.5795	30.262700	-0.000000	-0.000000	-0.000000	0.000000
 867	8.6167e+01	5.4833	30.263922	-0.000003	-0.030205	-0.010234	0.000001
 868	8.6266e+01	5.4640	30.261885	0.000005	0.050342	0.017056	-0.000002
 869	8.6366e+01	5.4383	30.263515	-0.000004	-0.040274	-0.013645	0.000002
 870	8.6466e+01	5.4303	30.261071	0.000006	0.060410	0.020468	-0.000002
 871	8.6565e+01	5.3790	30.261071	-0.000000	-0.000000	-0.000000	0.000000
 872	8.6665e+01	5.3421	30.262293	-0.000003	-0.030205	-0.010234	0.000001
 873	8.6764e+01	5.2892	30.262293	-0.000000	-0.000000	-0.000000	0.000000
 874	8.6864e+01	5.2426	30.261885	0.000001	0.010068	0.003411	-0.000000
 875	8.6963e+01	5.2089	30.260663	0.000003	0.030205	0.010234	-0.000001
 876	8.7063e+01	5.1464	30.260256	0.000001	0.010068	0.003411	-0.000000
 877	8.7162e+01	5.0934	30.259034	0.000003	0.030205	0.010234	-0.000001
 878	8.7261e+01	5.0870	30.262700	-0.000009	-0.090616	-0.030701	0.000004
 879	8.7361e+01	5.0614	30.263108	-0.000001	-0.010068	-0.003411	0.000000
 880	8.7460e+01	5.0068	30.261478	0.000004	0.040274	0.013645	-0.000002
 881	8.7560e+01	4.9587	30.254961	0.000016	0.161095	0.054580	-0.000007
 882	8.7659e+01	4.9314	30.253739	0.000003	0.030205	0.010234	-0.000001
 883	8.7759e+01	4.8528	30.260256	-0.000016	-0.161095	-0.054580	0.000007
 884	8.7859e+01	4.8191	30.261478	-0.000003	-0.030205	-0.010234	0.000001
 885	8.7958e+01	4.7822	30.254146	0.000018	0.181231	0.061403	-0.000007
 886	8.8058e+01	4.7533	30.252924	0.000003	0.030205	0.010234	-0.000001
 887	8.8157e+01	4.7116	30.253739	-0.000002	-0.020137	-0.006823	0.000001
 888	8.8257e+01	4.6988	30.250887	0.000007	0.070479	0.023879	-0.000003
 889	8.8356e+01	4.6394	30.248036	0.000007	0.070479	0.023879	-0.000003
 890	8.8456e+01	4.6090	30.250480	-0.000006	-0.060410	-0.020468	0.000002
 891	8.8555e+01	4.5705	30.247629	0.000007	0.070479	0.023879	-0.000003
 892	8.8654e+01	4.5255	30.245999	0.000004	0.040274	0.013645	-0.000002
 893	8.8754e+01	4.4662	30.246814	-0.000002	-0.020137	-0.006823	0.000001
 894	8.8853e+01	4.4277	30.249258	-0.000006	-0.060410	-0.020468	0.000002
 895	8.8953e+01	4.4020	30.252924	-0.000009	-0.090616	-0.030701	0.000004
 896	8.9052e+01	4.3571	30.251702	0.000003	0.030205	0.010234	-0.000001
 897	8.9152e+01	4.3122	30.250073	0.000004	0.040274	0.013645	-0.000002
 898	8.9251e+01	4.3154	30.249258	-0.000002	-0.020137	-0.006823	-0.000001
 899	8.9351e+01	4.2657	30.251702	-0.000006	-0.060410	-0.020468	0.000002
 900	8.9451e+01	4.2095	30.250887	0.000002	0.020137	0.006823	-0.000001
 901	8.9550e+01	4.1566	30.247221	0.000009	0.090616	0.030701	-0.000004
 902	8.9650e+01	4.1245	30.248443	-0.000003	-0.030205	-0.010234	0.000001
 903	8.9749e+01	4.0860	30.247629	0.000002	0.020137	0.006823	-0.000001
 904	8.9849e+01	4.0571	30.248443	-0.000002	-0.020137	-0.006823	0.000001
 905	8.9948e+01	3.9994	30.245592	0.000007	0.070479	0.023879	-0.000003
 906	9.0047e+01	3.9657	30.250073	-0.000011	-0.110752	-0.037524	0.000005
 907	9.0147e+01	3.9127	30.250480	-0.000001	-0.010068	-0.003411	0.000000
 908	9.0246e+01	3.9079	30.243148	0.000018	0.181231	0.061403	-0.000007
 909	9.0346e+01	3.8550	30.243962	-0.000002	-0.020137	-0.006823	0.000001
 910	9.0445e+01	3.7924	30.244777	-0.000002	-0.020137	-0.006823	0.000001
 911	9.0545e+01	3.7635	30.243555	0.000003	0.030205	0.010234	-0.000001
 912	9.0644e+01	3.7395	30.233779	0.000024	0.241642	0.081870	-0.000010
 913	9.0744e+01	3.6929	30.234594	-0.000002	-0.020137	-0.006823	0.000001
 914	9.0844e+01	3.6673	30.229705	0.000012	0.120821	0.040935	-0.000005
 915	9.0943e+01	3.5983	30.223595	0.000015	0.151026	0.051169	-0.000006
 916	9.1043e+01	3.5678	30.222373	0.000003	0.030205	0.010234	-0.000001
 917	9.1142e+01	3.5133	30.219522	0.000007	0.070479	0.023879	-0.000003
 918	9.1242e+01	3.4940	30.215856	0.000009	0.090616	0.030701	-0.000004
 919	9.1341e+01	3.4459	30.211375	0.000011	0.110752	0.037524	-0.000005
 920	9.1441e+01	3.4058	30.204450	0.000017	0.171163	0.057992	-0.000007
 921	9.1540e+01	3.3705	30.198340	0.000015	0.151026	0.051169	-0.000006
 922	9.1639e+01	3.3224	30.198747	-0.000001	-0.010068	-0.003411	0.000000
 923	9.1739e+01	3.2935	30.193859	0.000012	0.120821	0.040935	-0.000005
 924	9.1838e+01	3.2293	30.190601	0.000008	0.080547	0.027290	-0.000003
 925	9.1938e+01	3.2053	30.183676	0.000017	0.171163	0.057992	-0.000007
 926	9.2037e+01	3.1668	30.179602	0.000010	0.100684	0.034113	-0.000004
 927	9.2137e+01	3.1266	30.171863	0.000019	0.191300	0.064814	-0.000008
 928	9.2237e+01	3.0721	30.167382	0.000011	0.110752	0.037524	-0.000005
 929	9.2336e+01	3.0448	30.166567	0.000002	0.020137	0.006823	-0.000001
 930	9.2436e+01	3.0352	30.153940	0.000031	0.312121	0.105749	-0.000013
 931	9.2535e+01	2.9967	30.149459	0.000011	0.110752	0.037524	-0.000005
 932	9.2635e+01	2.8988	30.146200	0.000008	0.080547	0.027290	-0.000003
 933	9.2734e+01	2.9037	30.136017	-0.000025	-0.251710	-0.085282	-0.000010
 934	9.2834e+01	2.8796	30.133165	0.000007	0.070479	0.023879	-0.000003
 935	9.2933e+01	2.8523	30.133980	-0.000002	-0.020137	-0.006823	0.000001
 936	9.3032e+01	2.7705	30.126648	0.000018	0.181231	0.061403	-0.000007
 937	9.3132e+01	2.7448	30.121352	0.000013	0.130889	0.044346	-0.000005
 938	9.3231e+01	2.7015	30.119316	0.000005	0.050342	0.017056	-0.000002
 939	9.3331e+01	2.6566	30.113613	0.000014	0.140958	0.047758	-0.000006
 940	9.3430e+01	2.6117	30.105873	0.000019	0.191300	0.064814	-0.000008
 941	9.3530e+01	2.5684	30.103429	0.000006	0.060410	0.020468	-0.000002
 942	9.3629e+01	2.5539	30.101800	0.000004	0.040274	0.013645	-0.000002
 943	9.3729e+01	2.5090	30.097319	0.000011	0.110752	0.037524	-0.000005
 944	9.3829e+01	2.4336	30.084691	0.000031	0.312121	0.105749	-0.000013
 945	9.3928e+01	2.4128	30.081840	0.000007	0.070479	0.023879	-0.000003
 946	9.4028e+01	2.3630	30.075730	0.000015	0.151026	0.051169	-0.000006
 947	9.4127e+01	2.3229	30.071249	0.000011	0.110752	0.037524	-0.000005
 948	9.4227e+01	2.2908	30.063510	0.000019	0.191300	0.064814	-0.000008
 949	9.4326e+01	2.2507	30.059436	0.000010	0.100684	0.034113	-0.000004
 950	9.4425e+01	2.2074	30.048845	0.000026	0.261779	0.088693	-0.000011
 951	9.4525e+01	2.2074	30.045179	0.000009	0.090616	0.030701	-0.000004
 952	9.4624e+01	2.1064	30.037847	0.000018	0.181231	0.061403	-0.000007
 953	9.4724e+01	2.1160	30.031330	-0.000016	-0.161095	-0.054580	-0.000007
 954	9.4823e+01	2.0534	30.025219	0.000015	0.151026	0.051169	-0.000006
 955	9.4923e+01	1.9796	30.022368	0.000007	0.070479	0.023879	-0.000003
 956	9.5022e+01	1.9572	30.014221	0.000020	0.201368	0.068225	-0.000008
 957	9.5122e+01	1.9347	30.004038	0.000025	0.251710	0.085282	-0.000010
 958	9.5222e+01	1.8946	30.000779	0.000008	0.080547	0.027290	-0.000003
 959	9.5321e+01	1.8609	29.995076	0.000014	0.140958	0.047758	-0.000006
 960	9.5421e+01	1.8144	29.984893	0.000025	0.251710	0.085282	-0.000010
 961	9.5520e+01	1.7775	29.979190	0.000014	0.140958	0.047758	-0.000006
 962	9.5620e+01	1.7133	29.970636	0.000021	0.211437	0.071637	-0.000009
 963	9.5719e+01	1.6989	29.959637	0.000027	0.271847	0.092104	-0.000011
 964	9.5819e+01	1.6700	29.957601	0.000005	0.050342	0.017056	-0.000002
 965	9.5918e+01	1.5994	29.949046	0.000021	0.211437	0.071637	-0.000009
 966	9.6017e+01	1.5545	29.935604	0.000033	0.332257	0.112572	-0.000014
 967	9.6117e+01	1.5449	29.931531	0.000010	0.100684	0.034113	-0.000004
 968	9.6216e+01	1.4743	29.927050	0.000011	0.110752	0.037524	-0.000005
 969	9.6316e+01	1.4486	29.918088	0.000022	0.221505	0.075048	-0.000009
 970	9.6415e+01	1.4117	29.907905	0.000025	0.251710	0.085282	-0.000010
 971	9.6515e+01	1.3893	29.901795	0.000015	0.151026	0.051169	-0.000006
 972	9.6615e+01	1.3588	29.894870	0.000017	0.171163	0.057992	-0.000007
 973	9.6714e+01	1.3379	29.887130	0.000019	0.191300	0.064814	-0.000008
 974	9.6814e+01	1.2513	29.874503	0.000031	0.312121	0.105749	-0.000013
 975	9.6913e+01	1.2224	29.862282	0.000030	0.302052	0.102338	-0.000012
 976	9.7013e+01	1.1679	29.854543	0.000019	0.191300	0.064814	-0.000008
 977	9.7112e+01	1.1406	29.843545	0.000027	0.271847	0.092104	-0.000011
 978	9.7212e+01	1.0877	29.827658	0.000039	0.392668	0.133039	-0.000016
 979	9.7311e+01	1.0395	29.819104	0.000021	0.211437	0.071637	-0.000009
 980	9.7410e+01	1.0139	29.804440	0.000036	0.362463	0.122806	-0.000015
 981	9.7510e+01	0.9818	29.795071	0.000023	0.231573	0.078459	-0.000009
 982	9.7609e+01	0.9369	29.783665	0.000028	0.281915	0.095516	-0.000011
 983	9.7709e+01	0.8871	29.767779	0.000039	0.392668	0.133039	-0.000016
 984	9.7808e+01	0.8695	29.761261	0.000016	0.161095	0.054580	-0.000007
 985	9.7908e+01	0.8166	29.749856	0.000028	0.281915	0.095516	-0.000011
 986	9.8007e+01	0.7684	29.733562	0.000040	0.402736	0.136451	-0.000016
 987	9.8107e+01	0.7299	29.722157	0.000028	0.281915	0.095516	-0.000011
 988	9.8207e+01	0.6834	29.714010	0.000020	0.201368	0.068225	-0.000008
 989	9.8306e+01	0.6545	29.699345	0.000036	0.362463	0.122806	-0.000015
 990	9.8406e+01	0.6128	29.686310	0.000032	0.322189	0.109161	-0.000013
 991	9.8505e+01	0.5615	29.672053	0.000035	0.352394	0.119394	-0.000014
 992	9.8605e+01	0.5294	29.658611	0.000033	0.332257	0.112572	-0.000014
 993	9.8704e+01	0.5085	29.643539	0.000037	0.372531	0.126217	-0.000015
 994	9.8803e+01	0.4716	29.628875	0.000036	0.362463	0.122806	-0.000015
 995	9.8903e+01	0.4027	29.613803	0.000037	0.372531	0.126217	-0.000015
 996	9.9002e+01	0.3834	29.606879	0.000017	0.171163	0.057992	-0.000007
 997	9.9102e+01	0.3754	29.590178	0.000041	0.412805	0.139862	-0.000017
 998	9.9201e+01	0.3016	29.576735	0.000033	0.332257	0.112572	-0.000014
 999	9.9301e+01	0.2727	29.562071	0.000036	0.362463	0.122806	-0.000015
1000	9.9400e+01	0.1925	29.555554	0.000016	0.161095	0.054580	-0.000007
1001	9.9500e+01	0.2053	29.541704	-0.000034	-0.342326	-0.115983	-0.000014
1002	9.9600e+01	0.1123	29.533150	0.000021	0.211437	0.071637	-0.000009
1003	9.9699e+01	0.0914	29.518485	0.000036	0.362463	0.122806	-0.000015
1004	9.9799e+01	0.0626	29.504636	0.000034	0.342326	0.115983	-0.000014
1005	9.9898e+01	0.0321	29.494045	0.000026	0.261779	0.088693	-0.000011
1006	9.9998e+01	-0.0160	29.474900	0.000047	0.473215	0.160330	-0.000019
1007	1.0010e+02	-0.0594	29.460643	0.000035	0.352394	0.119394	-0.000014
1008	1.0020e+02	-0.1059	29.449644	0.000027	0.271847	0.092104	-0.000011
1009	1.0030e+02	-0.1444	29.437832	0.000029	0.291984	0.098927	-0.000012
1010	1.0040e+02	-0.1717	29.421538	0.000040	0.402736	0.136451	-0.000016
1011	1.0050e+02	-0.2422	29.407688	0.000034	0.342326	0.115983	-0.000014
1012	1.0059e+02	-0.2503	29.390987	0.000041	0.412805	0.139862	-0.000017
1013	1.0069e+02	-0.3064	29.379989	0.000027	0.271847	0.092104	-0.000011
1014	1.0079e+02	-0.3545	29.360029	0.000049	0.493352	0.167152	-0.000020
1015	1.0089e+02	-0.3930	29.350253	0.000024	0.241642	0.081870	-0.000010
1016	1.0099e+02	-0.4139	29.333959	0.000040	0.402736	0.136451	-0.000016
1017	1.0109e+02	-0.4524	29.316851	0.000042	0.422873	0.143273	-0.000017
1018	1.0119e+02	-0.5230	29.296891	0.000049	0.493352	0.167152	-0.000020
1019	1.0129e+02	-0.5567	29.281412	0.000038	0.382599	0.129628	-0.000016
1020	1.0139e+02	-0.5679	29.265933	0.000038	0.382599	0.129628	-0.000016
1021	1.0149e+02	-0.6240	29.242307	0.000058	0.583968	0.197854	-0.000024
1022	1.0159e+02	-0.6369	29.224791	0.000043	0.432941	0.146685	-0.000018
1023	1.0169e+02	-0.6818	29.211756	0.000032	0.322189	0.109161	-0.000013
1024	1.0179e+02	-0.7107	29.191797	0.000049	0.493352	0.167152	-0.000020
1025	1.0189e+02	-0.7620	29.171429	0.000050	0.503420	0.170563	-0.000020
1026	1.0199e+02	-0.8358	29.146174	0.000062	0.624241	0.211499	-0.000025
1027	1.0209e+02	-0.8551	29.134361	0.000029	0.291984	0.098927	-0.000012
1028	1.0219e+02	-0.9112	29.114809	0.000048	0.483284	0.163741	-0.000020
1029	1.0229e+02	-0.9144	29.090776	0.000059	0.594036	0.201265	-0.000024
1030	1.0239e+02	-0.9914	29.067964	0.000056	0.563831	0.191031	-0.000023
1031	1.0248e+02	-1.0059	29.049634	0.000045	0.453078	0.153507	-0.000018
1032	1.0258e+02	-1.0411	29.028860	0.000051	0.513489	0.173975	-0.000021
1033	1.0268e+02	-1.0989	29.004826	0.000059	0.594036	0.201265	-0.000024
1034	1.0278e+02	-1.1358	28.982423	0.000055	0.553762	0.187620	-0.000023
1035	1.0288e+02	-1.1663	28.970610	0.000029	0.291984	0.098927	-0.000012
1036	1.0298e+02	-1.2304	28.947798	0.000056	0.563831	0.191031	-0.000023
1037	1.0308e+02	-1.2513	28.922136	0.000063	0.634310	0.214910	-0.000026
1038	1.0318e+02	-1.2866	28.896881	0.000062	0.624241	0.211499	-0.000025
1039	1.0328e+02	-1.3299	28.872440	0.000060	0.604104	0.204676	-0.000025
1040	1.0338e+02	-1.3893	28.856146	0.000040	0.402736	0.136451	-0.000016
1041	1.0348e+02	-1.4005	28.827225	0.000071	0.714857	0.242200	-0.000029
1042	1.0358e+02	-1.4278	28.805636	0.000053	0.533626	0.180797	-0.000022
1043	1.0368e+02	-1.5048	28.779973	0.000063	0.634310	0.214910	-0.000026
1044	1.0378e+02	-1.5064	28.758384	0.000053	0.533626	0.180797	-0.000022
1045	1.0388e+02	-1.5738	28.733129	0.000062	0.624241	0.211499	-0.000025
1046	1.0398e+02	-1.5994	28.713576	0.000048	0.483284	0.163741	-0.000020
1047	1.0408e+02	-1.6604	28.687914	0.000063	0.634310	0.214910	-0.000026
1048	1.0418e+02	-1.6700	28.661437	0.000065	0.654446	0.221732	-0.000027
1049	1.0428e+02	-1.7422	28.632515	0.000071	0.714857	0.242200	-0.000029
1050	1.0438e+02	-1.7406	28.607260	-0.000062	-0.624241	-0.211499	-0.000025
1051	1.0447e+02	-1.8224	28.580783	0.000065	0.654446	0.221732	-0.000027
1052	1.0457e+02	-1.8449	28.549417	0.000078	0.775267	0.262668	-0.000032
1053	1.0467e+02	-1.8593	28.523347	0.000064	0.644378	0.218321	-0.000026
1054	1.0477e+02	-1.9315	28.498092	0.000062	0.624241	0.211499	-0.000025
1055	1.0487e+02	-1.9764	28.469171	0.000071	0.714857	0.242200	-0.000029
1056	1.0497e+02	-2.0197	28.440250	0.000071	0.714857	0.242200	-0.000029
1057	1.0507e+02	-2.0775	28.413772	0.000065	0.654446	0.221732	-0.000027
1058	1.0517e+02	-2.0775	28.387702	0.000064	0.644378	0.218321	-0.000026
1059	1.0527e+02	-2.1368	28.353486	0.000085	0.845746	0.286547	-0.000034
1060	1.0537e+02	-2.1513	28.330267	0.000057	0.573899	0.194442	-0.000023
1061	1.0547e+02	-2.2010	28.300938	0.000072	0.724925	0.245611	-0.000029
1062	1.0557e+02	-2.2572	28.270795	0.000075	0.745062	0.252434	-0.000030
1063	1.0567e+02	-2.2908	28.243096	0.000068	0.684652	0.231966	-0.000028
1064	1.0577e+02	-2.3261	28.218655	0.000060	0.604104	0.204676	-0.000025
1065	1.0587e+02	-2.3422	28.187697	0.000077	0.765199	0.259256	-0.000031
1066	1.0597e+02	-2.3983	28.154295	0.000083	0.825609	0.279724	-0.000034
1067	1.0607e+02	-2.4384	28.123744	0.000076	0.755131	0.255845	-0.000031
1068	1.0617e+02	-2.4866	28.095230	0.000070	0.704788	0.238789	-0.000029
1069	1.0627e+02	-2.5315	28.061014	0.000085	0.845746	0.286547	-0.000034
1070	1.0637e+02	-2.5716	28.030870	0.000075	0.745062	0.252434	-0.000030
1071	1.0647e+02	-2.6165	27.999098	0.000079	0.785336	0.266079	-0.000032
1072	1.0656e+02	-2.6486	27.967732	0.000078	0.775267	0.262668	-0.000032
1073	1.0666e+02	-2.6807	27.937589	0.000075	0.745062	0.252434	-0.000030
1074	1.0676e+02	-2.7095	27.906224	0.000078	0.775267	0.262668	-0.000032
1075	1.0686e+02	-2.7914	27.874043	0.000080	0.795404	0.269490	-0.000032
1076	1.0696e+02	-2.7898	27.843085	-0.000077	-0.765199	-0.259256	-0.000031
1077	1.0706e+02	-2.8363	27.807239	0.000089	0.886020	0.300192	-0.000036
1078	1.0716e+02	-2.8844	27.770171	0.000092	0.916225	0.310425	-0.000037
1079	1.0726e+02	-2.9117	27.734732	0.000088	0.875951	0.296780	-0.000036
1080	1.0736e+02	-2.9775	27.698479	0.000090	0.896088	0.303603	-0.000036
1081	1.0746e+02	-3.0015	27.660189	0.000095	0.946430	0.320659	-0.000038
1082	1.0756e+02	-3.0320	27.622306	0.000094	0.936362	0.317248	-0.000038
1083	1.0766e+02	-3.0865	27.586867	0.000088	0.875951	0.296780	-0.000036
1084	1.0776e+02	-3.1170	27.544911	0.000104	1.037046	0.351361	-0.000042
1085	1.0786e+02	-3.1652	27.505398	0.000098	0.976635	0.330893	-0.000040
1086	1.0796e+02	-3.1796	27.463035	0.000105	1.047114	0.354772	-0.000043
1087	1.0806e+02	-3.2261	27.424337	0.000096	0.956499	0.324071	-0.000039
1088	1.0816e+02	-3.2983	27.384010	0.000100	0.996772	0.337716	-0.000041
1089	1.0826e+02	-3.3288	27.343276	0.000101	1.006841	0.341127	-0.000041
1090	1.0836e+02	-3.3593	27.309059	0.000085	0.845746	0.286547	-0.000034
1091	1.0845e+02	-3.3785	27.264659	0.000110	1.097456	0.371828	-0.000045
1092	1.0855e+02	-3.4154	27.223925	0.000101	1.006841	0.341127	-0.000041
1093	1.0865e+02	-3.4940	27.177488	0.000115	1.147798	0.388885	-0.000047
1094	1.0875e+02	-3.5133	27.133087	0.000110	1.097456	0.371828	-0.000045
1095	1.0885e+02	-3.5614	27.093168	0.000099	0.986704	0.334304	-0.000040
1096	1.0895e+02	-3.6063	27.049582	0.000108	1.077320	0.365006	-0.000044
1097	1.0905e+02	-3.6544	27.003960	0.000113	1.127662	0.382062	-0.000046
1098	1.0915e+02	-3.6512	26.960374	-0.000108	-1.077320	-0.365006	-0.000044
1099	1.0925e+02	-3.6929	26.914752	0.000113	1.127662	0.382062	-0.000046
1100	1.0935e+02	-3.7314	26.869129	0.000113	1.127662	0.382062	-0.000046
1101	1.0945e+02	-3.8149	26.825951	0.000107	1.067251	0.361594	-0.000043
1102	1.0955e+02	-3.8117	26.782773	-0.000107	-1.067251	-0.361594	-0.000043
1103	1.0965e+02	-3.8855	26.741224	0.000103	1.026977	0.347949	-0.000042
1104	1.0975e+02	-3.8951	26.687862	0.000132	1.318961	0.446876	-0.000054
1105	1.0985e+02	-3.9592	26.643462	0.000110	1.097456	0.371828	-0.000045
1106	1.0995e+02	-4.0026	26.598247	0.000112	1.117593	0.378651	-0.000045
1107	1.1005e+02	-4.0523	26.551810	0.000115	1.147798	0.388885	-0.000047
1108	1.1015e+02	-4.0667	26.506595	0.000112	1.117593	0.378651	-0.000045
1109	1.1025e+02	-4.1357	26.459750	0.000116	1.157867	0.392296	-0.000047
1110	1.1035e+02	-4.1614	26.411276	0.000120	1.198140	0.405941	-0.000049
1111	1.1044e+02	-4.1887	26.360359	0.000126	1.258551	0.426409	-0.000051
1112	1.1054e+02	-4.2255	26.315144	0.000112	1.117593	0.378651	-0.000045
1113	1.1064e+02	-4.2785	26.264226	0.000126	1.258551	0.426409	-0.000051
1114	1.1074e+02	-4.3234	26.214530	0.000123	1.228346	0.416175	-0.000050
1115	1.1084e+02	-4.3731	26.162797	0.000128	1.278688	0.433231	-0.000052
1116	1.1094e+02	-4.3780	26.114324	0.000120	1.198140	0.405941	-0.000049
1117	1.1104e+02	-4.4116	26.060554	0.000133	1.329030	0.450287	-0.000054
1118	1.1114e+02	-4.4790	26.010859	0.000123	1.228346	0.416175	-0.000050
1119	1.1124e+02	-4.5223	25.957089	0.000133	1.329030	0.450287	-0.000054
1120	1.1134e+02	-4.5849	25.910652	0.000115	1.147798	0.388885	-0.000047
1121	1.1144e+02	-4.6074	25.857290	0.000132	1.318961	0.446876	-0.000054
1122	1.1154e+02	-4.6410	25.801892	0.000137	1.369303	0.463933	-0.000056
1123	1.1164e+02	-4.6924	25.746086	0.000138	1.379372	0.467344	-0.000056
1124	1.1174e+02	-4.7164	25.696390	0.000123	1.228346	0.416175	-0.000050
1125	1.1184e+02	-4.7453	25.648324	0.000119	1.188072	0.402530	-0.000048
1126	1.1194e+02	-4.7951	25.591296	0.000141	1.409577	0.477578	-0.000057
1127	1.1204e+02	-4.8336	25.530194	0.000151	1.510261	0.511690	-0.000061
1128	1.1214e+02	-4.8865	25.479684	0.000125	1.248482	0.422997	-0.000051
1129	1.1224e+02	-4.8849	25.426322	-0.000132	-1.318961	-0.446876	-0.000054
1130	1.1234e+02	-4.9635	25.366035	0.000149	1.490124	0.504868	-0.000061
1131	1.1244e+02	-4.9940	25.307378	0.000145	1.449851	0.491223	-0.000059
1132	1.1253e+02	-5.0277	25.247906	0.000147	1.469987	0.498045	-0.000060
1133	1.1263e+02	-5.0822	25.193322	0.000135	1.349167	0.457110	-0.000055
1134	1.1273e+02	-5.1319	25.137109	0.000139	1.389440	0.470755	-0.000056
1135	1.1283e+02	-5.1688	25.083340	0.000133	1.329030	0.450287	-0.000054
1136	1.1293e+02	-5.2186	25.023053	0.000149	1.490124	0.504868	-0.000061
1137	1.1303e+02	-5.2378	24.963174	0.000148	1.480056	0.501456	-0.000060
1138	1.1313e+02	-5.2603	24.910219	0.000131	1.308893	0.443465	-0.000053
1139	1.1323e+02	-5.3148	24.849932	0.000149	1.490124	0.504868	-0.000061
1140	1.1333e+02	-5.3501	24.788424	0.000152	1.520329	0.515102	-0.000062
1141	1.1343e+02	-5.3646	24.730174	0.000144	1.439782	0.487811	-0.000059
1142	1.1353e+02	-5.4175	24.671516	0.000145	1.449851	0.491223	-0.000059
1143	1.1363e+02	-5.4913	24.608786	0.000155	1.550535	0.525335	-0.000063
1144	1.1373e+02	-5.5009	24.541981	0.000165	1.651219	0.559448	-0.000067
1145	1.1383e+02	-5.5555	24.482102	0.000148	1.480056	0.501456	-0.000060
1146	1.1393e+02	-5.5956	24.419779	0.000154	1.540466	0.521924	-0.000063
1147	1.1403e+02	-5.6180	24.360307	0.000147	1.469987	0.498045	-0.000060
1148	1.1413e+02	-5.6838	24.289429	0.000175	1.751903	0.593561	-0.000071
1149	1.1423e+02	-5.7095	24.224254	0.000161	1.610945	0.545803	-0.000066
1150	1.1433e+02	-5.7367	24.163153	0.000151	1.510261	0.511690	-0.000061
1151	1.1442e+02	-5.7897	24.096349	0.000165	1.651219	0.559448	-0.000067
1152	1.1452e+02	-5.8346	24.029544	0.000165	1.651219	0.559448	-0.000067
1153	1.1462e+02	-5.8763	23.969258	0.000149	1.490124	0.504868	-0.000061
1154	1.1472e+02	-5.9228	23.897565	0.000177	1.772040	0.600383	-0.000072
1155	1.1482e+02	-5.9373	23.831576	0.000163	1.631082	0.552626	-0.000066
1156	1.1492e+02	-6.0046	23.765586	0.000163	1.631082	0.552626	-0.000066
1157	1.1502e+02	-6.0415	23.698782	0.000165	1.651219	0.559448	-0.000067
1158	1.1512e+02	-6.0544	23.628312	0.000174	1.741834	0.590149	-0.000071
1159	1.1522e+02	-6.1185	23.562323	0.000163	1.631082	0.552626	-0.000066
1160	1.1532e+02	-6.1603	23.492667	0.000172	1.721698	0.583327	-0.000070
1161	1.1542e+02	-6.1747	23.425455	0.000166	1.661287	0.562859	-0.000068
1162	1.1552e+02	-6.2581	23.357429	0.000168	1.681424	0.569682	-0.000068
1163	1.1562e+02	-6.2742	23.284515	0.000180	1.802245	0.610617	-0.000073
1164	1.1572e+02	-6.2758	23.216896	0.000167	1.671356	0.566271	-0.000068
1165	1.1582e+02	-6.3544	23.154165	0.000155	1.550535	0.525335	-0.000063
1166	1.1592e+02	-6.3977	23.080029	0.000183	1.832450	0.620851	-0.000075
1167	1.1602e+02	-6.4586	23.015669	0.000159	1.590808	0.538980	-0.000065
1168	1.1612e+02	-6.4538	22.946013	-0.000172	-1.721698	-0.583327	-0.000070
1169	1.1622e+02	-6.5260	22.880431	0.000162	1.621013	0.549214	-0.000066
1170	1.1632e+02	-6.5581	22.809146	0.000176	1.761971	0.596972	-0.000072
1171	1.1642e+02	-6.5902	22.740305	0.000170	1.701561	0.576504	-0.000069
1172	1.1651e+02	-6.6126	22.671057	0.000171	1.711629	0.579916	-0.000070
1173	1.1661e+02	-6.6880	22.598957	0.000178	1.782108	0.603795	-0.000072
1174	1.1671e+02	-6.6897	22.528487	0.000174	1.741834	0.590149	-0.000071
1175	1.1681e+02	-6.7522	22.457610	0.000175	1.751903	0.593561	-0.000071
1176	1.1691e+02	-6.7779	22.386325	0.000176	1.761971	0.596972	-0.000072
1177	1.1701e+02	-6.8116	22.319113	0.000166	1.661287	0.562859	-0.000068
1178	1.1711e+02	-6.8741	22.246199	0.000180	1.802245	0.610617	-0.000073
1179	1.1721e+02	-6.9191	22.172470	0.000182	1.822382	0.617440	-0.000074
1180	1.1731e+02	-6.9576	22.099963	0.000179	1.792176	0.607206	-0.000073
1181	1.1741e+02	-7.0041	22.029900	0.000173	1.731766	0.586738	-0.000070
1182	1.1751e+02	-7.0458	21.958615	0.000176	1.761971	0.596972	-0.000072
1183	1.1761e+02	-7.0747	21.879998	0.000194	1.943203	0.658375	-0.000079
1184	1.1771e+02	-7.1164	21.808713	0.000176	1.761971	0.596972	-0.000072
1185	1.1781e+02	-7.1469	21.733762	0.000185	1.852587	0.627673	-0.000075
1186	1.1791e+02	-7.1870	21.657589	0.000188	1.882792	0.637907	-0.000077
1187	1.1801e+02	-7.2239	21.582638	0.000185	1.852587	0.627673	-0.000075
1188	1.1811e+02	-7.2624	21.506057	0.000189	1.892860	0.641318	-0.000077
1189	1.1821e+02	-7.3281	21.427033	0.000195	1.953271	0.661786	-0.000079
1190	1.1831e+02	-7.3297	21.350045	0.000190	1.902929	0.644730	-0.000077
1191	1.1841e+02	-7.3907	21.272243	0.000192	1.923066	0.651552	-0.000078
1192	1.1850e+02	-7.4372	21.197292	0.000185	1.852587	0.627673	-0.000075
1193	1.1860e+02	-7.4902	21.117453	0.000197	1.973408	0.668609	-0.000080
1194	1.1870e+02	-7.5014	21.039650	0.000192	1.923066	0.651552	-0.000078
1195	1.1880e+02	-7.5511	20.958996	0.000199	1.993545	0.675431	-0.000081
1196	1.1890e+02	-7.5543	20.877528	0.000201	2.013681	0.682254	-0.000082
1197	1.1900e+02	-7.6057	20.801355	0.000188	1.882792	0.637907	-0.000077
1198	1.1910e+02	-7.6730	20.723960	0.000191	1.912997	0.648141	-0.000078
1199	1.1920e+02	-7.7148	20.640454	0.000206	2.064023	0.699310	-0.000084
1200	1.1930e+02	-7.7276	20.560615	0.000197	1.973408	0.668609	-0.000080
1201	1.1940e+02	-7.7773	20.481591	0.000195	1.953271	0.661786	-0.000079
1202	1.1950e+02	-7.8383	20.397678	0.000207	2.074092	0.702721	-0.000084
1203	1.1960e+02	-7.8688	20.316210	0.000201	2.013681	0.682254	-0.000082
1204	1.1970e+02	-7.9169	20.233927	0.000203	2.033818	0.689076	-0.000083
1205	1.1980e+02	-7.9843	20.155309	0.000194	1.943203	0.658375	-0.000079
1206	1.1990e+02	-7.9634	20.068545	-0.000214	-2.144571	-0.726600	-0.000087
1207	1.2000e+02	-8.0147	19.984226	0.000208	2.084160	0.706133	-0.000085
1208	1.2010e+02	-8.0677	19.903979	0.000198	1.983476	0.672020	-0.000081
1209	1.2020e+02	-8.0853	19.814771	0.000220	2.204981	0.747068	-0.000090
1210	1.2030e+02	-8.1511	19.736561	0.000193	1.933134	0.654964	-0.000079
1211	1.2039e+02	-8.2008	19.650205	0.000213	2.134502	0.723189	-0.000087
1212	1.2049e+02	-8.2073	19.559367	0.000225	2.245255	0.760713	-0.000091
1213	1.2059e+02	-8.2634	19.477084	0.000203	2.033818	0.689076	-0.000083
1214	1.2069e+02	-8.3179	19.390727	0.000213	2.134502	0.723189	-0.000087
1215	1.2079e+02	-8.3581	19.301112	0.000222	2.215049	0.750479	-0.000090
1216	1.2089e+02	-8.3853	19.218829	0.000203	2.033818	0.689076	-0.000083
1217	1.2099e+02	-8.4238	19.133287	0.000211	2.114365	0.716366	-0.000086
1218	1.2109e+02	-8.4463	19.042450	0.000225	2.245255	0.760713	-0.000091
1219	1.2119e+02	-8.4960	18.957315	0.000210	2.104297	0.712955	-0.000086
1220	1.2129e+02	-8.5682	18.870144	0.000215	2.154639	0.730011	-0.000088
1221	1.2139e+02	-8.6019	18.778084	0.000228	2.275460	0.770947	-0.000093
1222	1.2149e+02	-8.6260	18.683988	0.000233	2.325802	0.788003	-0.000095
1223	1.2159e+02	-8.6356	18.598039	0.000212	2.124434	0.719778	-0.000086
1224	1.2169e+02	-8.6933	18.507609	0.000224	2.235186	0.757302	-0.000091
1225	1.2179e+02	-8.7703	18.416771	0.000225	2.245255	0.760713	-0.000091
1226	1.2189e+02	-8.7816	18.323897	0.000230	2.295597	0.777769	-0.000093
1227	1.2199e+02	-8.8345	18.236726	0.000215	2.154639	0.730011	-0.000088
1228	1.2209e+02	-8.8842	18.148333	0.000218	2.184844	0.740245	-0.000089
1229	1.2219e+02	-8.8891	18.055051	0.000231	2.305665	0.781181	-0.000094
1230	1.2229e+02	-8.9677	17.967880	0.000215	2.154639	0.730011	-0.000088
1231	1.2239e+02	-8.9933	17.872562	0.000236	2.356007	0.798237	-0.000096
1232	1.2248e+02	-9.0142	17.782539	0.000223	2.225118	0.753890	-0.000090
1233	1.2258e+02	-9.0800	17.690887	0.000227	2.265392	0.767535	-0.000092
1234	1.2268e+02	-9.1217	17.598013	0.000230	2.295597	0.777769	-0.000093
1235	1.2278e+02	-9.1297	17.500658	0.000241	2.406349	0.815293	-0.000098
1236	1.2288e+02	-9.1794	17.406155	0.000234	2.335870	0.791414	-0.000095
1237	1.2298e+02	-9.2195	17.310022	0.000238	2.376144	0.805059	-0.000097
1238	1.2308e+02	-9.2500	17.215926	0.000233	2.325802	0.788003	-0.000095
1239	1.2318e+02	-9.3158	17.123051	0.000230	2.295597	0.777769	-0.000093
1240	1.2328e+02	-9.3559	17.024067	0.000245	2.446623	0.828938	-0.000099
1241	1.2338e+02	-9.3960	16.931193	0.000230	2.295597	0.777769	-0.000093
1242	1.2348e+02	-9.4377	16.836282	0.000235	2.345939	0.794826	-0.000095
1243	1.2358e+02	-9.4922	16.734854	0.000251	2.507033	0.849406	-0.000102
1244	1.2368e+02	-9.5051	16.642387	0.000229	2.285528	0.774358	-0.000093
1245	1.2378e+02	-9.5372	16.545440	0.000240	2.396281	0.811882	-0.000097
1246	1.2388e+02	-9.5869	16.442789	0.000254	2.537239	0.859640	-0.000103
1247	1.2398e+02	-9.6029	16.344620	0.000243	2.426486	0.822116	-0.000099
1248	1.2408e+02	-9.6607	16.243192	0.000251	2.507033	0.849406	-0.000102
1249	1.2418e+02	-9.6719	16.144615	0.000244	2.436554	0.825527	-0.000099
1250	1.2428e+02	-9.7104	16.037076	0.000266	2.658059	0.900575	-0.000108
1251	1.2438e+02	-9.7345	15.933204	0.000257	2.567444	0.869873	-0.000104
1252	1.2447e+02	-9.8147	15.828110	0.000260	2.597649	0.880107	-0.000106
1253	1.2457e+02	-9.8323	15.730347	0.000242	2.416418	0.818704	-0.000098
1254	1.2467e+02	-9.8789	15.621180	0.000270	2.698333	0.914220	-0.000110
1255	1.2477e+02	-9.9575	15.519751	0.000251	2.507033	0.849406	-0.000102
1256	1.2487e+02	-9.9783	15.413842	0.000262	2.617786	0.886930	-0.000106
1257	1.2497e+02	-10.0216	15.305896	0.000267	2.668128	0.903986	-0.000108
1258	1.2507e+02	-10.0730	15.206097	0.000247	2.466760	0.835761	-0.000100
1259	1.2517e+02	-10.0842	15.099374	0.000264	2.637923	0.893752	-0.000107
1260	1.2527e+02	-10.1436	14.993465	0.000262	2.617786	0.886930	-0.000106
1261	1.2537e+02	-10.1676	14.882667	0.000274	2.738607	0.927865	-0.000111
1262	1.2547e+02	-10.2109	14.780832	0.000252	2.517102	0.852817	-0.000102
1263	1.2557e+02	-10.2719	14.672479	0.000268	2.678196	0.907397	-0.000109
1264	1.2567e+02	-10.2831	14.558830	0.000281	2.809085	0.951744	-0.000114
1265	1.2577e+02	-10.3216	14.453328	0.000261	2.607717	0.883519	-0.000106
1266	1.2587e+02	-10.3778	14.346605	0.000264	2.637923	0.893752	-0.000107
1267	1.2597e+02	-10.4243	14.234178	0.000278	2.778880	0.941510	-0.000113
1268	1.2607e+02	-10.4756	14.126232	0.000267	2.668128	0.903986	-0.000108
1269	1.2617e+02	-10.4933	14.019509	0.000264	2.637923	0.893752	-0.000107
1270	1.2627e+02	-10.5430	13.908711	0.000274	2.738607	0.927865	-0.000111
1271	1.2636e+02	-10.5254	13.801173	-0.000266	-2.658059	-0.900575	-0.000108
1272	1.2646e+02	-10.5911	13.692005	0.000270	2.698333	0.914220	-0.000110
1273	1.2656e+02	-10.6473	13.584467	0.000266	2.658059	0.900575	-0.000108
1274	1.2666e+02	-10.6698	13.474484	0.000272	2.718470	0.921043	-0.000111
1275	1.2676e+02	-10.7403	13.362058	0.000278	2.778880	0.941510	-0.000113
1276	1.2686e+02	-10.7853	13.252890	0.000270	2.698333	0.914220	-0.000110
1277	1.2696e+02	-10.8254	13.140871	0.000277	2.768812	0.938099	-0.000113
1278	1.2706e+02	-10.8382	13.030074	0.000274	2.738607	0.927865	-0.000111
1279	1.2716e+02	-10.8863	12.922535	0.000266	2.658059	0.900575	-0.000108
1280	1.2726e+02	-10.9328	12.806850	0.000286	2.859428	0.968800	-0.000116
1281	1.2736e+02	-10.9665	12.694423	0.000278	2.778880	0.941510	-0.000113
1282	1.2746e+02	-10.9794	12.579960	0.000283	2.829222	0.958566	-0.000115
1283	1.2756e+02	-11.0644	12.469570	0.000273	2.728538	0.924454	-0.000111
1284	1.2766e+02	-11.0901	12.355514	0.000282	2.819154	0.955155	-0.000115
1285	1.2776e+02	-11.0949	12.242680	0.000279	2.788949	0.944921	-0.000113
1286	1.2786e+02	-11.1366	12.127810	0.000284	2.839291	0.961978	-0.000115
1287	1.2796e+02	-11.1911	12.013754	0.000282	2.819154	0.955155	-0.000115
1288	1.2806e+02	-11.2489	11.896439	0.000290	2.899701	0.982445	-0.000118
1289	1.2816e+02	-11.3227	11.784013	0.000278	2.778880	0.941510	-0.000113
1290	1.2826e+02	-11.3371	11.670364	0.000281	2.809085	0.951744	-0.000114
1291	1.2835e+02	-11.3788	11.553864	0.000288	2.879564	0.975623	-0.000117
1292	1.2845e+02	-11.3997	11.437772	0.000287	2.869496	0.972212	-0.000117
1293	1.2855e+02	-11.4366	11.324938	0.000279	2.788949	0.944921	-0.000113
1294	1.2865e+02	-11.4703	11.208030	0.000289	2.889633	0.979034	-0.000117
1295	1.2875e+02	-11.5168	11.093567	0.000283	2.829222	0.958566	-0.000115
1296	1.2885e+02	-11.5264	10.973808	0.000296	2.960112	1.002913	-0.000120
1297	1.2895e+02	-11.6018	10.858530	0.000285	2.849359	0.965389	-0.000116
1298	1.2905e+02	-11.6772	10.737957	0.000298	2.980248	1.009735	-0.000121
1299	1.2915e+02	-11.6900	10.623494	0.000283	2.829222	0.958566	-0.000115
1300	1.2925e+02	-11.7125	10.502513	0.000299	2.990317	1.013147	-0.000122
1301	1.2935e+02	-11.8007	10.385606	0.000289	2.889633	0.979034	-0.000117
1302	1.2945e+02	-11.7879	10.265847	-0.000296	-2.960112	-1.002913	-0.000120
1303	1.2955e+02	-11.8505	10.152606	0.000280	2.799017	0.948333	-0.000114
1304	1.2965e+02	-11.8809	10.036513	0.000287	2.869496	0.972212	-0.000117
1305	1.2975e+02	-11.9323	9.913903	0.000303	3.030590	1.026792	-0.000123
1306	1.2985e+02	-11.9804	9.796181	0.000291	2.909770	0.985857	-0.000118
1307	1.2995e+02	-11.9820	9.675200	0.000299	2.990317	1.013147	-0.000122
1308	1.3005e+02	-12.0478	9.557886	0.000290	2.899701	0.982445	-0.000118
1309	1.3015e+02	-12.0847	9.441386	0.000288	2.879564	0.975623	-0.000117
1310	1.3025e+02	-12.1665	9.315109	0.000312	3.121206	1.057493	-0.000127
1311	1.3034e+02	-12.1617	9.194536	-0.000298	-2.980248	-1.009735	-0.000121
1312	1.3044e+02	-12.2194	9.067853	0.000313	3.131275	1.060905	-0.000127
1313	1.3054e+02	-12.2515	8.946057	0.000301	3.010454	1.019969	-0.000122
1314	1.3064e+02	-12.2820	8.827928	0.000292	2.919838	0.989268	-0.000119
1315	1.3074e+02	-12.3285	8.700430	0.000315	3.151411	1.067727	-0.000128
1316	1.3084e+02	-12.3702	8.577412	0.000304	3.040659	1.030203	-0.000124
1317	1.3094e+02	-12.4039	8.451951	0.000310	3.101069	1.050671	-0.000126
1318	1.3104e+02	-12.4440	8.330970	0.000299	2.990317	1.013147	-0.000122
1319	1.3114e+02	-12.4809	8.203472	0.000315	3.151411	1.067727	-0.000128
1320	1.3124e+02	-12.5098	8.076381	0.000314	3.141343	1.064316	-0.000128
1321	1.3134e+02	-12.5756	7.955400	0.000299	2.990317	1.013147	-0.000122
1322	1.3144e+02	-12.5964	7.829124	0.000312	3.121206	1.057493	-0.000127
1323	1.3154e+02	-12.6381	7.704477	0.000308	3.080932	1.043848	-0.000125
1324	1.3164e+02	-12.6943	7.572905	0.000325	3.252095	1.101840	-0.000132
1325	1.3174e+02	-12.7280	7.449481	0.000305	3.050727	1.033614	-0.000124
1326	1.3184e+02	-12.7344	7.326056	0.000305	3.050727	1.033614	-0.000124
1327	1.3194e+02	-12.8226	7.192855	0.000329	3.292369	1.115485	-0.000134
1328	1.3204e+02	-12.8355	7.065357	0.000315	3.151411	1.067727	-0.000128
1329	1.3214e+02	-12.8643	6.939895	0.000310	3.101069	1.050671	-0.000126
1330	1.3224e+02	-12.8964	6.816063	0.000306	3.060796	1.037026	-0.000124
1331	1.3234e+02	-12.9542	6.688565	0.000315	3.151411	1.067727	-0.000128
1332	1.3243e+02	-13.0296	6.563103	0.000310	3.101069	1.050671	-0.000126
1333	1.3253e+02	-13.0376	6.437642	0.000310	3.101069	1.050671	-0.000126
1334	1.3263e+02	-13.0713	6.314217	0.000305	3.050727	1.033614	-0.000124
1335	1.3273e+02	-13.0986	6.189977	0.000307	3.070864	1.040437	-0.000125
1336	1.3283e+02	-13.1611	6.057184	0.000328	3.282301	1.112074	-0.000133
1337	1.3293e+02	-13.2093	5.932130	0.000309	3.091001	1.047259	-0.000126
1338	1.3303e+02	-13.2397	5.810741	0.000300	3.000385	1.016558	-0.000122
1339	1.3313e+02	-13.3071	5.682429	0.000317	3.171548	1.074550	-0.000129
1340	1.3323e+02	-13.3520	5.555338	0.000314	3.141343	1.064316	-0.000128
1341	1.3333e+02	-13.3745	5.426210	0.000319	3.191685	1.081372	-0.000130
1342	1.3343e+02	-13.3953	5.299119	0.000314	3.141343	1.064316	-0.000128
1343	1.3353e+02	-13.4194	5.168770	0.000322	3.221890	1.091606	-0.000131
1344	1.3363e+02	-13.4627	5.044530	0.000307	3.070864	1.040437	-0.000125
1345	1.3373e+02	-13.5542	4.917847	0.000313	3.131275	1.060905	-0.000127
1346	1.3383e+02	-13.5510	4.788719	-0.000319	-3.191685	-1.081372	-0.000130
1347	1.3393e+02	-13.5895	4.659184	0.000320	3.201753	1.084783	-0.000130
1348	1.3403e+02	-13.6681	4.534130	0.000309	3.091001	1.047259	-0.000126
1349	1.3413e+02	-13.6921	4.402966	0.000324	3.242027	1.098428	-0.000132
1350	1.3423e+02	-13.7290	4.270172	0.000328	3.282301	1.112074	-0.000133
1351	1.3432e+02	-13.7627	4.141452	0.000318	3.181617	1.077961	-0.000129
1352	1.3442e+02	-13.7772	4.014361	0.000314	3.141343	1.064316	-0.000128
1353	1.3452e+02	-13.8445	3.883604	0.000323	3.231959	1.095017	-0.000131
1354	1.3462e+02	-13.8846	3.747959	0.000335	3.352779	1.135952	-0.000136
1355	1.3472e+02	-13.9215	3.616795	0.000324	3.242027	1.098428	-0.000132
1356	1.3482e+02	-13.9584	3.481557	0.000334	3.342711	1.132541	-0.000136
1357	1.3492e+02	-13.9761	3.351207	0.000322	3.221890	1.091606	-0.000131
1358	1.3502e+02	-14.0338	3.215969	0.000334	3.342711	1.132541	-0.000136
1359	1.3512e+02	-14.0755	3.082768	0.000329	3.292369	1.115485	-0.000134
1360	1.3522e+02	-14.1012	2.948753	0.000331	3.312506	1.122307	-0.000135
1361	1.3532e+02	-14.1686	2.812700	0.000336	3.362848	1.139364	-0.000137
1362	1.3542e+02	-14.1670	2.680314	-0.000327	-3.272232	-1.108662	-0.000133
1363	1.3552e+02	-14.2344	2.543447	0.000338	3.382985	1.146186	-0.000138
1364	1.3562e+02	-14.2600	2.410246	0.000329	3.292369	1.115485	-0.000134
1365	1.3572e+02	-14.3274	2.279896	0.000322	3.221890	1.091606	-0.000131
1366	1.3582e+02	-14.3354	2.135290	0.000357	3.574284	1.211000	-0.000145
1367	1.3592e+02	-14.3900	2.006569	0.000318	3.181617	1.077961	-0.000129
1368	1.3602e+02	-14.4413	1.869702	0.000338	3.382985	1.146186	-0.000138
1369	1.3612e+02	-14.4654	1.729169	0.000347	3.473600	1.176888	-0.000141
1370	1.3622e+02	-14.5135	1.590265	0.000343	3.433327	1.163243	-0.000140
1371	1.3631e+02	-14.5520	1.455842	0.000332	3.322574	1.125719	-0.000135
1372	1.3641e+02	-14.6049	1.317753	0.000341	3.413190	1.156420	-0.000139
1373	1.3651e+02	-14.6402	1.178442	0.000344	3.443395	1.166654	-0.000140
1374	1.3661e+02	-14.6675	1.033835	0.000357	3.574284	1.211000	-0.000145
1375	1.3671e+02	-14.7044	0.896561	0.000339	3.393053	1.149598	-0.000138
1376	1.3681e+02	-14.7333	0.759287	0.000339	3.393053	1.149598	-0.000138
1377	1.3691e+02	-14.7958	0.621605	0.000340	3.403121	1.153009	-0.000138
1378	1.3701e+02	-14.8343	0.481886	0.000345	3.453464	1.170065	-0.000140
1379	1.3711e+02	-14.8568	0.341353	0.000347	3.473600	1.176888	-0.000141
1380	1.3721e+02	-14.8809	0.195524	0.000360	3.604490	1.221234	-0.000147
1381	1.3731e+02	-14.9787	0.058657	0.000338	3.382985	1.146186	-0.000138
1382	1.3741e+02	-15.0028	-0.083913	0.000352	3.523942	1.193944	-0.000143
1383	1.3751e+02	-15.0301	-0.224446	0.000347	3.473600	1.176888	-0.000141
1384	1.3761e+02	-15.0525	-0.369052	0.000357	3.574284	1.211000	-0.000145
1385	1.3771e+02	-15.1199	-0.508364	0.000344	3.443395	1.166654	-0.000140
1386	1.3781e+02	-15.1359	-0.654599	0.000361	3.614558	1.224645	-0.000147
1387	1.3791e+02	-15.1841	-0.801650	0.000363	3.634695	1.231468	-0.000148
1388	1.3801e+02	-15.2338	-0.941776	0.000346	3.463532	1.173476	-0.000141
1389	1.3811e+02	-15.2514	-1.086790	0.000358	3.584353	1.214412	-0.000146
1390	1.3821e+02	-15.3108	-1.234248	0.000364	3.644763	1.234879	-0.000148
1391	1.3831e+02	-15.3236	-1.377225	0.000353	3.534011	1.197355	-0.000144
1392	1.3840e+02	-15.3702	-1.524276	0.000363	3.634695	1.231468	-0.000148
1393	1.3850e+02	-15.3910	-1.667660	0.000354	3.544079	1.200767	-0.000144
1394	1.3860e+02	-15.4825	-1.812674	0.000358	3.584353	1.214412	-0.000146
1395	1.3870e+02	-15.5161	-1.952393	0.000345	3.453464	1.170065	-0.000140
1396	1.3880e+02	-15.5482	-2.101888	0.000370	3.695105	1.251936	-0.000150
1397	1.3890e+02	-15.5980	-2.247309	0.000359	3.594421	1.217823	-0.000146
1398	1.3900e+02	-15.6493	-2.395989	0.000367	3.674968	1.245113	-0.000149
1399	1.3910e+02	-15.6477	-2.540188	-0.000356	-3.564216	-1.207589	-0.000145
1400	1.3920e+02	-15.6990	-2.679499	0.000344	3.443395	1.166654	-0.000140
1401	1.3930e+02	-15.7616	-2.831438	0.000376	3.755516	1.272403	-0.000153
1402	1.3940e+02	-15.7889	-2.984192	0.000378	3.775653	1.279226	-0.000154
1403	1.3950e+02	-15.8242	-3.132057	0.000365	3.654832	1.238290	-0.000149
1404	1.3960e+02	-15.8707	-3.281959	0.000371	3.705174	1.255347	-0.000151
1405	1.3970e+02	-15.8851	-3.429417	0.000364	3.644763	1.234879	-0.000148
1406	1.3980e+02	-15.9332	-3.581356	0.000376	3.755516	1.272403	-0.000153
1407	1.3990e+02	-15.9669	-3.726370	0.000358	3.584353	1.214412	-0.000146
1408	1.4000e+02	-16.0423	-3.872198	0.000360	3.604490	1.221234	-0.000147
1409	1.4010e+02	-16.0872	-4.022508	0.000372	3.715242	1.258758	-0.000151
1410	1.4020e+02	-16.1161	-4.175261	0.000378	3.775653	1.279226	-0.000154
1411	1.4029e+02	-16.1306	-4.327200	0.000376	3.755516	1.272403	-0.000153
1412	1.4039e+02	-16.1915	-4.475065	0.000365	3.654832	1.238290	-0.000149
1413	1.4049e+02	-16.2332	-4.626189	0.000374	3.735379	1.265581	-0.000152
1414	1.4059e+02	-16.2733	-4.783831	0.000390	3.896473	1.320161	-0.000158
1415	1.4069e+02	-16.2974	-4.938214	0.000382	3.815926	1.292871	-0.000155
1416	1.4079e+02	-16.3487	-5.090153	0.000376	3.755516	1.272403	-0.000153
1417	1.4089e+02	-16.3728	-5.246572	0.000387	3.866268	1.309927	-0.000157
1418	1.4099e+02	-16.4306	-5.400955	0.000382	3.815926	1.292871	-0.000155
1419	1.4109e+02	-16.4626	-5.560633	0.000395	3.946815	1.337217	-0.000160
1420	1.4119e+02	-16.5043	-5.715423	0.000383	3.825995	1.296282	-0.000156
1421	1.4129e+02	-16.5589	-5.875102	0.000395	3.946815	1.337217	-0.000160
1422	1.4139e+02	-16.5830	-6.027448	0.000377	3.765584	1.275814	-0.000153
1423	1.4149e+02	-16.6182	-6.188755	0.000399	3.987089	1.350862	-0.000162
1424	1.4159e+02	-16.6600	-6.340694	0.000376	3.755516	1.272403	-0.000153
1425	1.4169e+02	-16.6856	-6.498336	0.000390	3.896473	1.320161	-0.000158
1426	1.4179e+02	-16.7450	-6.653126	0.000383	3.825995	1.296282	-0.000156
1427	1.4189e+02	-16.7963	-6.804250	0.000374	3.735379	1.265581	-0.000152
1428	1.4199e+02	-16.8204	-6.961484	0.000389	3.886405	1.316750	-0.000158
1429	1.4209e+02	-16.8685	-7.116682	0.000384	3.836063	1.299693	-0.000156
1430	1.4219e+02	-16.8637	-7.266584	-0.000371	-3.705174	-1.255347	-0.000151
1431	1.4228e+02	-16.9279	-7.421781	0.000384	3.836063	1.299693	-0.000156
1432	1.4238e+02	-16.9968	-7.572091	0.000372	3.715242	1.258758	-0.000151
1433	1.4248e+02	-17.0658	-7.718327	0.000361	3.614558	1.224645	-0.000147
1434	1.4258e+02	-17.0530	-7.862526	-0.000356	-3.564216	-1.207589	-0.000145
1435	1.4268e+02	-17.0979	-8.016094	0.000380	3.795789	1.286048	-0.000154
1436	1.4278e+02	-17.1380	-8.161923	0.000360	3.604490	1.221234	-0.000147
1437	1.4288e+02	-17.1749	-8.300419	0.000342	3.423258	1.159831	-0.000139
1438	1.4298e+02	-17.2311	-8.440138	0.000345	3.453464	1.170065	-0.000140
1439	1.4308e+02	-17.2680	-8.584337	0.000356	3.564216	1.207589	-0.000145
1440	1.4318e+02	-17.2776	-8.722833	0.000342	3.423258	1.159831	-0.000139
1441	1.4328e+02	-17.3434	-8.862145	0.000344	3.443395	1.166654	-0.000140
1442	1.4338e+02	-17.3610	-8.997790	0.000335	3.352779	1.135952	-0.000136
1443	1.4348e+02	-17.4348	-9.137915	0.000346	3.463532	1.173476	-0.000141
1444	1.4358e+02	-17.4669	-9.276819	0.000343	3.433327	1.163243	-0.000140
1445	1.4368e+02	-17.5070	-9.408798	0.000326	3.262164	1.105251	-0.000133
1446	1.4378e+02	-17.5295	-9.542407	0.000330	3.302437	1.118896	-0.000134
1447	1.4388e+02	-17.5824	-9.681310	0.000343	3.433327	1.163243	-0.000140
1448	1.4398e+02	-17.5936	-9.816141	0.000333	3.332643	1.129130	-0.000136
1449	1.4408e+02	-17.6546	-9.953823	0.000340	3.403121	1.153009	-0.000138
1450	1.4418e+02	-17.7107	-10.087024	0.000329	3.292369	1.115485	-0.000134
1451	1.4428e+02	-17.7444	-10.216151	0.000319	3.191685	1.081372	-0.000130
1452	1.4437e+02	-17.7797	-10.352204	0.000336	3.362848	1.139364	-0.000137
1453	1.4447e+02	-17.7717	-10.488256	-0.000336	-3.362848	-1.139364	-0.000137
1454	1.4457e+02	-17.8599	-10.623901	0.000335	3.352779	1.135952	-0.000136
1455	1.4467e+02	-17.8936	-10.757917	0.000331	3.312506	1.122307	-0.000135
1456	1.4477e+02	-17.9594	-10.897228	0.000344	3.443395	1.166654	-0.000140
1457	1.4487e+02	-17.9594	-11.028392	0.000324	3.242027	1.098428	-0.000132
1458	1.4497e+02	-18.0220	-11.164445	0.000336	3.362848	1.139364	-0.000137
1459	1.4507e+02	-18.0540	-11.300904	0.000337	3.372916	1.142775	-0.000137
1460	1.4517e+02	-18.1022	-11.438179	0.000339	3.393053	1.149598	-0.000138
1461	1.4527e+02	-18.1326	-11.571787	0.000330	3.302437	1.118896	-0.000134
1462	1.4537e+02	-18.1647	-11.709062	0.000339	3.393053	1.149598	-0.000138
1463	1.4547e+02	-18.2177	-11.852854	0.000355	3.554148	1.204178	-0.000145
1464	1.4557e+02	-18.2514	-11.988499	0.000335	3.352779	1.135952	-0.000136
1465	1.4567e+02	-18.2979	-12.130661	0.000351	3.513874	1.190533	-0.000143
1466	1.4577e+02	-18.3540	-12.265899	0.000334	3.342711	1.132541	-0.000136
1467	1.4587e+02	-18.3797	-12.406839	0.000348	3.483669	1.180299	-0.000142
1468	1.4597e+02	-18.4054	-12.552261	0.000359	3.594421	1.217823	-0.000146
1469	1.4607e+02	-18.4872	-12.693201	0.000348	3.483669	1.180299	-0.000142
1470	1.4617e+02	-18.4824	-12.826810	-0.000330	-3.302437	-1.118896	-0.000134
1471	1.4626e+02	-18.5513	-12.968565	0.000350	3.503806	1.187121	-0.000142
1472	1.4636e+02	-18.5979	-13.106654	0.000341	3.413190	1.156420	-0.000139
1473	1.4646e+02	-18.5738	-13.245150	-0.000342	-3.423258	-1.159831	-0.000139
1474	1.4656e+02	-18.6556	-13.387313	0.000351	3.513874	1.190533	-0.000143
1475	1.4666e+02	-18.6957	-13.532327	0.000358	3.584353	1.214412	-0.000146
1476	1.4676e+02	-18.7070	-13.673267	0.000348	3.483669	1.180299	-0.000142
1477	1.4686e+02	-18.7872	-13.813393	0.000346	3.463532	1.173476	-0.000141
1478	1.4696e+02	-18.8225	-13.957185	0.000355	3.554148	1.204178	-0.000145
1479	1.4706e+02	-18.8401	-14.105865	0.000367	3.674968	1.245113	-0.000149
1480	1.4716e+02	-18.8995	-14.247620	0.000350	3.503806	1.187121	-0.000142
1481	1.4726e+02	-18.9332	-14.392227	0.000357	3.574284	1.211000	-0.000145
1482	1.4736e+02	-19.0134	-14.538056	0.000360	3.604490	1.221234	-0.000147
1483	1.4746e+02	-19.0118	-14.687143	-0.000369	-3.685037	-1.248524	-0.000150
1484	1.4756e+02	-19.0647	-14.832157	0.000358	3.584353	1.214412	-0.000146
1485	1.4766e+02	-19.0743	-14.975134	0.000353	3.534011	1.197355	-0.000144
1486	1.4776e+02	-19.1481	-15.120148	0.000358	3.584353	1.214412	-0.000146
1487	1.4786e+02	-19.1930	-15.265569	0.000359	3.594421	1.217823	-0.000146
1488	1.4796e+02	-19.2267	-15.411805	0.000361	3.614558	1.224645	-0.000147
1489	1.4806e+02	-19.2508	-15.552746	0.000348	3.483669	1.180299	-0.000142
1490	1.4816e+02	-19.2829	-15.703870	0.000374	3.735379	1.265581	-0.000152
1491	1.4825e+02	-19.3166	-15.850921	0.000363	3.634695	1.231468	-0.000148
1492	1.4835e+02	-19.3759	-15.996749	0.000360	3.604490	1.221234	-0.000147
1493	1.4845e+02	-19.4032	-16.145837	0.000369	3.685037	1.248524	-0.000150
1494	1.4855e+02	-19.4481	-16.294109	0.000366	3.664900	1.241702	-0.000149
1495	1.4865e+02	-19.5123	-16.438716	0.000357	3.574284	1.211000	-0.000145
1496	1.4875e+02	-19.5347	-16.588211	0.000370	3.695105	1.251936	-0.000150
1497	1.4885e+02	-19.5652	-16.736076	0.000365	3.654832	1.238290	-0.000149
1498	1.4895e+02	-19.6182	-16.879461	0.000354	3.544079	1.200767	-0.000144
1499	1.4905e+02	-19.6294	-17.024067	0.000357	3.574284	1.211000	-0.000145
1500	1.4915e+02	-19.6679	-17.168674	0.000357	3.574284	1.211000	-0.000145
1501	1.4925e+02	-19.7497	-17.314502	0.000360	3.604490	1.221234	-0.000147
1502	1.4935e+02	-19.7834	-17.459924	0.000359	3.594421	1.217823	-0.000146
1503	1.4945e+02	-19.8026	-17.603716	0.000355	3.554148	1.204178	-0.000145
1504	1.4955e+02	-19.8331	-17.746693	0.000353	3.534011	1.197355	-0.000144
1505	1.4965e+02	-19.8813	-17.894151	0.000364	3.644763	1.234879	-0.000148
1506	1.4975e+02	-19.9182	-18.035499	0.000349	3.493737	1.183710	-0.000142
1507	1.4985e+02	-19.9551	-18.180920	0.000359	3.594421	1.217823	-0.000146
1508	1.4995e+02	-19.9454	-18.327563	-0.000362	-3.624626	-1.228057	-0.000147
1509	1.5005e+02	-19.9037	-18.472985	-0.000359	-3.594421	-1.217823	-0.000146
1510	1.5015e+02	-19.8363	-18.613518	-0.000347	-3.473600	-1.176888	-0.000141
1511	1.5025e+02	-19.8315	-18.752829	-0.000344	-3.443395	-1.166654	-0.000140
1512	1.5034e+02	-19.7674	-18.888474	-0.000335	-3.352779	-1.135952	-0.000136
1513	1.5044e+02	-19.7144	-19.031044	-0.000352	-3.523942	-1.193944	-0.000143
1514	1.5054e+02	-19.7064	-19.159357	-0.000317	-3.171548	-1.074550	-0.000129
1515	1.5064e+02	-19.6775	-19.295409	-0.000336	-3.362848	-1.139364	-0.000137
1516	1.5074e+02	-19.6262	-19.425352	-0.000321	-3.211822	-1.088195	-0.000131
1517	1.5084e+02	-19.5540	-19.559367	-0.000331	-3.312506	-1.122307	-0.000135
1518	1.5094e+02	-19.5380	-19.682385	-0.000304	-3.040659	-1.030203	-0.000124
1519	1.5104e+02	-19.4754	-19.814771	-0.000327	-3.272232	-1.108662	-0.000133
1520	1.5114e+02	-19.4770	-19.940233	0.000310	3.101069	1.050671	-0.000126
1521	1.5124e+02	-19.4064	-20.068138	-0.000316	-3.161480	-1.071138	-0.000129
1522	1.5134e+02	-19.3743	-20.192378	-0.000307	-3.070864	-1.040437	-0.000125
1523	1.5144e+02	-19.3342	-20.316617	-0.000307	-3.070864	-1.040437	-0.000125
1524	1.5154e+02	-19.2765	-20.436376	-0.000296	-2.960112	-1.002913	-0.000120
1525	1.5164e+02	-19.2428	-20.558579	-0.000302	-3.020522	-1.023381	-0.000123
1526	1.5174e+02	-19.2331	-20.678745	-0.000297	-2.970180	-1.006324	-0.000121
1527	1.5184e+02	-19.1866	-20.796467	-0.000291	-2.909770	-0.985857	-0.000118
1528	1.5194e+02	-19.1128	-20.918262	-0.000301	-3.010454	-1.019969	-0.000122
1529	1.5204e+02	-19.0775	-21.033540	-0.000285	-2.849359	-0.965389	-0.000116
1530	1.5214e+02	-19.0070	-21.143930	-0.000273	-2.728538	-0.924454	-0.000111
1531	1.5224e+02	-19.0214	-21.257171	0.000280	2.799017	0.948333	-0.000114
1532	1.5233e+02	-18.9524	-21.367561	-0.000273	-2.728538	-0.924454	-0.000111
1533	1.5243e+02	-18.9364	-21.482024	-0.000283	-2.829222	-0.958566	-0.000115
1534	1.5253e+02	-18.9107	-21.595673	-0.000281	-2.809085	-0.951744	-0.000114
1535	1.5263e+02	-18.8529	-21.701174	-0.000261	-2.607717	-0.883519	-0.000106
1536	1.5273e+02	-18.8096	-21.806269	-0.000260	-2.597649	-0.880107	-0.000106
1537	1.5283e+02	-18.7535	-21.908919	-0.000254	-2.537239	-0.859640	-0.000103
1538	1.5293e+02	-18.7615	-22.014828	0.000262	2.617786	0.886930	-0.000106
1539	1.5303e+02	-18.6941	-22.120330	-0.000261	-2.607717	-0.883519	-0.000106
1540	1.5313e+02	-18.6524	-22.223388	-0.000255	-2.547307	-0.863051	-0.000104
1541	1.5323e+02	-18.6524	-22.320742	0.000241	2.406349	0.815293	-0.000098
1542	1.5333e+02	-18.5995	-22.419727	-0.000245	-2.446623	-0.828938	-0.000099
1543	1.5343e+02	-18.5289	-22.522377	-0.000254	-2.537239	-0.859640	-0.000103
1544	1.5353e+02	-18.4599	-22.617695	-0.000236	-2.356007	-0.798237	-0.000096
1545	1.5363e+02	-18.4631	-22.714643	0.000240	2.396281	0.811882	-0.000097
1546	1.5373e+02	-18.3925	-22.811590	-0.000240	-2.396281	-0.811882	-0.000097
1547	1.5383e+02	-18.3861	-22.903242	-0.000227	-2.265392	-0.767535	-0.000092
1548	1.5393e+02	-18.3685	-22.993265	-0.000223	-2.225118	-0.753890	-0.000090
1549	1.5403e+02	-18.2802	-23.081658	-0.000218	-2.184844	-0.740245	-0.000089
1550	1.5413e+02	-18.2674	-23.174940	-0.000231	-2.305665	-0.781181	-0.000094
1551	1.5422e+02	-18.1936	-23.259667	-0.000209	-2.094229	-0.709544	-0.000085
1552	1.5432e+02	-18.1727	-23.350912	-0.000226	-2.255323	-0.764124	-0.000092
1553	1.5442e+02	-18.1423	-23.440120	-0.000220	-2.204981	-0.747068	-0.000090
1554	1.5452e+02	-18.1102	-23.526069	-0.000212	-2.124434	-0.719778	-0.000086
1555	1.5462e+02	-18.0749	-23.614055	-0.000217	-2.174776	-0.736834	-0.000088
1556	1.5472e+02	-18.0220	-23.696746	-0.000204	-2.043887	-0.692488	-0.000083
1557	1.5482e+02	-17.9883	-23.779029	-0.000203	-2.033818	-0.689076	-0.000083
1558	1.5492e+02	-17.9337	-23.859275	-0.000198	-1.983476	-0.672020	-0.000081
1559	1.5502e+02	-17.9097	-23.941151	-0.000202	-2.023750	-0.685665	-0.000082
1560	1.5512e+02	-17.8583	-24.019768	-0.000194	-1.943203	-0.658375	-0.000079
1561	1.5522e+02	-17.8343	-24.099607	-0.000197	-1.973408	-0.668609	-0.000080
1562	1.5532e+02	-17.7845	-24.171707	-0.000178	-1.782108	-0.603795	-0.000072
1563	1.5542e+02	-17.7476	-24.252361	-0.000199	-1.993545	-0.675431	-0.000081
1564	1.5552e+02	-17.7380	-24.325275	-0.000180	-1.802245	-0.610617	-0.000073
1565	1.5562e+02	-17.6658	-24.393301	-0.000168	-1.681424	-0.569682	-0.000068
1566	1.5572e+02	-17.6225	-24.468252	-0.000185	-1.852587	-0.627673	-0.000075
1567	1.5582e+02	-17.5535	-24.539130	-0.000175	-1.751903	-0.593561	-0.000071
1568	1.5592e+02	-17.5407	-24.613266	-0.000183	-1.832450	-0.620851	-0.000075
1569	1.5602e+02	-17.5006	-24.685366	-0.000178	-1.782108	-0.603795	-0.000072
1570	1.5612e+02	-17.4749	-24.753392	-0.000168	-1.681424	-0.569682	-0.000068
1571	1.5622e+02	-17.4300	-24.822233	-0.000170	-1.701561	-0.576504	-0.000069
1572	1.5631e+02	-17.3722	-24.889445	-0.000166	-1.661287	-0.562859	-0.000068
1573	1.5641e+02	-17.3321	-24.957878	-0.000169	-1.691492	-0.573093	-0.000069
1574	1.5651e+02	-17.3241	-25.023868	-0.000163	-1.631082	-0.552626	-0.000066
1575	1.5661e+02	-17.2311	-25.082525	-0.000145	-1.449851	-0.491223	-0.000059
1576	1.5671e+02	-17.2359	-25.145663	0.000156	1.560603	0.528747	-0.000063
1577	1.5681e+02	-17.1958	-25.211653	-0.000163	-1.631082	-0.552626	-0.000066
1578	1.5691e+02	-17.1669	-25.269903	-0.000144	-1.439782	-0.487811	-0.000059
1579	1.5701e+02	-17.1140	-25.334263	-0.000159	-1.590808	-0.538980	-0.000065
1580	1.5711e+02	-17.1075	-25.392105	-0.000143	-1.429714	-0.484400	-0.000058
1581	1.5721e+02	-17.0241	-25.455651	-0.000157	-1.570671	-0.532158	-0.000064
1582	1.5731e+02	-16.9808	-25.513901	-0.000144	-1.439782	-0.487811	-0.000059
1583	1.5741e+02	-16.9391	-25.571743	-0.000143	-1.429714	-0.484400	-0.000058
1584	1.5751e+02	-16.9118	-25.636103	-0.000159	-1.590808	-0.538980	-0.000065
1585	1.5761e+02	-16.8781	-25.693946	-0.000143	-1.429714	-0.484400	-0.000058
1586	1.5771e+02	-16.8220	-25.760343	-0.000164	-1.641150	-0.556037	-0.000067
1587	1.5781e+02	-16.7915	-25.813705	-0.000132	-1.318961	-0.446876	-0.000054
1588	1.5791e+02	-16.7739	-25.871955	-0.000144	-1.439782	-0.487811	-0.000059
1589	1.5801e+02	-16.7225	-25.935500	-0.000157	-1.570671	-0.532158	-0.000064
1590	1.5811e+02	-16.6664	-25.990084	-0.000135	-1.349167	-0.457110	-0.000055
1591	1.5821e+02	-16.6118	-26.042631	-0.000130	-1.298824	-0.440054	-0.000053
1592	1.5830e+02	-16.5974	-26.102918	-0.000149	-1.490124	-0.504868	-0.000061
1593	1.5840e+02	-16.5316	-26.156687	-0.000133	-1.329030	-0.450287	-0.000054
1594	1.5850e+02	-16.5027	-26.214530	-0.000143	-1.429714	-0.484400	-0.000058
1595	1.5860e+02	-16.4562	-26.271151	-0.000140	-1.399509	-0.474166	-0.000057
1596	1.5870e+02	-16.4354	-26.328178	-0.000141	-1.409577	-0.477578	-0.000057
1597	1.5880e+02	-16.3728	-26.387243	-0.000146	-1.459919	-0.494634	-0.000059
1598	1.5890e+02	-16.3295	-26.445900	-0.000145	-1.449851	-0.491223	-0.000059
1599	1.5900e+02	-16.3118	-26.501706	-0.000138	-1.379372	-0.467344	-0.000056
1600	1.5910e+02	-16.2846	-26.559956	-0.000144	-1.439782	-0.487811	-0.000059
1601	1.5920e+02	-16.2493	-26.612096	-0.000129	-1.288756	-0.436642	-0.000052
1602	1.5930e+02	-16.1883	-26.674420	-0.000154	-1.540466	-0.521924	-0.000063
1603	1.5940e+02	-16.1402	-26.729818	-0.000137	-1.369303	-0.463933	-0.000056
1604	1.5950e+02	-16.0921	-26.777885	-0.000119	-1.188072	-0.402530	-0.000048
1605	1.5960e+02	-16.0568	-26.842652	-0.000160	-1.600877	-0.542392	-0.000065
1606	1.5970e+02	-15.9926	-26.894792	-0.000129	-1.288756	-0.436642	-0.000052
1607	1.5980e+02	-16.0086	-26.951820	0.000141	1.409577	0.477578	-0.000057
1608	1.5990e+02	-15.9573	-27.001108	-0.000122	-1.218277	-0.412763	-0.000050
1609	1.6000e+02	-15.8899	-27.058136	-0.000141	-1.409577	-0.477578	-0.000057
1610	1.6010e+02	-15.8755	-27.115979	-0.000143	-1.429714	-0.484400	-0.000058
1611	1.6019e+02	-15.8129	-27.169341	-0.000132	-1.318961	-0.446876	-0.000054
1612	1.6029e+02	-15.7808	-27.223925	-0.000135	-1.349167	-0.457110	-0.000055
1613	1.6039e+02	-15.7359	-27.276472	-0.000130	-1.298824	-0.440054	-0.000053
1614	1.6049e+02	-15.7231	-27.333907	-0.000142	-1.419645	-0.480989	-0.000058
1615	1.6059e+02	-15.6621	-27.386862	-0.000131	-1.308893	-0.443465	-0.000053
1616	1.6069e+02	-15.6204	-27.439409	-0.000130	-1.298824	-0.440054	-0.000053
1617	1.6079e+02	-15.5739	-27.495622	-0.000139	-1.389440	-0.470755	-0.000056
1618	1.6089e+02	-15.5466	-27.548984	-0.000132	-1.318961	-0.446876	-0.000054
1619	1.6099e+02	-15.4744	-27.599087	-0.000124	-1.238414	-0.419586	-0.000050
1620	1.6109e+02	-15.4696	-27.651634	-0.000130	-1.298824	-0.440054	-0.000053
1621	1.6119e+02	-15.4439	-27.702145	-0.000125	-1.248482	-0.422997	-0.000051
1622	1.6129e+02	-15.3942	-27.748175	-0.000114	-1.137730	-0.385473	-0.000046
1623	1.6139e+02	-15.3734	-27.798685	-0.000125	-1.248482	-0.422997	-0.000051
1624	1.6149e+02	-15.3333	-27.843900	-0.000112	-1.117593	-0.378651	-0.000045
1625	1.6159e+02	-15.2370	-27.893189	-0.000122	-1.218277	-0.412763	-0.000050
1626	1.6169e+02	-15.2354	-27.938404	-0.000112	-1.117593	-0.378651	-0.000045
1627	1.6179e+02	-15.1969	-27.984841	-0.000115	-1.147798	-0.388885	-0.000047
1628	1.6189e+02	-15.1456	-28.027612	-0.000106	-1.057183	-0.358183	-0.000043
1629	1.6199e+02	-15.1311	-28.074049	-0.000115	-1.147798	-0.388885	-0.000047
1630	1.6209e+02	-15.0910	-28.118856	-0.000111	-1.107525	-0.375240	-0.000045
1631	1.6219e+02	-15.0172	-28.164886	-0.000114	-1.137730	-0.385473	-0.000046
1632	1.6228e+02	-14.9707	-28.206028	-0.000102	-1.016909	-0.344538	-0.000041
1633	1.6238e+02	-14.9466	-28.247577	-0.000103	-1.026977	-0.347949	-0.000042
1634	1.6248e+02	-14.8953	-28.289940	-0.000105	-1.047114	-0.354772	-0.000043
1635	1.6258e+02	-14.8552	-28.327823	-0.000094	-0.936362	-0.317248	-0.000038
1636	1.6268e+02	-14.8215	-28.368965	-0.000102	-1.016909	-0.344538	-0.000041
1637	1.6278e+02	-14.7974	-28.407255	-0.000095	-0.946430	-0.320659	-0.000038
1638	1.6288e+02	-14.7541	-28.440250	-0.000082	-0.815541	-0.276313	-0.000033
1639	1.6298e+02	-14.7028	-28.475281	-0.000087	-0.865883	-0.293369	-0.000035
1640	1.6308e+02	-14.6707	-28.517237	-0.000104	-1.037046	-0.351361	-0.000042
1641	1.6318e+02	-14.6595	-28.553898	-0.000091	-0.906157	-0.307014	-0.000037
1642	1.6328e+02	-14.5937	-28.587708	-0.000084	-0.835678	-0.283135	-0.000034
1643	1.6338e+02	-14.5793	-28.620702	-0.000082	-0.815541	-0.276313	-0.000033
1644	1.6348e+02	-14.5215	-28.656141	-0.000088	-0.875951	-0.296780	-0.000036
1645	1.6358e+02	-14.4718	-28.692395	-0.000090	-0.896088	-0.303603	-0.000036
1646	1.6368e+02	-14.4333	-28.722538	-0.000075	-0.745062	-0.252434	-0.000030
1647	1.6378e+02	-14.4044	-28.759199	-0.000091	-0.906157	-0.307014	-0.000037
1648	1.6388e+02	-14.3659	-28.790972	-0.000079	-0.785336	-0.266079	-0.000032
1649	1.6398e+02	-14.3162	-28.827632	-0.000091	-0.906157	-0.307014	-0.000037
1650	1.6408e+02	-14.2793	-28.856961	-0.000072	-0.724925	-0.245611	-0.000029
1651	1.6418e+02	-14.2247	-28.892400	-0.000088	-0.875951	-0.296780	-0.000036
1652	1.6427e+02	-14.2071	-28.918877	-0.000065	-0.654446	-0.221732	-0.000027
1653	1.6437e+02	-14.1477	-28.951057	-0.000080	-0.795404	-0.269490	-0.000032
1654	1.6447e+02	-14.1477	-28.981201	0.000075	0.745062	0.252434	-0.000030
1655	1.6457e+02	-14.0531	-29.006456	-0.000062	-0.624241	-0.211499	-0.000025
1656	1.6467e+02	-14.0338	-29.036599	-0.000075	-0.745062	-0.252434	-0.000030
1657	1.6477e+02	-14.0017	-29.066335	-0.000073	-0.734994	-0.249023	-0.000030
1658	1.6487e+02	-13.9151	-29.091998	-0.000063	-0.634310	-0.214910	-0.000026
1659	1.6497e+02	-13.9263	-29.124585	0.000081	0.805473	0.272901	-0.000033
1660	1.6507e+02	-13.8766	-29.153506	-0.000071	-0.714857	-0.242200	-0.000029
1661	1.6517e+02	-13.8124	-29.181613	-0.000069	-0.694720	-0.235378	-0.000028
1662	1.6527e+02	-13.8028	-29.202795	-0.000052	-0.523557	-0.177386	-0.000021
1663	1.6537e+02	-13.7515	-29.233346	-0.000076	-0.755131	-0.255845	-0.000031
1664	1.6547e+02	-13.7242	-29.260638	-0.000067	-0.674583	-0.228555	-0.000027
1665	1.6557e+02	-13.6697	-29.277339	-0.000041	-0.412805	-0.139862	-0.000017
1666	1.6567e+02	-13.6247	-29.303408	-0.000064	-0.644378	-0.218321	-0.000026
1667	1.6577e+02	-13.5830	-29.326220	-0.000056	-0.563831	-0.191031	-0.000023
1668	1.6587e+02	-13.5461	-29.347401	-0.000052	-0.523557	-0.177386	-0.000021
1669	1.6597e+02	-13.4932	-29.371842	-0.000060	-0.604104	-0.204676	-0.000025
1670	1.6607e+02	-13.4675	-29.385692	-0.000034	-0.342326	-0.115983	-0.000014
1671	1.6616e+02	-13.4467	-29.404429	-0.000046	-0.463147	-0.156918	-0.000019
1672	1.6626e+02	-13.4178	-29.430499	-0.000064	-0.644378	-0.218321	-0.000026
1673	1.6636e+02	-13.3713	-29.443942	-0.000033	-0.332257	-0.112572	-0.000014
1674	1.6646e+02	-13.3199	-29.461457	-0.000043	-0.432941	-0.146685	-0.000018
1675	1.6656e+02	-13.2830	-29.481825	-0.000050	-0.503420	-0.170563	-0.000020
1676	1.6666e+02	-13.2429	-29.498118	-0.000040	-0.402736	-0.136451	-0.000016
1677	1.6676e+02	-13.1820	-29.518485	-0.000050	-0.503420	-0.170563	-0.000020
1678	1.6686e+02	-13.1435	-29.532742	-0.000035	-0.352394	-0.119394	-0.000014
1679	1.6696e+02	-13.1178	-29.551480	-0.000046	-0.463147	-0.156918	-0.000019
1680	1.6706e+02	-13.0857	-29.569810	-0.000045	-0.453078	-0.153507	-0.000018
1681	1.6716e+02	-13.0200	-29.583660	-0.000034	-0.342326	-0.115983	-0.000014
1682	1.6726e+02	-12.9831	-29.596695	-0.000032	-0.322189	-0.109161	-0.000013
1683	1.6736e+02	-12.9462	-29.611359	-0.000036	-0.362463	-0.122806	-0.000015
1684	1.6746e+02	-12.9173	-29.628060	-0.000041	-0.412805	-0.139862	-0.000017
1685	1.6756e+02	-12.8740	-29.641095	-0.000032	-0.322189	-0.109161	-0.000013
1686	1.6766e+02	-12.8290	-29.661463	-0.000050	-0.503420	-0.170563	-0.000020
1687	1.6776e+02	-12.7986	-29.670017	-0.000021	-0.211437	-0.071637	-0.000009
1688	1.6786e+02	-12.7841	-29.687940	-0.000044	-0.443010	-0.150096	-0.000018
1689	1.6796e+02	-12.7488	-29.702604	-0.000036	-0.362463	-0.122806	-0.000015
1690	1.6806e+02	-12.6943	-29.720120	-0.000043	-0.432941	-0.146685	-0.000018
1691	1.6816e+02	-12.6365	-29.733562	-0.000033	-0.332257	-0.112572	-0.000014
1692	1.6825e+02	-12.5980	-29.744153	-0.000026	-0.261779	-0.088693	-0.000011
1693	1.6835e+02	-12.5708	-29.757188	-0.000032	-0.322189	-0.109161	-0.000013
1694	1.6845e+02	-12.4873	-29.774704	-0.000043	-0.432941	-0.146685	-0.000018
1695	1.6855e+02	-12.4665	-29.785702	-0.000027	-0.271847	-0.092104	-0.000011
1696	1.6865e+02	-12.4392	-29.800774	-0.000037	-0.372531	-0.126217	-0.000015
1697	1.6875e+02	-12.3815	-29.813401	-0.000031	-0.312121	-0.105749	-0.000013
1698	1.6885e+02	-12.3911	-29.822770	0.000023	0.231573	0.078459	-0.000009
1699	1.6895e+02	-12.3189	-29.833361	-0.000026	-0.261779	-0.088693	-0.000011
1700	1.6905e+02	-12.2868	-29.845581	-0.000030	-0.302052	-0.102338	-0.000012
1701	1.6915e+02	-12.2499	-29.855765	-0.000025	-0.251710	-0.085282	-0.000010
1702	1.6925e+02	-12.1938	-29.873688	-0.000044	-0.443010	-0.150096	-0.000018
1703	1.6935e+02	-12.1713	-29.881835	-0.000020	-0.201368	-0.068225	-0.000008
1704	1.6945e+02	-12.1216	-29.889574	-0.000019	-0.191300	-0.064814	-0.000008
1705	1.6955e+02	-12.1200	-29.901387	-0.000029	-0.291984	-0.098927	-0.000012
1706	1.6965e+02	-12.0783	-29.909127	-0.000019	-0.191300	-0.064814	-0.000008
1707	1.6975e+02	-12.0269	-29.921754	-0.000031	-0.312121	-0.105749	-0.000013
1708	1.6985e+02	-11.9708	-29.932345	-0.000026	-0.261779	-0.088693	-0.000011
1709	1.6995e+02	-11.9114	-29.940492	-0.000020	-0.201368	-0.068225	-0.000008
1710	1.7005e+02	-11.8793	-29.949046	-0.000021	-0.211437	-0.071637	-0.000009
1711	1.7015e+02	-11.8681	-29.960859	-0.000029	-0.291984	-0.098927	-0.000012
1712	1.7024e+02	-11.8136	-29.967377	-0.000016	-0.161095	-0.054580	-0.000007
1713	1.7034e+02	-11.7526	-29.980412	-0.000032	-0.322189	-0.109161	-0.000013
1714	1.7044e+02	-11.7093	-29.988966	-0.000021	-0.211437	-0.071637	-0.000009
1715	1.7054e+02	-11.6756	-30.001186	-0.000030	-0.302052	-0.102338	-0.000012
1716	1.7064e+02	-11.6211	-30.009740	-0.000021	-0.211437	-0.071637	-0.000009
1717	1.7074e+02	-11.6018	-30.014629	-0.000012	-0.120821	-0.040935	-0.000005
1718	1.7084e+02	-11.5697	-30.019517	-0.000012	-0.120821	-0.040935	-0.000005
1719	1.7094e+02	-11.5537	-30.029700	-0.000025	-0.251710	-0.085282	-0.000010
1720	1.7104e+02	-11.4703	-30.040698	-0.000027	-0.271847	-0.092104	-0.000011
1721	1.7114e+02	-11.4366	-30.043957	-0.000008	-0.080547	-0.027290	-0.000003
1722	1.7124e+02	-11.3965	-30.054955	-0.000027	-0.271847	-0.092104	-0.000011
1723	1.7134e+02	-11.3355	-30.064324	-0.000023	-0.231573	-0.078459	-0.000009
1724	1.7144e+02	-11.3195	-30.068805	-0.000011	-0.110752	-0.037524	-0.000005
1725	1.7154e+02	-11.2665	-30.076137	-0.000018	-0.181231	-0.061403	-0.000007
1726	1.7164e+02	-11.2457	-30.083469	-0.000018	-0.181231	-0.061403	-0.000007
1727	1.7174e+02	-11.2232	-30.091616	-0.000020	-0.201368	-0.068225	-0.000008
1728	1.7184e+02	-11.1623	-30.093653	-0.000005	-0.050342	-0.017056	-0.000002
1729	1.7194e+02	-11.1173	-30.100578	-0.000017	-0.171163	-0.057992	-0.000007
1730	1.7204e+02	-11.0933	-30.104651	-0.000010	-0.100684	-0.034113	-0.000004
1731	1.7213e+02	-11.0708	-30.111983	-0.000018	-0.181231	-0.061403	-0.000007
1732	1.7223e+02	-11.0050	-30.114835	-0.000007	-0.070479	-0.023879	-0.000003
1733	1.7233e+02	-10.9409	-30.116872	-0.000005	-0.050342	-0.017056	-0.000002
1734	1.7243e+02	-10.9296	-30.119723	-0.000007	-0.070479	-0.023879	-0.000003
1735	1.7253e+02	-10.8783	-30.126240	-0.000016	-0.161095	-0.054580	-0.000007
1736	1.7263e+02	-10.8719	-30.131536	-0.000013	-0.130889	-0.044346	-0.000005
1737	1.7273e+02	-10.8077	-30.136017	-0.000011	-0.110752	-0.037524	-0.000005
1738	1.7283e+02	-10.7532	-30.137646	-0.000004	-0.040274	-0.013645	-0.000002
1739	1.7293e+02	-10.7243	-30.145793	-0.000020	-0.201368	-0.068225	-0.000008
1740	1.7303e+02	-10.6922	-30.147830	-0.000005	-0.050342	-0.017056	-0.000002
1741	1.7313e+02	-10.6730	-30.149052	-0.000003	-0.030205	-0.010234	-0.000001
1742	1.7323e+02	-10.5783	-30.153532	-0.000011	-0.110752	-0.037524	-0.000005
1743	1.7333e+02	-10.5799	-30.158013	0.000011	0.110752	0.037524	-0.000005
1744	1.7343e+02	-10.5414	-30.157606	0.000001	0.010068	0.003411	0.000000
1745	1.7353e+02	-10.4901	-30.159643	-0.000005	-0.050342	-0.017056	-0.000002
1746	1.7363e+02	-10.4644	-30.163716	-0.000010	-0.100684	-0.034113	-0.000004
1747	1.7373e+02	-10.4067	-30.170641	-0.000017	-0.171163	-0.057992	-0.000007
1748	1.7383e+02	-10.3890	-30.172677	-0.000005	-0.050342	-0.017056	-0.000002
1749	1.7393e+02	-10.3168	-30.173085	-0.000001	-0.010068	-0.003411	-0.000000
1750	1.7403e+02	-10.3072	-30.175529	-0.000006	-0.060410	-0.020468	-0.000002
1751	1.7413e+02	-10.2623	-30.185305	-0.000024	-0.241642	-0.081870	-0.000010
1752	1.7422e+02	-10.1917	-30.189786	-0.000011	-0.110752	-0.037524	-0.000005
1753	1.7432e+02	-10.1484	-30.190601	-0.000002	-0.020137	-0.006823	-0.000001
1754	1.7442e+02	-10.1500	-30.203228	0.000031	0.312121	0.105749	-0.000013
1755	1.7452e+02	-10.0858	-30.204450	-0.000003	-0.030205	-0.010234	-0.000001
1756	1.7462e+02	-10.0393	-30.207302	-0.000007	-0.070479	-0.023879	-0.000003
1757	1.7472e+02	-10.0249	-30.214634	-0.000018	-0.181231	-0.061403	-0.000007
1758	1.7482e+02	-9.9639	-30.215448	-0.000002	-0.020137	-0.006823	-0.000001
1759	1.7492e+02	-9.9446	-30.219522	-0.000010	-0.100684	-0.034113	-0.000004
1760	1.7502e+02	-9.8853	-30.225632	-0.000015	-0.151026	-0.051169	-0.000006
1761	1.7512e+02	-9.8628	-30.228891	-0.000008	-0.080547	-0.027290	-0.000003
1762	1.7522e+02	-9.8243	-30.231335	-0.000006	-0.060410	-0.020468	-0.000002
1763	1.7532e+02	-9.7634	-30.239482	-0.000020	-0.201368	-0.068225	-0.000008
1764	1.7542e+02	-9.7409	-30.241518	-0.000005	-0.050342	-0.017056	-0.000002
1765	1.7552e+02	-9.6928	-30.244370	-0.000007	-0.070479	-0.023879	-0.000003
1766	1.7562e+02	-9.6446	-30.244777	-0.000001	-0.010068	-0.003411	-0.000000
1767	1.7572e+02	-9.6078	-30.251702	-0.000017	-0.171163	-0.057992	-0.000007
1768	1.7582e+02	-9.5612	-30.258219	-0.000016	-0.161095	-0.054580	-0.000007
1769	1.7592e+02	-9.5404	-30.258627	-0.000001	-0.010068	-0.003411	-0.000000
1770	1.7602e+02	-9.5131	-30.260256	-0.000004	-0.040274	-0.013645	-0.000002
1771	1.7612e+02	-9.4313	-30.257812	0.000006	0.060410	0.020468	0.000002
1772	1.7621e+02	-9.4168	-30.266366	-0.000021	-0.211437	-0.071637	-0.000009
1773	1.7631e+02	-9.4056	-30.270032	-0.000009	-0.090616	-0.030701	-0.000004
1774	1.7641e+02	-9.3270	-30.270032	0.000000	0.000000	0.000000	0.000000
1775	1.7651e+02	-9.3110	-30.266774	0.000008	0.080547	0.027290	0.000003
1776	1.7661e+02	-9.2596	-30.273291	-0.000016	-0.161095	-0.054580	-0.000007
1777	1.7671e+02	-9.2484	-30.272884	0.000001	0.010068	0.003411	0.000000
1778	1.7681e+02	-9.1906	-30.276142	-0.000008	-0.080547	-0.027290	-0.000003
1779	1.7691e+02	-9.1409	-30.276142	0.000000	0.000000	0.000000	0.000000
1780	1.7701e+02	-9.0944	-30.281845	-0.000014	-0.140958	-0.047758	-0.000006
1781	1.7711e+02	-9.0527	-30.282253	-0.000001	-0.010068	-0.003411	-0.000000
1782	1.7721e+02	-9.0318	-30.284697	-0.000006	-0.060410	-0.020468	-0.000002
1783	1.7731e+02	-8.9837	-30.283882	0.000002	0.020137	0.006823	0.000001
1784	1.7741e+02	-8.9292	-30.286733	-0.000007	-0.070479	-0.023879	-0.000003
1785	1.7751e+02	-8.9115	-30.289177	-0.000006	-0.060410	-0.020468	-0.000002
1786	1.7761e+02	-8.8361	-30.289177	0.000000	0.000000	0.000000	0.000000
1787	1.7771e+02	-8.8249	-30.288363	0.000002	0.020137	0.006823	0.000001
1788	1.7781e+02	-8.7687	-30.290399	-0.000005	-0.050342	-0.017056	-0.000002
1789	1.7791e+02	-8.7334	-30.291214	-0.000002	-0.020137	-0.006823	-0.000001
1790	1.7801e+02	-8.7030	-30.291214	0.000000	0.000000	0.000000	0.000000
1791	1.7810e+02	-8.6596	-30.293658	-0.000006	-0.060410	-0.020468	-0.000002
1792	1.7820e+02	-8.6260	-30.295695	-0.000005	-0.050342	-0.017056	-0.000002
1793	1.7830e+02	-8.5987	-30.294473	0.000003	0.030205	0.010234	0.000001
1794	1.7840e+02	-8.5233	-30.296102	-0.000004	-0.040274	-0.013645	-0.000002
1795	1.7850e+02	-8.5040	-30.298546	-0.000006	-0.060410	-0.020468	-0.000002
1796	1.7860e+02	-8.4703	-30.297324	0.000003	0.030205	0.010234	0.000001
1797	1.7870e+02	-8.4158	-30.291621	0.000014	0.140958	0.047758	0.000006
1798	1.7880e+02	-8.4110	-30.298546	-0.000017	-0.171163	-0.057992	-0.000007
1799	1.7890e+02	-8.3228	-30.297732	0.000002	0.020137	0.006823	0.000001
1800	1.7900e+02	-8.3212	-30.304656	-0.000017	-0.171163	-0.057992	-0.000007
1801	1.7910e+02	-8.2506	-30.300583	0.000010	0.100684	0.034113	0.000004
1802	1.7920e+02	-8.2329	-30.297324	0.000008	0.080547	0.027290	0.000003
1803	1.7930e+02	-8.2040	-30.303027	-0.000014	-0.140958	-0.047758	-0.000006
1804	1.7940e+02	-8.1543	-30.305064	-0.000005	-0.050342	-0.017056	-0.000002
1805	1.7950e+02	-8.1110	-30.303027	0.000005	0.050342	0.017056	0.000002
1806	1.7960e+02	-8.0516	-30.300583	0.000006	0.060410	0.020468	0.000002
1807	1.7970e+02	-8.0212	-30.296917	0.000009	0.090616	0.030701	0.000004
1808	1.7980e+02	-7.9586	-30.296510	0.000001	0.010068	0.003411	0.000000
1809	1.7990e+02	-7.9233	-30.297324	-0.000002	-0.020137	-0.006823	-0.000001
1810	1.8000e+02	-7.8976	-30.298546	-0.000003	-0.030205	-0.010234	-0.000001
1811	1.8009e+02	-7.9025	-30.302620	0.000010	0.100684	0.034113	-0.000004
1812	1.8019e+02	-7.8575	-30.302212	0.000001	0.010068	0.003411	0.000000
1813	1.8029e+02	-7.7597	-30.298139	0.000010	0.100684	0.034113	0.000004
1814	1.8039e+02	-7.7565	-30.298546	-0.000001	-0.010068	-0.003411	-0.000000
1815	1.8049e+02	-7.6923	-30.300583	-0.000005	-0.050342	-0.017056	-0.000002
1816	1.8059e+02	-7.6602	-30.305471	-0.000012	-0.120821	-0.040935	-0.000005
1817	1.8069e+02	-7.6073	-30.304656	0.000002	0.020137	0.006823	0.000001
1818	1.8079e+02	-7.5864	-30.305064	-0.000001	-0.010068	-0.003411	-0.000000
1819	1.8089e+02	-7.5559	-30.309137	-0.000010	-0.100684	-0.034113	-0.000004
1820	1.8099e+02	-7.5094	-30.309545	-0.000001	-0.010068	-0.003411	-0.000000
1821	1.8109e+02	-7.4693	-30.310767	-0.000003	-0.030205	-0.010234	-0.000001
1822	1.8119e+02	-7.4051	-30.311989	-0.000003	-0.030205	-0.010234	-0.000001
1823	1.8129e+02	-7.3987	-30.312396	-0.000001	-0.010068	-0.003411	-0.000000
1824	1.8139e+02	-7.3329	-30.311989	0.000001	0.010068	0.003411	0.000000
1825	1.8149e+02	-7.2864	-30.309545	0.000006	0.060410	0.020468	0.000002
1826	1.8159e+02	-7.2431	-30.316877	-0.000018	-0.181231	-0.061403	-0.000007
1827	1.8169e+02	-7.2158	-30.322172	-0.000013	-0.130889	-0.044346	-0.000005
1828	1.8179e+02	-7.1789	-30.321358	0.000002	0.020137	0.006823	0.000001
1829	1.8189e+02	-7.1533	-30.321765	-0.000001	-0.010068	-0.003411	-0.000000
1830	1.8199e+02	-7.1068	-30.320950	0.000002	0.020137	0.006823	0.000001
1831	1.8209e+02	-7.0426	-30.324209	-0.000008	-0.080547	-0.027290	-0.000003
1832	1.8218e+02	-7.0442	-30.325024	0.000002	0.020137	0.006823	-0.000001
1833	1.8228e+02	-7.0041	-30.323394	0.000004	0.040274	0.013645	0.000002
1834	1.8238e+02	-6.9383	-30.322172	0.000003	0.030205	0.010234	0.000001
1835	1.8248e+02	-6.9142	-30.319321	0.000007	0.070479	0.023879	0.000003
1836	1.8258e+02	-6.8485	-30.319728	-0.000001	-0.010068	-0.003411	-0.000000
1837	1.8268e+02	-6.8132	-30.316877	0.000007	0.070479	0.023879	0.000003
1838	1.8278e+02	-6.7650	-30.315247	0.000004	0.040274	0.013645	0.000002
1839	1.8288e+02	-6.7089	-30.312396	0.000007	0.070479	0.023879	0.000003
1840	1.8298e+02	-6.7201	-30.309545	-0.000007	-0.070479	-0.023879	0.000003
1841	1.8308e+02	-6.6656	-30.306693	0.000007	0.070479	0.023879	0.000003
1842	1.8318e+02	-6.6383	-30.306286	0.000001	0.010068	0.003411	0.000000
1843	1.8328e+02	-6.6078	-30.309545	-0.000008	-0.080547	-0.027290	-0.000003
1844	1.8338e+02	-6.5838	-30.300176	0.000023	0.231573	0.078459	0.000009
1845	1.8348e+02	-6.5148	-30.305064	-0.000012	-0.120821	-0.040935	-0.000005
1846	1.8358e+02	-6.4795	-30.304249	0.000002	0.020137	0.006823	0.000001
1847	1.8368e+02	-6.4057	-30.295288	0.000022	0.221505	0.075048	0.000009
1848	1.8378e+02	-6.3832	-30.290399	0.000012	0.120821	0.040935	0.000005
1849	1.8388e+02	-6.3127	-30.293658	-0.000008	-0.080547	-0.027290	-0.000003
1850	1.8398e+02	-6.3014	-30.289177	0.000011	0.110752	0.037524	0.000005
1851	1.8407e+02	-6.2758	-30.284289	0.000012	0.120821	0.040935	0.000005
1852	1.8417e+02	-6.2260	-30.280623	0.000009	0.090616	0.030701	0.000004
1853	1.8427e+02	-6.2052	-30.280623	0.000000	0.000000	0.000000	0.000000
1854	1.8437e+02	-6.1426	-30.276142	0.000011	0.110752	0.037524	0.000005
1855	1.8447e+02	-6.1185	-30.275328	0.000002	0.020137	0.006823	0.000001
1856	1.8457e+02	-6.0688	-30.276957	-0.000004	-0.040274	-0.013645	-0.000002
1857	1.8467e+02	-6.0367	-30.271662	0.000013	0.130889	0.044346	0.000005
1858	1.8477e+02	-5.9902	-30.271254	0.000001	0.010068	0.003411	0.000000
1859	1.8487e+02	-5.9629	-30.274513	-0.000008	-0.080547	-0.027290	-0.000003
1860	1.8497e+02	-5.9180	-30.267996	0.000016	0.161095	0.054580	0.000007
1861	1.8507e+02	-5.8763	-30.268810	-0.000002	-0.020137	-0.006823	-0.000001
1862	1.8517e+02	-5.8490	-30.266774	0.000005	0.050342	0.017056	0.000002
1863	1.8527e+02	-5.7929	-30.261478	0.000013	0.130889	0.044346	0.000005
1864	1.8537e+02	-5.7784	-30.256997	0.000011	0.110752	0.037524	0.000005
1865	1.8547e+02	-5.7432	-30.263922	-0.000017	-0.171163	-0.057992	-0.000007
1866	1.8557e+02	-5.6469	-30.260256	0.000009	0.090616	0.030701	0.000004
1867	1.8567e+02	-5.6469	-30.250887	-0.000023	-0.231573	-0.078459	0.000009
1868	1.8577e+02	-5.5956	-30.246814	0.000010	0.100684	0.034113	0.000004
1869	1.8587e+02	-5.5442	-30.245592	0.000003	0.030205	0.010234	0.000001
1870	1.8597e+02	-5.5314	-30.242740	0.000007	0.070479	0.023879	0.000003
1871	1.8606e+02	-5.4608	-30.236630	0.000015	0.151026	0.051169	0.000006
1872	1.8616e+02	-5.4159	-30.231742	0.000012	0.120821	0.040935	0.000005
1873	1.8626e+02	-5.3918	-30.227261	0.000011	0.110752	0.037524	0.000005
1874	1.8636e+02	-5.3806	-30.223188	0.000010	0.100684	0.034113	0.000004
1875	1.8646e+02	-5.3164	-30.217892	0.000013	0.130889	0.044346	0.000005
1876	1.8656e+02	-5.2859	-30.217485	0.000001	0.010068	0.003411	0.000000
1877	1.8666e+02	-5.2170	-30.208116	0.000023	0.231573	0.078459	0.000009
1878	1.8676e+02	-5.1737	-30.204450	0.000009	0.090616	0.030701	0.000004
1879	1.8686e+02	-5.1688	-30.199969	0.000011	0.110752	0.037524	0.000005
1880	1.8696e+02	-5.1287	-30.191823	0.000020	0.201368	0.068225	0.000008
1881	1.8706e+02	-5.0742	-30.184490	0.000018	0.181231	0.061403	0.000007
1882	1.8716e+02	-5.0453	-30.179602	0.000012	0.120821	0.040935	0.000005
1883	1.8726e+02	-4.9795	-30.177566	0.000005	0.050342	0.017056	0.000002
1884	1.8736e+02	-4.9747	-30.163309	0.000035	0.352394	0.119394	0.000014
1885	1.8746e+02	-4.9122	-30.156791	0.000016	0.161095	0.054580	0.000007
1886	1.8756e+02	-4.8512	-30.148237	0.000021	0.211437	0.071637	0.000009
1887	1.8766e+02	-4.8432	-30.141312	0.000017	0.171163	0.057992	0.000007
1888	1.8776e+02	-4.8127	-30.131943	0.000023	0.231573	0.078459	0.000009
1889	1.8786e+02	-4.7726	-30.122982	0.000022	0.221505	0.075048	0.000009
1890	1.8796e+02	-4.7148	-30.114427	0.000021	0.211437	0.071637	0.000009
1891	1.8806e+02	-4.6555	-30.107910	0.000016	0.161095	0.054580	0.000007
1892	1.8815e+02	-4.6410	-30.093246	0.000036	0.362463	0.122806	0.000015
1893	1.8825e+02	-4.5737	-30.086728	0.000016	0.161095	0.054580	0.000007
1894	1.8835e+02	-4.5432	-30.078581	0.000020	0.201368	0.068225	0.000008
1895	1.8845e+02	-4.5015	-30.066768	0.000029	0.291984	0.098927	0.000012
1896	1.8855e+02	-4.4421	-30.058214	0.000021	0.211437	0.071637	0.000009
1897	1.8865e+02	-4.4405	-30.046809	0.000028	0.281915	0.095516	0.000011
1898	1.8875e+02	-4.4052	-30.026849	0.000049	0.493352	0.167152	0.000020
1899	1.8885e+02	-4.3555	-30.012185	0.000036	0.362463	0.122806	0.000015
1900	1.8895e+02	-4.3106	-30.001186	0.000027	0.271847	0.092104	0.000011
1901	1.8905e+02	-4.2721	-29.984485	0.000041	0.412805	0.139862	0.000017
1902	1.8915e+02	-4.2159	-29.971858	0.000031	0.312121	0.105749	0.000013
1903	1.8925e+02	-4.1822	-29.964118	0.000019	0.191300	0.064814	0.000008
1904	1.8935e+02	-4.1550	-29.943751	0.000050	0.503420	0.170563	0.000020
1905	1.8945e+02	-4.1373	-29.930309	0.000033	0.332257	0.112572	0.000014
1906	1.8955e+02	-4.0892	-29.915644	0.000036	0.362463	0.122806	0.000015
1907	1.8965e+02	-4.0138	-29.901387	0.000035	0.352394	0.119394	0.000014
1908	1.8975e+02	-4.0170	-29.883872	-0.000043	-0.432941	-0.146685	0.000018
1909	1.8985e+02	-3.9432	-29.867171	0.000041	0.412805	0.139862	0.000017
1910	1.8995e+02	-3.9223	-29.852914	0.000035	0.352394	0.119394	0.000014
1911	1.9004e+02	-3.8646	-29.839879	0.000032	0.322189	0.109161	0.000013
1912	1.9014e+02	-3.8550	-29.815438	0.000060	0.604104	0.204676	0.000025
1913	1.9024e+02	-3.8181	-29.801181	0.000035	0.352394	0.119394	0.000014
1914	1.9034e+02	-3.7667	-29.777963	0.000057	0.573899	0.194442	0.000023
1915	1.9044e+02	-3.7379	-29.767779	0.000025	0.251710	0.085282	0.000010
1916	1.9054e+02	-3.6849	-29.744968	0.000056	0.563831	0.191031	0.000023
1917	1.9064e+02	-3.6256	-29.731118	0.000034	0.342326	0.115983	0.000014
1918	1.9074e+02	-3.5967	-29.710344	0.000051	0.513489	0.173975	0.000021
1919	1.9084e+02	-3.5839	-29.698123	0.000030	0.302052	0.102338	0.000012
1920	1.9094e+02	-3.5181	-29.680608	0.000043	0.432941	0.146685	0.000018
1921	1.9104e+02	-3.4684	-29.665536	0.000037	0.372531	0.126217	0.000015
1922	1.9114e+02	-3.4796	-29.650872	-0.000036	-0.362463	-0.122806	0.000015
1923	1.9124e+02	-3.4202	-29.633356	0.000043	0.432941	0.146685	0.000018
1924	1.9134e+02	-3.3849	-29.618284	0.000037	0.372531	0.126217	0.000015
1925	1.9144e+02	-3.3272	-29.605657	0.000031	0.312121	0.105749	0.000013
1926	1.9154e+02	-3.2951	-29.590178	0.000038	0.382599	0.129628	0.000016
1927	1.9164e+02	-3.2486	-29.567774	0.000055	0.553762	0.187620	0.000023
1928	1.9174e+02	-3.1812	-29.555961	0.000029	0.291984	0.098927	0.000012
1929	1.9184e+02	-3.1539	-29.535594	0.000050	0.503420	0.170563	0.000020
1930	1.9194e+02	-3.1186	-29.514412	0.000052	0.523557	0.177386	0.000021
1931	1.9203e+02	-3.0914	-29.498933	0.000038	0.382599	0.129628	0.000016
1932	1.9213e+02	-3.0176	-29.475307	0.000058	0.583968	0.197854	0.000024
1933	1.9223e+02	-2.9807	-29.452903	0.000055	0.553762	0.187620	0.000023
1934	1.9233e+02	-2.9839	-29.434165	-0.000046	-0.463147	-0.156918	0.000019
1935	1.9243e+02	-2.9470	-29.413798	0.000050	0.503420	0.170563	0.000020
1936	1.9253e+02	-2.8940	-29.390172	0.000058	0.583968	0.197854	0.000024
1937	1.9263e+02	-2.8299	-29.366139	0.000059	0.594036	0.201265	0.000024
1938	1.9273e+02	-2.8042	-29.338033	0.000069	0.694720	0.235378	0.000028
1939	1.9283e+02	-2.7946	-29.313999	0.000059	0.594036	0.201265	0.000024
1940	1.9293e+02	-2.7272	-29.294854	0.000047	0.473215	0.160330	0.000019
1941	1.9303e+02	-2.7015	-29.263489	0.000078	0.775267	0.262668	0.000032
1942	1.9313e+02	-2.6646	-29.234975	0.000070	0.704788	0.238789	0.000029
1943	1.9323e+02	-2.5860	-29.211756	0.000057	0.573899	0.194442	0.000023
1944	1.9333e+02	-2.5812	-29.183650	0.000069	0.694720	0.235378	0.000028
1945	1.9343e+02	-2.5251	-29.160024	0.000058	0.583968	0.197854	0.000024
1946	1.9353e+02	-2.4689	-29.129881	0.000075	0.745062	0.252434	0.000030
1947	1.9363e+02	-2.4336	-29.101774	0.000069	0.694720	0.235378	0.000028
1948	1.9373e+02	-2.4336	-29.074075	-0.000068	-0.684652	-0.231966	0.000028
1949	1.9383e+02	-2.3759	-29.048819	0.000062	0.624241	0.211499	0.000025
1950	1.9393e+02	-2.3245	-29.019083	0.000073	0.734994	0.249023	0.000030
1951	1.9403e+02	-2.2732	-28.989755	0.000072	0.724925	0.245611	0.000029
1952	1.9412e+02	-2.2347	-28.964499	0.000062	0.624241	0.211499	0.000025
1953	1.9422e+02	-2.2090	-28.939652	0.000061	0.614173	0.208087	0.000025
1954	1.9432e+02	-2.1866	-28.909916	0.000073	0.734994	0.249023	0.000030
1955	1.9442e+02	-2.1336	-28.878958	0.000077	0.765199	0.259256	0.000031
1956	1.9452e+02	-2.0951	-28.851666	0.000067	0.674583	0.228555	0.000027
1957	1.9462e+02	-2.0213	-28.821522	0.000075	0.745062	0.252434	0.000030
1958	1.9472e+02	-2.0053	-28.792194	0.000072	0.724925	0.245611	0.000029
1959	1.9482e+02	-1.9844	-28.768568	0.000058	0.583968	0.197854	0.000024
1960	1.9492e+02	-1.9090	-28.736388	0.000080	0.795404	0.269490	0.000032
1961	1.9502e+02	-1.9106	-28.705022	-0.000078	-0.775267	-0.262668	0.000032
1962	1.9512e+02	-1.8336	-28.677730	0.000067	0.674583	0.228555	0.000027
1963	1.9522e+02	-1.8016	-28.647994	0.000073	0.734994	0.249023	0.000030
1964	1.9532e+02	-1.7454	-28.612556	0.000088	0.875951	0.296780	0.000036
1965	1.9542e+02	-1.7262	-28.584449	0.000069	0.694720	0.235378	0.000028
1966	1.9552e+02	-1.6764	-28.560416	0.000059	0.594036	0.201265	0.000024
1967	1.9562e+02	-1.6620	-28.526199	0.000085	0.845746	0.286547	0.000034
1968	1.9572e+02	-1.6267	-28.494834	0.000078	0.775267	0.262668	0.000032
1969	1.9582e+02	-1.5529	-28.463468	0.000078	0.775267	0.262668	0.000032
1970	1.9592e+02	-1.5336	-28.431695	0.000079	0.785336	0.266079	0.000032
1971	1.9601e+02	-1.5032	-28.394627	0.000092	0.916225	0.310425	0.000037
1972	1.9611e+02	-1.4454	-28.367743	0.000066	0.664515	0.225144	0.000027
1973	1.9621e+02	-1.4053	-28.336785	0.000077	0.765199	0.259256	0.000031
1974	1.9631e+02	-1.3748	-28.300531	0.000090	0.896088	0.303603	0.000036
1975	1.9641e+02	-1.3219	-28.269166	0.000078	0.775267	0.262668	0.000032
1976	1.9651e+02	-1.3139	-28.232912	0.000090	0.896088	0.303603	0.000036
1977	1.9661e+02	-1.2304	-28.203176	0.000073	0.734994	0.249023	0.000030
1978	1.9671e+02	-1.1935	-28.169774	0.000083	0.825609	0.279724	0.000034
1979	1.9681e+02	-1.1727	-28.133928	0.000089	0.886020	0.300192	0.000036
1980	1.9691e+02	-1.1165	-28.098082	0.000089	0.886020	0.300192	0.000036
1981	1.9701e+02	-1.1101	-28.068346	0.000073	0.734994	0.249023	0.000030
1982	1.9711e+02	-1.0476	-28.039017	0.000072	0.724925	0.245611	0.000029
1983	1.9721e+02	-1.0395	-27.999912	0.000097	0.966567	0.327482	0.000039
1984	1.9731e+02	-0.9706	-27.968140	0.000079	0.785336	0.266079	0.000032
1985	1.9741e+02	-0.9385	-27.935145	0.000082	0.815541	0.276313	0.000033
1986	1.9751e+02	-0.9160	-27.901743	0.000083	0.825609	0.279724	0.000034
1987	1.9761e+02	-0.8839	-27.863453	0.000095	0.946430	0.320659	0.000038
1988	1.9771e+02	-0.8214	-27.832087	0.000078	0.775267	0.262668	0.000032
1989	1.9781e+02	-0.7829	-27.791760	0.000100	0.996772	0.337716	0.000041
1990	1.9791e+02	-0.7299	-27.755914	0.000089	0.886020	0.300192	0.000036
1991	1.9800e+02	-0.7107	-27.723734	0.000080	0.795404	0.269490	0.000032
1992	1.9810e+02	-0.6465	-27.687073	0.000091	0.906157	0.307014	0.000037
1993	1.9820e+02	-0.6192	-27.653264	0.000084	0.835678	0.283135	0.000034
1994	1.9830e+02	-0.5535	-27.611308	0.000104	1.037046	0.351361	0.000042
1995	1.9840e+02	-0.5342	-27.583608	0.000068	0.684652	0.231966	0.000028
1996	1.9850e+02	-0.4957	-27.545318	0.000095	0.946430	0.320659	0.000038
1997	1.9860e+02	-0.4444	-27.504584	0.000101	1.006841	0.341127	0.000041
1998	1.9870e+02	-0.3834	-27.473218	0.000078	0.775267	0.262668	0.000032
1999	1.9880e+02	-0.3802	-27.433706	0.000098	0.976635	0.330893	0.000040
2000	1.9890e+02	-0.3353	-27.399082	0.000086	0.855815	0.289958	0.000035
2001	1.9900e+02	-0.2823	-27.357126	0.000104	1.037046	0.351361	0.000042
2002	1.9910e+02	-0.2454	-27.313947	0.000107	1.067251	0.361594	0.000043
2003	1.9920e+02	-0.2021	-27.274843	0.000097	0.966567	0.327482	0.000039
2004	1.9930e+02	-0.1925	-27.230442	0.000110	1.097456	0.371828	0.000045
2005	1.9940e+02	-0.1315	-27.184005	0.000115	1.147798	0.388885	0.000047
2006	1.9950e+02	-0.0866	-27.140827	0.000107	1.067251	0.361594	0.000043
2007	1.9960e+02	-0.0754	-27.099685	0.000102	1.016909	0.344538	0.000041
2008	1.9970e+02	-0.0321	-27.054470	0.000112	1.117593	0.378651	0.000045
2009	1.9980e+02	0.0337	-27.008441	0.000112	1.117593	0.378651	0.000046

Center data before PMax,+/-Pr and +/-Vc Calc.

PMax (uC/cm2):	2.37e+01
Pr (uC/cm2):	2.95e+01
-Pr (uC/cm2):	-2.70e+01
PLoss (uC/cm2):	-1.72e+01
Vc:	1.19e+01
-Vc:	-1.50e+01
C (Max-Eff) (nF):	1.18e-01
K (Eff):	4.01e+02
Vert. (+/-Pr) Shift (uC/cm2):	1.24e+00
Horiz. Shift (+/-Vc):	-1.57e+00
Offset (uC/cm2):	9.83e+00

A (Loop Area - uC/cm2·Volts):	-2.90e-01



Hysteresis Version: 5.48.1 - Radiant Technologies, Inc., 1999 - 9/12/24

