»»»»»»»»»»»»»»»»»»»»»»»»»»»»»»»»»»»» Hysteresis ««««««««««««««««««««««««««««««««««««
»»»  Executed Version:	5.48.1
»»»  Vision Version:	5.48.4 (R)
»»»  Vision Compiled:	9/18/24
»»»  Driver Version:	5.47.0
»»»  Windows Version:	Windows 8 or 8.1
»»»  Processor Information:	x86 (AMD or Intel) - 32 Processors
»»»  Tester Name:	PMF21124-494 (100V)
»»»  Tester S/N:	PMF21124-494
»»»  Internal Amp Type:	100V RevK 270k
»»»  Internal Amp S/N:	iAB2-596/K     
»»»  Execution Count:	1
»»»»»»»»»»»»»»»»»»»»»»»»»»»»»»»»»»»»»»»»»»««««««««««««««««««««««««««««««««««««««««««

Stored:	6/30/2025 - 11:11:32
Configured:	06/30/25 10:19:58 AM
Executed:	06/30/25 11:11:04 AM

»»»»»»»»»»»»»»»»»»»»»»»»»»»»»»»»»»» Sample Info ««««««««««««««««««««««««««««««««««««
Sample Name:	
Lot Name:	
Wafer Name:	
Die Row/Column:	0/0
Capacitor Number:	0
Sample Area (cm2):	1.00e-04
Sample Thickness (microns):	1.50e-01

Amplifier:	Internal

»»»»»»»»»»»»»»»»»»»»»»»»»»»»»»»»»»» Tester Info «««««««««««««««««««««««««««««««««««
Tester Name:	PMF21124-494 (100V)
Tester Serial Number:	PMF21124-494
Return Signal Amp. Level:	1.9 [Index: 2]

»»»»»»»»»»»»»»»»»»»»»»»»»»»»»»»» Hysteresis Info ««««««««««««««««««««««««««««««««««
Task Name:	Hyst-1804
Volts:	10.00
Field:	666.67 (kV/cm)
DCBias:	0.00
DCField:	0.00 (kV/cm)
Hysteresis Period (ms):	2.00e+02
Preset:	Enabled
Preset Delay (ms):	1.00e+03
Profile:	Standard Monopolar

»»»»»»»»»»»»»»»»»»»»»»»»»»»»»»»»»»»»»» Data «««««««««««««««««««««««««««««««««««««««
Points:	2011

Valid Data

Point	Time (ms)	Drive Voltage	Measured Polarization (uC/cm2)	Capacitance (uF)	Normalized Capacitance (uF/cm2)	Dielectric Constant	Instantaneous Current (mA)
   1	0.0000e+00	-0.0020	-16.508575	0.000413	4.134210	0.700354	0.000041
   2	9.9500e-02	0.0064	-16.467434	0.000413	4.134210	0.700354	0.000041
   3	1.9900e-01	0.0147	-16.427107	0.000405	4.052345	0.686486	0.000041
   4	2.9850e-01	0.0248	-16.382706	0.000446	4.461672	0.755828	0.000045
   5	3.9800e-01	0.0360	-16.337899	0.000450	4.502605	0.762762	0.000045
   6	4.9750e-01	0.0471	-16.294313	0.000438	4.379807	0.741959	0.000044
   7	5.9700e-01	0.0552	-16.251949	0.000426	4.257008	0.721157	0.000043
   8	6.9650e-01	0.0658	-16.211623	0.000405	4.052345	0.686486	0.000041
   9	7.9600e-01	0.0769	-16.164778	0.000471	4.707269	0.797433	0.000047
  10	8.9550e-01	0.0854	-16.117526	0.000475	4.748202	0.804367	0.000047
  11	9.9500e-01	0.0974	-16.073533	0.000442	4.420740	0.748894	0.000044
  12	1.0945e+00	0.1060	-16.030762	0.000430	4.297941	0.728091	0.000043
  13	1.1940e+00	0.1154	-15.982696	0.000483	4.830067	0.818236	0.000048
  14	1.2935e+00	0.1236	-15.940740	0.000422	4.216076	0.714223	0.000042
  15	1.3930e+00	0.1332	-15.893081	0.000479	4.789135	0.811301	0.000048
  16	1.4925e+00	0.1437	-15.850310	0.000430	4.297941	0.728091	0.000043
  17	1.5920e+00	0.1548	-15.806724	0.000438	4.379807	0.741959	0.000044
  18	1.6915e+00	0.1646	-15.762324	0.000446	4.461672	0.755828	0.000045
  19	1.7910e+00	0.1764	-15.718331	0.000442	4.420740	0.748894	0.000044
  20	1.8905e+00	0.1872	-15.670264	0.000483	4.830067	0.818236	0.000048
  21	1.9900e+00	0.1942	-15.624235	0.000463	4.625403	0.783565	0.000046
  22	2.0895e+00	0.2075	-15.579834	0.000446	4.461672	0.755828	0.000045
  23	2.1890e+00	0.2151	-15.528916	0.000512	5.116597	0.866775	0.000051
  24	2.2885e+00	0.2254	-15.482072	0.000471	4.707269	0.797433	0.000047
  25	2.3880e+00	0.2380	-15.436042	0.000463	4.625403	0.783565	0.000046
  26	2.4875e+00	0.2428	-15.389198	0.000471	4.707269	0.797433	0.000047
  27	2.5870e+00	0.2536	-15.343168	0.000463	4.625403	0.783565	0.000046
  28	2.6865e+00	0.2662	-15.297139	0.000463	4.625403	0.783565	0.000046
  29	2.7860e+00	0.2743	-15.252738	0.000446	4.461672	0.755828	0.000045
  30	2.8855e+00	0.2829	-15.207523	0.000454	4.543538	0.769696	0.000045
  31	2.9850e+00	0.2946	-15.162308	0.000454	4.543538	0.769696	0.000045
  32	3.0845e+00	0.3043	-15.118722	0.000438	4.379807	0.741959	0.000044
  33	3.1840e+00	0.3124	-15.075137	0.000438	4.379807	0.741959	0.000044
  34	3.2835e+00	0.3251	-15.031959	0.000434	4.338874	0.735025	0.000043
  35	3.3830e+00	0.3356	-14.987966	0.000442	4.420740	0.748894	0.000044
  36	3.4825e+00	0.3448	-14.941121	0.000471	4.707269	0.797433	0.000047
  37	3.5820e+00	0.3551	-14.897128	0.000442	4.420740	0.748894	0.000044
  38	3.6815e+00	0.3652	-14.853135	0.000442	4.420740	0.748894	0.000044
  39	3.7810e+00	0.3748	-14.807105	0.000463	4.625403	0.783565	0.000046
  40	3.8805e+00	0.3835	-14.764742	0.000426	4.257008	0.721157	0.000043
  41	3.9800e+00	0.3960	-14.717083	0.000479	4.789135	0.811301	0.000048
  42	4.0795e+00	0.4044	-14.680015	0.000372	3.724882	0.631012	0.000037
  43	4.1790e+00	0.4127	-14.636429	0.000438	4.379807	0.741959	0.000044
  44	4.2785e+00	0.4242	-14.597731	0.000389	3.888613	0.658749	0.000039
  45	4.3780e+00	0.4345	-14.552924	0.000450	4.502605	0.762762	0.000045
  46	4.4775e+00	0.4427	-14.511375	0.000418	4.175143	0.707288	0.000042
  47	4.5770e+00	0.4539	-14.469826	0.000418	4.175143	0.707288	0.000042
  48	4.6765e+00	0.4656	-14.427055	0.000430	4.297941	0.728091	0.000043
  49	4.7760e+00	0.4755	-14.386321	0.000409	4.093277	0.693420	0.000041
  50	4.8755e+00	0.4824	-14.342328	0.000442	4.420740	0.748894	0.000044
  51	4.9750e+00	0.4947	-14.301593	0.000409	4.093277	0.693420	0.000041
  52	5.0745e+00	0.5006	-14.264525	0.000372	3.724882	0.631012	0.000037
  53	5.1740e+00	0.5128	-14.225013	0.000397	3.970479	0.672617	0.000040
  54	5.2735e+00	0.5244	-14.182649	0.000426	4.257008	0.721157	0.000043
  55	5.3730e+00	0.5331	-14.137842	0.000450	4.502605	0.762762	0.000045
  56	5.4725e+00	0.5434	-14.097515	0.000405	4.052345	0.686486	0.000041
  57	5.5720e+00	0.5528	-14.058002	0.000397	3.970479	0.672617	0.000040
  58	5.6715e+00	0.5647	-14.010343	0.000479	4.789135	0.811301	0.000048
  59	5.7710e+00	0.5710	-13.967980	0.000426	4.257008	0.721157	0.000043
  60	5.8705e+00	0.5863	-13.930912	0.000372	3.724882	0.631012	0.000037
  61	5.9700e+00	0.5915	-13.887326	0.000438	4.379807	0.741959	0.000044
  62	6.0695e+00	0.6036	-13.851887	0.000356	3.561151	0.603275	0.000036
  63	6.1690e+00	0.6133	-13.810338	0.000418	4.175143	0.707288	0.000042
  64	6.2685e+00	0.6216	-13.772048	0.000385	3.847681	0.651815	0.000038
  65	6.3680e+00	0.6320	-13.729277	0.000430	4.297941	0.728091	0.000043
  66	6.4675e+00	0.6441	-13.688950	0.000405	4.052345	0.686486	0.000041
  67	6.5670e+00	0.6535	-13.650660	0.000385	3.847681	0.651815	0.000038
  68	6.6665e+00	0.6604	-13.609926	0.000409	4.093277	0.693420	0.000041
  69	6.7660e+00	0.6701	-13.571635	0.000385	3.847681	0.651815	0.000038
  70	6.8655e+00	0.6824	-13.530087	0.000418	4.175143	0.707288	0.000042
  71	6.9650e+00	0.6935	-13.491389	0.000389	3.888613	0.658749	0.000039
  72	7.0645e+00	0.7021	-13.450247	0.000413	4.134210	0.700354	0.000041
  73	7.1640e+00	0.7136	-13.410328	0.000401	4.011412	0.679552	0.000040
  74	7.2635e+00	0.7224	-13.371223	0.000393	3.929546	0.665683	0.000039
  75	7.3630e+00	0.7346	-13.331711	0.000397	3.970479	0.672617	0.000040
  76	7.4625e+00	0.7421	-13.287718	0.000442	4.420740	0.748894	0.000044
  77	7.5620e+00	0.7530	-13.251872	0.000360	3.602084	0.610210	0.000036
  78	7.6615e+00	0.7619	-13.209508	0.000426	4.257008	0.721157	0.000043
  79	7.7610e+00	0.7723	-13.173662	0.000360	3.602084	0.610210	0.000036
  80	7.8605e+00	0.7821	-13.130076	0.000438	4.379807	0.741959	0.000044
  81	7.9600e+00	0.7913	-13.093415	0.000368	3.683950	0.624078	0.000037
  82	8.0595e+00	0.8022	-13.055940	0.000377	3.765815	0.637946	0.000038
  83	8.1590e+00	0.8108	-13.012761	0.000434	4.338874	0.735025	0.000043
  84	8.2585e+00	0.8192	-12.977730	0.000352	3.520219	0.596341	0.000035
  85	8.3580e+00	0.8337	-12.935774	0.000422	4.216076	0.714223	0.000042
  86	8.4575e+00	0.8423	-12.893817	0.000422	4.216076	0.714223	0.000042
  87	8.5570e+00	0.8518	-12.851861	0.000422	4.216076	0.714223	0.000042
  88	8.6565e+00	0.8599	-12.813571	0.000385	3.847681	0.651815	0.000038
  89	8.7560e+00	0.8727	-12.775688	0.000381	3.806748	0.644881	0.000038
  90	8.8555e+00	0.8801	-12.733732	0.000422	4.216076	0.714223	0.000042
  91	8.9550e+00	0.8932	-12.695442	0.000385	3.847681	0.651815	0.000038
  92	9.0545e+00	0.8994	-12.656337	0.000393	3.929546	0.665683	0.000039
  93	9.1540e+00	0.9121	-12.619269	0.000372	3.724882	0.631012	0.000037
  94	9.2535e+00	0.9223	-12.578942	0.000405	4.052345	0.686486	0.000041
  95	9.3530e+00	0.9334	-12.542281	0.000368	3.683950	0.624078	0.000037
  96	9.4525e+00	0.9436	-12.506842	0.000356	3.561151	0.603275	0.000036
  97	9.5520e+00	0.9520	-12.465293	0.000418	4.175143	0.707288	0.000042
  98	9.6515e+00	0.9652	-12.429040	0.000364	3.643017	0.617144	0.000036
  99	9.7510e+00	0.9707	-12.395638	0.000336	3.356487	0.568604	0.000034
 100	9.8505e+00	0.9808	-12.356940	0.000389	3.888613	0.658749	0.000039
 101	9.9500e+00	0.9902	-12.319057	0.000381	3.806748	0.644881	0.000038
 102	1.0050e+01	0.9992	-12.282804	0.000364	3.643017	0.617144	0.000036
 103	1.0149e+01	1.0125	-12.242477	0.000405	4.052345	0.686486	0.000041
 104	1.0248e+01	1.0236	-12.204594	0.000381	3.806748	0.644881	0.000038
 105	1.0348e+01	1.0279	-12.167933	0.000368	3.683950	0.624078	0.000037
 106	1.0447e+01	1.0419	-12.133716	0.000344	3.438353	0.582473	0.000034
 107	1.0547e+01	1.0537	-12.100314	0.000336	3.356487	0.568604	0.000034
 108	1.0646e+01	1.0596	-12.061617	0.000389	3.888613	0.658749	0.000039
 109	1.0746e+01	1.0686	-12.022104	0.000397	3.970479	0.672617	0.000040
 110	1.0845e+01	1.0832	-11.987073	0.000352	3.520219	0.596341	0.000035
 111	1.0945e+01	1.0908	-11.953264	0.000340	3.397420	0.575539	0.000034
 112	1.1044e+01	1.1013	-11.919047	0.000344	3.438353	0.582473	0.000034
 113	1.1144e+01	1.1082	-11.879942	0.000393	3.929546	0.665683	0.000039
 114	1.1243e+01	1.1221	-11.838800	0.000413	4.134210	0.700354	0.000041
 115	1.1343e+01	1.1306	-11.805398	0.000336	3.356487	0.568604	0.000034
 116	1.1443e+01	1.1397	-11.765071	0.000405	4.052345	0.686486	0.000041
 117	1.1542e+01	1.1471	-11.731669	0.000336	3.356487	0.568604	0.000034
 118	1.1642e+01	1.1619	-11.692564	0.000393	3.929546	0.665683	0.000039
 119	1.1741e+01	1.1729	-11.657940	0.000348	3.479286	0.589407	0.000035
 120	1.1841e+01	1.1784	-11.614354	0.000438	4.379807	0.741959	0.000044
 121	1.1940e+01	1.1898	-11.574028	0.000405	4.052345	0.686486	0.000041
 122	1.2040e+01	1.1981	-11.538589	0.000356	3.561151	0.603275	0.000036
 123	1.2139e+01	1.2092	-11.498669	0.000401	4.011412	0.679552	0.000040
 124	1.2239e+01	1.2206	-11.464452	0.000344	3.438353	0.582473	0.000034
 125	1.2338e+01	1.2305	-11.423311	0.000413	4.134210	0.700354	0.000041
 126	1.2438e+01	1.2408	-11.380947	0.000426	4.257008	0.721157	0.000043
 127	1.2537e+01	1.2521	-11.343879	0.000372	3.724882	0.631012	0.000037
 128	1.2636e+01	1.2601	-11.302330	0.000418	4.175143	0.707288	0.000042
 129	1.2736e+01	1.2690	-11.267706	0.000348	3.479286	0.589407	0.000035
 130	1.2835e+01	1.2808	-11.225342	0.000426	4.257008	0.721157	0.000043
 131	1.2935e+01	1.2887	-11.186237	0.000393	3.929546	0.665683	0.000039
 132	1.3034e+01	1.2958	-11.144689	0.000418	4.175143	0.707288	0.000042
 133	1.3134e+01	1.3097	-11.104362	0.000405	4.052345	0.686486	0.000041
 134	1.3233e+01	1.3200	-11.065257	0.000393	3.929546	0.665683	0.000039
 135	1.3333e+01	1.3310	-11.025745	0.000397	3.970479	0.672617	0.000040
 136	1.3432e+01	1.3371	-10.983381	0.000426	4.257008	0.721157	0.000043
 137	1.3532e+01	1.3494	-10.942239	0.000413	4.134210	0.700354	0.000041
 138	1.3632e+01	1.3588	-10.903949	0.000385	3.847681	0.651815	0.000038
 139	1.3731e+01	1.3712	-10.864030	0.000401	4.011412	0.679552	0.000040
 140	1.3831e+01	1.3766	-10.823703	0.000405	4.052345	0.686486	0.000041
 141	1.3930e+01	1.3873	-10.780932	0.000430	4.297941	0.728091	0.000043
 142	1.4030e+01	1.3976	-10.743049	0.000381	3.806748	0.644881	0.000038
 143	1.4129e+01	1.4088	-10.703129	0.000401	4.011412	0.679552	0.000040
 144	1.4229e+01	1.4210	-10.662395	0.000409	4.093277	0.693420	0.000041
 145	1.4328e+01	1.4246	-10.621253	0.000413	4.134210	0.700354	0.000041
 146	1.4428e+01	1.4384	-10.576446	0.000450	4.502605	0.762762	0.000045
 147	1.4527e+01	1.4474	-10.536526	0.000401	4.011412	0.679552	0.000040
 148	1.4627e+01	1.4578	-10.494977	0.000418	4.175143	0.707288	0.000042
 149	1.4726e+01	1.4677	-10.455465	0.000397	3.970479	0.672617	0.000040
 150	1.4825e+01	1.4821	-10.417989	0.000377	3.765815	0.637946	0.000038
 151	1.4925e+01	1.4873	-10.371145	0.000471	4.707269	0.797433	0.000047
 152	1.5024e+01	1.4996	-10.330003	0.000413	4.134210	0.700354	0.000041
 153	1.5124e+01	1.5076	-10.294565	0.000356	3.561151	0.603275	0.000036
 154	1.5223e+01	1.5185	-10.249350	0.000454	4.543538	0.769696	0.000045
 155	1.5323e+01	1.5284	-10.205764	0.000438	4.379807	0.741959	0.000044
 156	1.5422e+01	1.5386	-10.167474	0.000385	3.847681	0.651815	0.000038
 157	1.5522e+01	1.5482	-10.131220	0.000364	3.643017	0.617144	0.000036
 158	1.5621e+01	1.5594	-10.086820	0.000446	4.461672	0.755828	0.000045
 159	1.5721e+01	1.5650	-10.044456	0.000426	4.257008	0.721157	0.000043
 160	1.5820e+01	1.5775	-10.006573	0.000381	3.806748	0.644881	0.000038
 161	1.5920e+01	1.5877	-9.964210	0.000426	4.257008	0.721157	0.000043
 162	1.6020e+01	1.5955	-9.917365	0.000471	4.707269	0.797433	0.000047
 163	1.6119e+01	1.6073	-9.882741	0.000348	3.479286	0.589407	0.000035
 164	1.6218e+01	1.6135	-9.838748	0.000442	4.420740	0.748894	0.000044
 165	1.6318e+01	1.6290	-9.798014	0.000409	4.093277	0.693420	0.000041
 166	1.6418e+01	1.6364	-9.755650	0.000426	4.257008	0.721157	0.000043
 167	1.6517e+01	1.6451	-9.714509	0.000413	4.134210	0.700354	0.000041
 168	1.6616e+01	1.6576	-9.675811	0.000389	3.888613	0.658749	0.000039
 169	1.6716e+01	1.6696	-9.634670	0.000413	4.134210	0.700354	0.000041
 170	1.6816e+01	1.6758	-9.594750	0.000401	4.011412	0.679552	0.000040
 171	1.6915e+01	1.6872	-9.552794	0.000422	4.216076	0.714223	0.000042
 172	1.7015e+01	1.6990	-9.514096	0.000389	3.888613	0.658749	0.000039
 173	1.7114e+01	1.7069	-9.468881	0.000454	4.543538	0.769696	0.000045
 174	1.7213e+01	1.7153	-9.432628	0.000364	3.643017	0.617144	0.000036
 175	1.7313e+01	1.7239	-9.387820	0.000450	4.502605	0.762762	0.000045
 176	1.7413e+01	1.7379	-9.345049	0.000430	4.297941	0.728091	0.000043
 177	1.7512e+01	1.7477	-9.305130	0.000401	4.011412	0.679552	0.000040
 178	1.7611e+01	1.7574	-9.261544	0.000438	4.379807	0.741959	0.000044
 179	1.7711e+01	1.7681	-9.217958	0.000438	4.379807	0.741959	0.000044
 180	1.7811e+01	1.7786	-9.177631	0.000405	4.052345	0.686486	0.000041
 181	1.7910e+01	1.7876	-9.135268	0.000426	4.257008	0.721157	0.000043
 182	1.8009e+01	1.8012	-9.091275	0.000442	4.420740	0.748894	0.000044
 183	1.8109e+01	1.8084	-9.047689	0.000438	4.379807	0.741959	0.000044
 184	1.8209e+01	1.8157	-9.010214	0.000377	3.765815	0.637946	0.000038
 185	1.8308e+01	1.8247	-8.967850	0.000426	4.257008	0.721157	0.000043
 186	1.8407e+01	1.8372	-8.925894	0.000422	4.216076	0.714223	0.000042
 187	1.8507e+01	1.8454	-8.884345	0.000418	4.175143	0.707288	0.000042
 188	1.8607e+01	1.8571	-8.843610	0.000409	4.093277	0.693420	0.000041
 189	1.8706e+01	1.8671	-8.796359	0.000475	4.748202	0.804367	0.000047
 190	1.8805e+01	1.8765	-8.750329	0.000463	4.625403	0.783565	0.000046
 191	1.8905e+01	1.8861	-8.707965	0.000426	4.257008	0.721157	0.000043
 192	1.9005e+01	1.8964	-8.666009	0.000422	4.216076	0.714223	0.000042
 193	1.9104e+01	1.9061	-8.619165	0.000471	4.707269	0.797433	0.000047
 194	1.9203e+01	1.9172	-8.578023	0.000413	4.134210	0.700354	0.000041
 195	1.9303e+01	1.9240	-8.536474	0.000418	4.175143	0.707288	0.000042
 196	1.9402e+01	1.9341	-8.491666	0.000450	4.502605	0.762762	0.000045
 197	1.9502e+01	1.9468	-8.447674	0.000442	4.420740	0.748894	0.000044
 198	1.9602e+01	1.9579	-8.407754	0.000401	4.011412	0.679552	0.000040
 199	1.9701e+01	1.9702	-8.364168	0.000438	4.379807	0.741959	0.000044
 200	1.9800e+01	1.9765	-8.323434	0.000409	4.093277	0.693420	0.000041
 201	1.9900e+01	1.9868	-8.280663	0.000430	4.297941	0.728091	0.000043
 202	2.0000e+01	1.9968	-8.239114	0.000418	4.175143	0.707288	0.000042
 203	2.0099e+01	2.0053	-8.200009	0.000393	3.929546	0.665683	0.000039
 204	2.0198e+01	2.0128	-8.158460	0.000418	4.175143	0.707288	0.000042
 205	2.0298e+01	2.0248	-8.114467	0.000442	4.420740	0.748894	0.000044
 206	2.0398e+01	2.0357	-8.078621	0.000360	3.602084	0.610210	0.000036
 207	2.0497e+01	2.0464	-8.036665	0.000422	4.216076	0.714223	0.000042
 208	2.0596e+01	2.0576	-7.997153	0.000397	3.970479	0.672617	0.000040
 209	2.0696e+01	2.0692	-7.956011	0.000413	4.134210	0.700354	0.000041
 210	2.0796e+01	2.0737	-7.917314	0.000389	3.888613	0.658749	0.000039
 211	2.0895e+01	2.0852	-7.879431	0.000381	3.806748	0.644881	0.000038
 212	2.0994e+01	2.0942	-7.835845	0.000438	4.379807	0.741959	0.000044
 213	2.1094e+01	2.1056	-7.801628	0.000344	3.438353	0.582473	0.000034
 214	2.1194e+01	2.1157	-7.761301	0.000405	4.052345	0.686486	0.000041
 215	2.1293e+01	2.1270	-7.725455	0.000360	3.602084	0.610210	0.000036
 216	2.1392e+01	2.1362	-7.683499	0.000422	4.216076	0.714223	0.000042
 217	2.1492e+01	2.1484	-7.643987	0.000397	3.970479	0.672617	0.000040
 218	2.1591e+01	2.1546	-7.608955	0.000352	3.520219	0.596341	0.000035
 219	2.1691e+01	2.1655	-7.569036	0.000401	4.011412	0.679552	0.000040
 220	2.1791e+01	2.1741	-7.534004	0.000352	3.520219	0.596341	0.000035
 221	2.1890e+01	2.1855	-7.494899	0.000393	3.929546	0.665683	0.000039
 222	2.1989e+01	2.1986	-7.455387	0.000397	3.970479	0.672617	0.000040
 223	2.2089e+01	2.2061	-7.417912	0.000377	3.765815	0.637946	0.000038
 224	2.2189e+01	2.2129	-7.379621	0.000385	3.847681	0.651815	0.000038
 225	2.2288e+01	2.2259	-7.340924	0.000389	3.888613	0.658749	0.000039
 226	2.2387e+01	2.2340	-7.300597	0.000405	4.052345	0.686486	0.000041
 227	2.2487e+01	2.2454	-7.262307	0.000385	3.847681	0.651815	0.000038
 228	2.2587e+01	2.2569	-7.225646	0.000368	3.683950	0.624078	0.000037
 229	2.2686e+01	2.2637	-7.189392	0.000364	3.643017	0.617144	0.000036
 230	2.2785e+01	2.2728	-7.151917	0.000377	3.765815	0.637946	0.000038
 231	2.2885e+01	2.2849	-7.116885	0.000352	3.520219	0.596341	0.000035
 232	2.2985e+01	2.2949	-7.079817	0.000372	3.724882	0.631012	0.000037
 233	2.3084e+01	2.3046	-7.042342	0.000377	3.765815	0.637946	0.000038
 234	2.3183e+01	2.3125	-7.010976	0.000315	3.151824	0.533933	0.000032
 235	2.3283e+01	2.3228	-6.974315	0.000368	3.683950	0.624078	0.000037
 236	2.3383e+01	2.3323	-6.931545	0.000430	4.297941	0.728091	0.000043
 237	2.3482e+01	2.3431	-6.897735	0.000340	3.397420	0.575539	0.000034
 238	2.3581e+01	2.3561	-6.858223	0.000397	3.970479	0.672617	0.000040
 239	2.3681e+01	2.3652	-6.825635	0.000327	3.274622	0.554736	0.000033
 240	2.3780e+01	2.3771	-6.784901	0.000409	4.093277	0.693420	0.000041
 241	2.3880e+01	2.3850	-6.748240	0.000368	3.683950	0.624078	0.000037
 242	2.3980e+01	2.3934	-6.713616	0.000348	3.479286	0.589407	0.000035
 243	2.4079e+01	2.4051	-6.675733	0.000381	3.806748	0.644881	0.000038
 244	2.4178e+01	2.4146	-6.639480	0.000364	3.643017	0.617144	0.000036
 245	2.4278e+01	2.4232	-6.602819	0.000368	3.683950	0.624078	0.000037
 246	2.4378e+01	2.4339	-6.569417	0.000336	3.356487	0.568604	0.000034
 247	2.4477e+01	2.4451	-6.533164	0.000364	3.643017	0.617144	0.000036
 248	2.4576e+01	2.4555	-6.498132	0.000352	3.520219	0.596341	0.000035
 249	2.4676e+01	2.4671	-6.457805	0.000405	4.052345	0.686486	0.000041
 250	2.4776e+01	2.4741	-6.422774	0.000352	3.520219	0.596341	0.000035
 251	2.4875e+01	2.4848	-6.384483	0.000385	3.847681	0.651815	0.000038
 252	2.4974e+01	2.4915	-6.351489	0.000332	3.315555	0.561670	0.000033
 253	2.5074e+01	2.5014	-6.314828	0.000368	3.683950	0.624078	0.000037
 254	2.5174e+01	2.5124	-6.274094	0.000409	4.093277	0.693420	0.000041
 255	2.5273e+01	2.5251	-6.240692	0.000336	3.356487	0.568604	0.000034
 256	2.5372e+01	2.5311	-6.203623	0.000372	3.724882	0.631012	0.000037
 257	2.5472e+01	2.5419	-6.171036	0.000327	3.274622	0.554736	0.000033
 258	2.5572e+01	2.5532	-6.131116	0.000401	4.011412	0.679552	0.000040
 259	2.5671e+01	2.5595	-6.101788	0.000295	2.947160	0.499262	0.000029
 260	2.5770e+01	2.5747	-6.063905	0.000381	3.806748	0.644881	0.000038
 261	2.5870e+01	2.5854	-6.028059	0.000360	3.602084	0.610210	0.000036
 262	2.5970e+01	2.5918	-5.993842	0.000344	3.438353	0.582473	0.000034
 263	2.6069e+01	2.6031	-5.960847	0.000332	3.315555	0.561670	0.000033
 264	2.6169e+01	2.6125	-5.927038	0.000340	3.397420	0.575539	0.000034
 265	2.6268e+01	2.6242	-5.891192	0.000360	3.602084	0.610210	0.000036
 266	2.6367e+01	2.6356	-5.855753	0.000356	3.561151	0.603275	0.000036
 267	2.6467e+01	2.6403	-5.827239	0.000287	2.865294	0.485394	0.000029
 268	2.6567e+01	2.6536	-5.790171	0.000372	3.724882	0.631012	0.000037
 269	2.6666e+01	2.6609	-5.760027	0.000303	3.029025	0.513131	0.000030
 270	2.6765e+01	2.6721	-5.720108	0.000401	4.011412	0.679552	0.000040
 271	2.6865e+01	2.6812	-5.689557	0.000307	3.069958	0.520065	0.000031
 272	2.6965e+01	2.6922	-5.654933	0.000348	3.479286	0.589407	0.000035
 273	2.7064e+01	2.7007	-5.619087	0.000360	3.602084	0.610210	0.000036
 274	2.7163e+01	2.7130	-5.591388	0.000278	2.783429	0.471526	0.000028
 275	2.7263e+01	2.7222	-5.557171	0.000344	3.438353	0.582473	0.000034
 276	2.7363e+01	2.7331	-5.524583	0.000327	3.274622	0.554736	0.000033
 277	2.7462e+01	2.7402	-5.494033	0.000307	3.069958	0.520065	0.000031
 278	2.7561e+01	2.7542	-5.460223	0.000340	3.397420	0.575539	0.000034
 279	2.7661e+01	2.7634	-5.424377	0.000360	3.602084	0.610210	0.000036
 280	2.7761e+01	2.7717	-5.393012	0.000315	3.151824	0.533933	0.000032
 281	2.7860e+01	2.7840	-5.355129	0.000381	3.806748	0.644881	0.000038
 282	2.7959e+01	2.7987	-5.324578	0.000307	3.069958	0.520065	0.000031
 283	2.8059e+01	2.8021	-5.287103	0.000377	3.765815	0.637946	0.000038
 284	2.8159e+01	2.8112	-5.254515	0.000327	3.274622	0.554736	0.000033
 285	2.8258e+01	2.8226	-5.224372	0.000303	3.029025	0.513131	0.000030
 286	2.8358e+01	2.8318	-5.188526	0.000360	3.602084	0.610210	0.000036
 287	2.8457e+01	2.8423	-5.154716	0.000340	3.397420	0.575539	0.000034
 288	2.8556e+01	2.8536	-5.122129	0.000327	3.274622	0.554736	0.000033
 289	2.8656e+01	2.8631	-5.084653	0.000377	3.765815	0.637946	0.000038
 290	2.8756e+01	2.8706	-5.051251	0.000336	3.356487	0.568604	0.000034
 291	2.8855e+01	2.8825	-5.015405	0.000360	3.602084	0.610210	0.000036
 292	2.8954e+01	2.8942	-4.981596	0.000340	3.397420	0.575539	0.000034
 293	2.9054e+01	2.9040	-4.942898	0.000389	3.888613	0.658749	0.000039
 294	2.9154e+01	2.9130	-4.907052	0.000360	3.602084	0.610210	0.000036
 295	2.9253e+01	2.9198	-4.872021	0.000352	3.520219	0.596341	0.000035
 296	2.9352e+01	2.9325	-4.835767	0.000364	3.643017	0.617144	0.000036
 297	2.9452e+01	2.9406	-4.796255	0.000397	3.970479	0.672617	0.000040
 298	2.9552e+01	2.9502	-4.763667	0.000327	3.274622	0.554736	0.000033
 299	2.9651e+01	2.9603	-4.725785	0.000381	3.806748	0.644881	0.000038
 300	2.9750e+01	2.9700	-4.686272	0.000397	3.970479	0.672617	0.000040
 301	2.9850e+01	2.9819	-4.654092	0.000323	3.233689	0.547802	0.000032
 302	2.9950e+01	2.9876	-4.617024	0.000372	3.724882	0.631012	0.000037
 303	3.0049e+01	3.0018	-4.579141	0.000381	3.806748	0.644881	0.000038
 304	3.0148e+01	3.0120	-4.542480	0.000368	3.683950	0.624078	0.000037
 305	3.0248e+01	3.0206	-4.507042	0.000356	3.561151	0.603275	0.000036
 306	3.0348e+01	3.0308	-4.472825	0.000344	3.438353	0.582473	0.000034
 307	3.0447e+01	3.0456	-4.432905	0.000401	4.011412	0.679552	0.000040
 308	3.0547e+01	3.0522	-4.395837	0.000372	3.724882	0.631012	0.000037
 309	3.0646e+01	3.0608	-4.361620	0.000344	3.438353	0.582473	0.000034
 310	3.0745e+01	3.0712	-4.321701	0.000401	4.011412	0.679552	0.000040
 311	3.0845e+01	3.0804	-4.288299	0.000336	3.356487	0.568604	0.000034
 312	3.0945e+01	3.0909	-4.250823	0.000377	3.765815	0.637946	0.000038
 313	3.1044e+01	3.1017	-4.212126	0.000389	3.888613	0.658749	0.000039
 314	3.1143e+01	3.1111	-4.176687	0.000356	3.561151	0.603275	0.000036
 315	3.1243e+01	3.1213	-4.140026	0.000368	3.683950	0.624078	0.000037
 316	3.1343e+01	3.1297	-4.099699	0.000405	4.052345	0.686486	0.000041
 317	3.1442e+01	3.1428	-4.063446	0.000364	3.643017	0.617144	0.000036
 318	3.1541e+01	3.1504	-4.026785	0.000368	3.683950	0.624078	0.000037
 319	3.1641e+01	3.1615	-3.986458	0.000405	4.052345	0.686486	0.000041
 320	3.1741e+01	3.1712	-3.951426	0.000352	3.520219	0.596341	0.000035
 321	3.1840e+01	3.1812	-3.917210	0.000344	3.438353	0.582473	0.000034
 322	3.1939e+01	3.1882	-3.881771	0.000356	3.561151	0.603275	0.000036
 323	3.2039e+01	3.2003	-3.841037	0.000409	4.093277	0.693420	0.000041
 324	3.2139e+01	3.2114	-3.800302	0.000409	4.093277	0.693420	0.000041
 325	3.2238e+01	3.2211	-3.765271	0.000352	3.520219	0.596341	0.000035
 326	3.2337e+01	3.2279	-3.726573	0.000389	3.888613	0.658749	0.000039
 327	3.2437e+01	3.2395	-3.691135	0.000356	3.561151	0.603275	0.000036
 328	3.2536e+01	3.2507	-3.649993	0.000413	4.134210	0.700354	0.000041
 329	3.2636e+01	3.2616	-3.614554	0.000356	3.561151	0.603275	0.000036
 330	3.2736e+01	3.2696	-3.578708	0.000360	3.602084	0.610210	0.000036
 331	3.2835e+01	3.2799	-3.539603	0.000393	3.929546	0.665683	0.000039
 332	3.2934e+01	3.2899	-3.505794	0.000340	3.397420	0.575539	0.000034
 333	3.3034e+01	3.2974	-3.463430	0.000426	4.257008	0.721157	0.000043
 334	3.3133e+01	3.3096	-3.424733	0.000389	3.888613	0.658749	0.000039
 335	3.3233e+01	3.3193	-3.390108	0.000348	3.479286	0.589407	0.000035
 336	3.3333e+01	3.3297	-3.352633	0.000377	3.765815	0.637946	0.000038
 337	3.3432e+01	3.3378	-3.317601	0.000352	3.520219	0.596341	0.000035
 338	3.3532e+01	3.3483	-3.282163	0.000356	3.561151	0.603275	0.000036
 339	3.3631e+01	3.3595	-3.243465	0.000389	3.888613	0.658749	0.000039
 340	3.3730e+01	3.3722	-3.205582	0.000381	3.806748	0.644881	0.000038
 341	3.3830e+01	3.3814	-3.169736	0.000360	3.602084	0.610210	0.000036
 342	3.3929e+01	3.3891	-3.134297	0.000356	3.561151	0.603275	0.000036
 343	3.4029e+01	3.4003	-3.093563	0.000409	4.093277	0.693420	0.000041
 344	3.4129e+01	3.4084	-3.056902	0.000368	3.683950	0.624078	0.000037
 345	3.4228e+01	3.4176	-3.016168	0.000409	4.093277	0.693420	0.000041
 346	3.4328e+01	3.4296	-2.980322	0.000360	3.602084	0.610210	0.000036
 347	3.4427e+01	3.4377	-2.940810	0.000397	3.970479	0.672617	0.000040
 348	3.4526e+01	3.4471	-2.903334	0.000377	3.765815	0.637946	0.000038
 349	3.4626e+01	3.4594	-2.867081	0.000364	3.643017	0.617144	0.000036
 350	3.4725e+01	3.4666	-2.823902	0.000434	4.338874	0.735025	0.000043
 351	3.4825e+01	3.4792	-2.788056	0.000360	3.602084	0.610210	0.000036
 352	3.4925e+01	3.4879	-2.747729	0.000405	4.052345	0.686486	0.000041
 353	3.5024e+01	3.4989	-2.715956	0.000319	3.192756	0.540868	0.000032
 354	3.5123e+01	3.5058	-2.672778	0.000434	4.338874	0.735025	0.000043
 355	3.5223e+01	3.5185	-2.633673	0.000393	3.929546	0.665683	0.000039
 356	3.5322e+01	3.5317	-2.594568	0.000393	3.929546	0.665683	0.000039
 357	3.5422e+01	3.5392	-2.556278	0.000385	3.847681	0.651815	0.000038
 358	3.5522e+01	3.5482	-2.511878	0.000446	4.461672	0.755828	0.000045
 359	3.5621e+01	3.5586	-2.475624	0.000364	3.643017	0.617144	0.000036
 360	3.5721e+01	3.5691	-2.436927	0.000389	3.888613	0.658749	0.000039
 361	3.5820e+01	3.5796	-2.392526	0.000446	4.461672	0.755828	0.000045
 362	3.5919e+01	3.5875	-2.352607	0.000401	4.011412	0.679552	0.000040
 363	3.6019e+01	3.5972	-2.315946	0.000368	3.683950	0.624078	0.000037
 364	3.6118e+01	3.6074	-2.278063	0.000381	3.806748	0.644881	0.000038
 365	3.6218e+01	3.6189	-2.240180	0.000381	3.806748	0.644881	0.000038
 366	3.6318e+01	3.6292	-2.202705	0.000377	3.765815	0.637946	0.000038
 367	3.6417e+01	3.6388	-2.166044	0.000368	3.683950	0.624078	0.000037
 368	3.6517e+01	3.6488	-2.129791	0.000364	3.643017	0.617144	0.000036
 369	3.6616e+01	3.6604	-2.089464	0.000405	4.052345	0.686486	0.000041
 370	3.6715e+01	3.6681	-2.053210	0.000364	3.643017	0.617144	0.000036
 371	3.6815e+01	3.6777	-2.010032	0.000434	4.338874	0.735025	0.000043
 372	3.6914e+01	3.6871	-1.975000	0.000352	3.520219	0.596341	0.000035
 373	3.7014e+01	3.7000	-1.940376	0.000348	3.479286	0.589407	0.000035
 374	3.7114e+01	3.7093	-1.902493	0.000381	3.806748	0.644881	0.000038
 375	3.7213e+01	3.7187	-1.862166	0.000405	4.052345	0.686486	0.000041
 376	3.7313e+01	3.7302	-1.828357	0.000340	3.397420	0.575539	0.000034
 377	3.7412e+01	3.7362	-1.793733	0.000348	3.479286	0.589407	0.000035
 378	3.7511e+01	3.7470	-1.759923	0.000340	3.397420	0.575539	0.000034
 379	3.7611e+01	3.7579	-1.726114	0.000340	3.397420	0.575539	0.000034
 380	3.7711e+01	3.7682	-1.691083	0.000352	3.520219	0.596341	0.000035
 381	3.7810e+01	3.7764	-1.654422	0.000368	3.683950	0.624078	0.000037
 382	3.7910e+01	3.7884	-1.622242	0.000323	3.233689	0.547802	0.000032
 383	3.8009e+01	3.7981	-1.588025	0.000344	3.438353	0.582473	0.000034
 384	3.8108e+01	3.8071	-1.554216	0.000340	3.397420	0.575539	0.000034
 385	3.8208e+01	3.8189	-1.518369	0.000360	3.602084	0.610210	0.000036
 386	3.8307e+01	3.8242	-1.484153	0.000344	3.438353	0.582473	0.000034
 387	3.8407e+01	3.8364	-1.448714	0.000356	3.561151	0.603275	0.000036
 388	3.8507e+01	3.8469	-1.415719	0.000332	3.315555	0.561670	0.000033
 389	3.8606e+01	3.8555	-1.381910	0.000340	3.397420	0.575539	0.000034
 390	3.8706e+01	3.8686	-1.348100	0.000340	3.397420	0.575539	0.000034
 391	3.8805e+01	3.8763	-1.314698	0.000336	3.356487	0.568604	0.000034
 392	3.8904e+01	3.8885	-1.278852	0.000360	3.602084	0.610210	0.000036
 393	3.9004e+01	3.9002	-1.245043	0.000340	3.397420	0.575539	0.000034
 394	3.9103e+01	3.9066	-1.212455	0.000327	3.274622	0.554736	0.000033
 395	3.9203e+01	3.9161	-1.177016	0.000356	3.561151	0.603275	0.000036
 396	3.9303e+01	3.9257	-1.141985	0.000352	3.520219	0.596341	0.000035
 397	3.9402e+01	3.9382	-1.111434	0.000307	3.069958	0.520065	0.000031
 398	3.9502e+01	3.9425	-1.077625	0.000340	3.397420	0.575539	0.000034
 399	3.9601e+01	3.9569	-1.044630	0.000332	3.315555	0.561670	0.000033
 400	3.9700e+01	3.9706	-1.013265	0.000315	3.151824	0.533933	0.000032
 401	3.9800e+01	3.9750	-0.980677	0.000327	3.274622	0.554736	0.000033
 402	3.9900e+01	3.9855	-0.947682	0.000332	3.315555	0.561670	0.000033
 403	3.9999e+01	3.9975	-0.912244	0.000356	3.561151	0.603275	0.000036
 404	4.0099e+01	4.0057	-0.882100	0.000303	3.029025	0.513131	0.000030
 405	4.0198e+01	4.0150	-0.849920	0.000323	3.233689	0.547802	0.000032
 406	4.0297e+01	4.0276	-0.814074	0.000360	3.602084	0.610210	0.000036
 407	4.0397e+01	4.0350	-0.783931	0.000303	3.029025	0.513131	0.000030
 408	4.0496e+01	4.0447	-0.749307	0.000348	3.479286	0.589407	0.000035
 409	4.0596e+01	4.0572	-0.717534	0.000319	3.192756	0.540868	0.000032
 410	4.0696e+01	4.0659	-0.682502	0.000352	3.520219	0.596341	0.000035
 411	4.0795e+01	4.0768	-0.650730	0.000319	3.192756	0.540868	0.000032
 412	4.0895e+01	4.0865	-0.618957	0.000319	3.192756	0.540868	0.000032
 413	4.0994e+01	4.0932	-0.587184	0.000319	3.192756	0.540868	0.000032
 414	4.1093e+01	4.1057	-0.558263	0.000291	2.906227	0.492328	0.000029
 415	4.1193e+01	4.1166	-0.523639	0.000348	3.479286	0.589407	0.000035
 416	4.1292e+01	4.1273	-0.495125	0.000287	2.865294	0.485394	0.000029
 417	4.1392e+01	4.1350	-0.458057	0.000372	3.724882	0.631012	0.000037
 418	4.1492e+01	4.1442	-0.429543	0.000287	2.865294	0.485394	0.000029
 419	4.1591e+01	4.1584	-0.395733	0.000340	3.397420	0.575539	0.000034
 420	4.1691e+01	4.1657	-0.367219	0.000287	2.865294	0.485394	0.000029
 421	4.1790e+01	4.1771	-0.330966	0.000364	3.643017	0.617144	0.000036
 422	4.1889e+01	4.1857	-0.295934	0.000352	3.520219	0.596341	0.000035
 423	4.1989e+01	4.1984	-0.264569	0.000315	3.151824	0.533933	0.000032
 424	4.2089e+01	4.2060	-0.229945	0.000348	3.479286	0.589407	0.000035
 425	4.2188e+01	4.2119	-0.203468	0.000266	2.660630	0.450723	0.000027
 426	4.2288e+01	4.2252	-0.168843	0.000348	3.479286	0.589407	0.000035
 427	4.2387e+01	4.2345	-0.138700	0.000303	3.029025	0.513131	0.000030
 428	4.2486e+01	4.2439	-0.108964	0.000299	2.988092	0.506197	0.000030
 429	4.2586e+01	4.2546	-0.073933	0.000352	3.520219	0.596341	0.000035
 430	4.2685e+01	4.2625	-0.045826	0.000282	2.824361	0.478460	0.000028
 431	4.2785e+01	4.2754	-0.014461	0.000315	3.151824	0.533933	0.000032
 432	4.2885e+01	4.2818	0.014461	0.000291	2.906227	0.492328	0.000029
 433	4.2984e+01	4.2942	0.042567	0.000282	2.824361	0.478460	0.000028
 434	4.3084e+01	4.3031	0.076784	0.000344	3.438353	0.582473	0.000034
 435	4.3183e+01	4.3153	0.105705	0.000291	2.906227	0.492328	0.000029
 436	4.3282e+01	4.3262	0.135441	0.000299	2.988092	0.506197	0.000030
 437	4.3382e+01	4.3340	0.164770	0.000295	2.947160	0.499262	0.000029
 438	4.3481e+01	4.3458	0.197765	0.000332	3.315555	0.561670	0.000033
 439	4.3581e+01	4.3542	0.228723	0.000311	3.110891	0.526999	0.000031
 440	4.3681e+01	4.3646	0.252349	0.000237	2.374101	0.402184	0.000024
 441	4.3780e+01	4.3749	0.282492	0.000303	3.029025	0.513131	0.000030
 442	4.3880e+01	4.3864	0.310191	0.000278	2.783429	0.471526	0.000028
 443	4.3979e+01	4.3929	0.337076	0.000270	2.701563	0.457657	0.000027
 444	4.4078e+01	4.4041	0.366812	0.000299	2.988092	0.506197	0.000030
 445	4.4178e+01	4.4151	0.393697	0.000270	2.701563	0.457657	0.000027
 446	4.4278e+01	4.4231	0.424655	0.000311	3.110891	0.526999	0.000031
 447	4.4377e+01	4.4344	0.451947	0.000274	2.742496	0.464591	0.000027
 448	4.4477e+01	4.4447	0.481683	0.000299	2.988092	0.506197	0.000030
 449	4.4576e+01	4.4553	0.511419	0.000299	2.988092	0.506197	0.000030
 450	4.4675e+01	4.4634	0.543599	0.000323	3.233689	0.547802	0.000032
 451	4.4775e+01	4.4768	0.575779	0.000323	3.233689	0.547802	0.000032
 452	4.4874e+01	4.4837	0.606737	0.000311	3.110891	0.526999	0.000031
 453	4.4974e+01	4.4933	0.637287	0.000307	3.069958	0.520065	0.000031
 454	4.5074e+01	4.5027	0.662135	0.000250	2.496899	0.422986	0.000025
 455	4.5173e+01	4.5174	0.695130	0.000332	3.315555	0.561670	0.000033
 456	4.5273e+01	4.5238	0.723644	0.000287	2.865294	0.485394	0.000029
 457	4.5372e+01	4.5348	0.755009	0.000315	3.151824	0.533933	0.000032
 458	4.5471e+01	4.5449	0.790448	0.000356	3.561151	0.603275	0.000036
 459	4.5571e+01	4.5535	0.819777	0.000295	2.947160	0.499262	0.000029
 460	4.5670e+01	4.5635	0.851957	0.000323	3.233689	0.547802	0.000032
 461	4.5770e+01	4.5731	0.884952	0.000332	3.315555	0.561670	0.000033
 462	4.5870e+01	4.5834	0.918761	0.000340	3.397420	0.575539	0.000034
 463	4.5969e+01	4.5943	0.948904	0.000303	3.029025	0.513131	0.000030
 464	4.6069e+01	4.6026	0.980677	0.000319	3.192756	0.540868	0.000032
 465	4.6168e+01	4.6137	1.013672	0.000332	3.315555	0.561670	0.000033
 466	4.6267e+01	4.6243	1.046259	0.000327	3.274622	0.554736	0.000033
 467	4.6367e+01	4.6338	1.073551	0.000274	2.742496	0.464591	0.000027
 468	4.6467e+01	4.6418	1.109805	0.000364	3.643017	0.617144	0.000036
 469	4.6566e+01	4.6520	1.143614	0.000340	3.397420	0.575539	0.000034
 470	4.6666e+01	4.6644	1.175387	0.000319	3.192756	0.540868	0.000032
 471	4.6765e+01	4.6726	1.209604	0.000344	3.438353	0.582473	0.000034
 472	4.6864e+01	4.6815	1.240562	0.000311	3.110891	0.526999	0.000031
 473	4.6964e+01	4.6941	1.275186	0.000348	3.479286	0.589407	0.000035
 474	4.7063e+01	4.7049	1.310625	0.000356	3.561151	0.603275	0.000036
 475	4.7163e+01	4.7134	1.341175	0.000307	3.069958	0.520065	0.000031
 476	4.7263e+01	4.7219	1.374985	0.000340	3.397420	0.575539	0.000034
 477	4.7362e+01	4.7350	1.404721	0.000299	2.988092	0.506197	0.000030
 478	4.7462e+01	4.7427	1.439345	0.000348	3.479286	0.589407	0.000035
 479	4.7561e+01	4.7552	1.470303	0.000311	3.110891	0.526999	0.000031
 480	4.7660e+01	4.7637	1.502483	0.000323	3.233689	0.547802	0.000032
 481	4.7760e+01	4.7729	1.537922	0.000356	3.561151	0.603275	0.000036
 482	4.7859e+01	4.7826	1.570917	0.000332	3.315555	0.561670	0.000033
 483	4.7959e+01	4.7923	1.603911	0.000332	3.315555	0.561670	0.000033
 484	4.8059e+01	4.8037	1.638128	0.000344	3.438353	0.582473	0.000034
 485	4.8158e+01	4.8127	1.669901	0.000319	3.192756	0.540868	0.000032
 486	4.8258e+01	4.8231	1.704525	0.000348	3.479286	0.589407	0.000035
 487	4.8357e+01	4.8331	1.737927	0.000336	3.356487	0.568604	0.000034
 488	4.8456e+01	4.8449	1.774995	0.000372	3.724882	0.631012	0.000037
 489	4.8556e+01	4.8531	1.803102	0.000282	2.824361	0.478460	0.000028
 490	4.8656e+01	4.8629	1.837726	0.000348	3.479286	0.589407	0.000035
 491	4.8755e+01	4.8717	1.870721	0.000332	3.315555	0.561670	0.000033
 492	4.8855e+01	4.8820	1.902493	0.000319	3.192756	0.540868	0.000032
 493	4.8954e+01	4.8931	1.936303	0.000340	3.397420	0.575539	0.000034
 494	4.9053e+01	4.9036	1.972556	0.000364	3.643017	0.617144	0.000036
 495	4.9153e+01	4.9113	2.007180	0.000348	3.479286	0.589407	0.000035
 496	4.9252e+01	4.9206	2.038546	0.000315	3.151824	0.533933	0.000032
 497	4.9352e+01	4.9317	2.072763	0.000344	3.438353	0.582473	0.000034
 498	4.9452e+01	4.9410	2.105350	0.000327	3.274622	0.554736	0.000033
 499	4.9551e+01	4.9523	2.140381	0.000352	3.520219	0.596341	0.000035
 500	4.9651e+01	4.9630	2.172154	0.000319	3.192756	0.540868	0.000032
 501	4.9750e+01	4.9720	2.206371	0.000344	3.438353	0.582473	0.000034
 502	4.9849e+01	4.9810	2.239366	0.000332	3.315555	0.561670	0.000033
 503	4.9949e+01	4.9928	2.273990	0.000348	3.479286	0.589407	0.000035
 504	5.0048e+01	5.0021	2.305355	0.000315	3.151824	0.533933	0.000032
 505	5.0148e+01	5.0117	2.340387	0.000352	3.520219	0.596341	0.000035
 506	5.0248e+01	5.0195	2.370937	0.000307	3.069958	0.520065	0.000031
 507	5.0347e+01	5.0335	2.404747	0.000340	3.397420	0.575539	0.000034
 508	5.0447e+01	5.0426	2.438556	0.000340	3.397420	0.575539	0.000034
 509	5.0546e+01	5.0506	2.470329	0.000319	3.192756	0.540868	0.000032
 510	5.0645e+01	5.0634	2.506582	0.000364	3.643017	0.617144	0.000036
 511	5.0745e+01	5.0697	2.537540	0.000311	3.110891	0.526999	0.000031
 512	5.0844e+01	5.0784	2.570128	0.000327	3.274622	0.554736	0.000033
 513	5.0944e+01	5.0938	2.605159	0.000352	3.520219	0.596341	0.000035
 514	5.1044e+01	5.1017	2.643857	0.000389	3.888613	0.658749	0.000039
 515	5.1143e+01	5.1109	2.675630	0.000319	3.192756	0.540868	0.000032
 516	5.1242e+01	5.1215	2.713105	0.000377	3.765815	0.637946	0.000038
 517	5.1342e+01	5.1286	2.744878	0.000319	3.192756	0.540868	0.000032
 518	5.1441e+01	5.1426	2.781946	0.000372	3.724882	0.631012	0.000037
 519	5.1541e+01	5.1533	2.814533	0.000327	3.274622	0.554736	0.000033
 520	5.1641e+01	5.1604	2.850380	0.000360	3.602084	0.610210	0.000036
 521	5.1740e+01	5.1700	2.880523	0.000303	3.029025	0.513131	0.000030
 522	5.1840e+01	5.1775	2.913110	0.000327	3.274622	0.554736	0.000033
 523	5.1939e+01	5.1897	2.949364	0.000364	3.643017	0.617144	0.000036
 524	5.2038e+01	5.1994	2.986839	0.000377	3.765815	0.637946	0.000038
 525	5.2138e+01	5.2079	3.024722	0.000381	3.806748	0.644881	0.000038
 526	5.2237e+01	5.2200	3.062605	0.000381	3.806748	0.644881	0.000038
 527	5.2337e+01	5.2306	3.097229	0.000348	3.479286	0.589407	0.000035
 528	5.2437e+01	5.2364	3.133075	0.000360	3.602084	0.610210	0.000036
 529	5.2536e+01	5.2499	3.173809	0.000409	4.093277	0.693420	0.000041
 530	5.2636e+01	5.2612	3.207212	0.000336	3.356487	0.568604	0.000034
 531	5.2735e+01	5.2682	3.241021	0.000340	3.397420	0.575539	0.000034
 532	5.2834e+01	5.2770	3.274830	0.000340	3.397420	0.575539	0.000034
 533	5.2934e+01	5.2888	3.309862	0.000352	3.520219	0.596341	0.000035
 534	5.3033e+01	5.3008	3.341635	0.000319	3.192756	0.540868	0.000032
 535	5.3133e+01	5.3076	3.376666	0.000352	3.520219	0.596341	0.000035
 536	5.3233e+01	5.3170	3.411698	0.000352	3.520219	0.596341	0.000035
 537	5.3332e+01	5.3310	3.445914	0.000344	3.438353	0.582473	0.000034
 538	5.3431e+01	5.3408	3.480538	0.000348	3.479286	0.589407	0.000035
 539	5.3531e+01	5.3497	3.511904	0.000315	3.151824	0.533933	0.000032
 540	5.3630e+01	5.3561	3.546121	0.000344	3.438353	0.582473	0.000034
 541	5.3730e+01	5.3690	3.579115	0.000332	3.315555	0.561670	0.000033
 542	5.3830e+01	5.3801	3.610481	0.000315	3.151824	0.533933	0.000032
 543	5.3929e+01	5.3912	3.642661	0.000323	3.233689	0.547802	0.000032
 544	5.4029e+01	5.4015	3.676063	0.000336	3.356487	0.568604	0.000034
 545	5.4128e+01	5.4095	3.709058	0.000332	3.315555	0.561670	0.000033
 546	5.4227e+01	5.4185	3.739608	0.000307	3.069958	0.520065	0.000031
 547	5.4327e+01	5.4282	3.769752	0.000303	3.029025	0.513131	0.000030
 548	5.4426e+01	5.4365	3.802339	0.000327	3.274622	0.554736	0.000033
 549	5.4526e+01	5.4491	3.834519	0.000323	3.233689	0.547802	0.000032
 550	5.4626e+01	5.4595	3.863848	0.000295	2.947160	0.499262	0.000029
 551	5.4725e+01	5.4711	3.895620	0.000319	3.192756	0.540868	0.000032
 552	5.4825e+01	5.4786	3.923727	0.000282	2.824361	0.478460	0.000028
 553	5.4924e+01	5.4870	3.955907	0.000323	3.233689	0.547802	0.000032
 554	5.5023e+01	5.5004	3.985643	0.000299	2.988092	0.506197	0.000030
 555	5.5123e+01	5.5079	4.015379	0.000299	2.988092	0.506197	0.000030
 556	5.5222e+01	5.5198	4.044708	0.000295	2.947160	0.499262	0.000029
 557	5.5322e+01	5.5308	4.078517	0.000340	3.397420	0.575539	0.000034
 558	5.5422e+01	5.5391	4.109068	0.000307	3.069958	0.520065	0.000031
 559	5.5521e+01	5.5508	4.140841	0.000319	3.192756	0.540868	0.000032
 560	5.5620e+01	5.5579	4.169762	0.000291	2.906227	0.492328	0.000029
 561	5.5720e+01	5.5682	4.201942	0.000323	3.233689	0.547802	0.000032
 562	5.5819e+01	5.5791	4.228419	0.000266	2.660630	0.450723	0.000027
 563	5.5919e+01	5.5904	4.257341	0.000291	2.906227	0.492328	0.000029
 564	5.6019e+01	5.5984	4.288299	0.000311	3.110891	0.526999	0.000031
 565	5.6118e+01	5.6065	4.318442	0.000303	3.029025	0.513131	0.000030
 566	5.6218e+01	5.6191	4.344919	0.000266	2.660630	0.450723	0.000027
 567	5.6317e+01	5.6269	4.373433	0.000287	2.865294	0.485394	0.000029
 568	5.6416e+01	5.6388	4.404391	0.000311	3.110891	0.526999	0.000031
 569	5.6516e+01	5.6472	4.434535	0.000303	3.029025	0.513131	0.000030
 570	5.6615e+01	5.6553	4.464678	0.000303	3.029025	0.513131	0.000030
 571	5.6715e+01	5.6684	4.494007	0.000295	2.947160	0.499262	0.000029
 572	5.6815e+01	5.6792	4.522521	0.000287	2.865294	0.485394	0.000029
 573	5.6914e+01	5.6893	4.551442	0.000291	2.906227	0.492328	0.000029
 574	5.7014e+01	5.6989	4.581178	0.000299	2.988092	0.506197	0.000030
 575	5.7113e+01	5.7071	4.612136	0.000311	3.110891	0.526999	0.000031
 576	5.7212e+01	5.7143	4.637799	0.000258	2.578765	0.436855	0.000026
 577	5.7312e+01	5.7304	4.667127	0.000295	2.947160	0.499262	0.000029
 578	5.7411e+01	5.7377	4.694012	0.000270	2.701563	0.457657	0.000027
 579	5.7511e+01	5.7471	4.724155	0.000303	3.029025	0.513131	0.000030
 580	5.7611e+01	5.7586	4.752262	0.000282	2.824361	0.478460	0.000028
 581	5.7710e+01	5.7684	4.779961	0.000278	2.783429	0.471526	0.000028
 582	5.7809e+01	5.7787	4.809697	0.000299	2.988092	0.506197	0.000030
 583	5.7909e+01	5.7888	4.838211	0.000287	2.865294	0.485394	0.000029
 584	5.8008e+01	5.7964	4.867540	0.000295	2.947160	0.499262	0.000029
 585	5.8108e+01	5.8076	4.895646	0.000282	2.824361	0.478460	0.000028
 586	5.8208e+01	5.8172	4.920902	0.000254	2.537832	0.429920	0.000025
 587	5.8307e+01	5.8262	4.952674	0.000319	3.192756	0.540868	0.000032
 588	5.8407e+01	5.8392	4.983632	0.000311	3.110891	0.526999	0.000031
 589	5.8506e+01	5.8460	5.010110	0.000266	2.660630	0.450723	0.000027
 590	5.8605e+01	5.8575	5.037402	0.000274	2.742496	0.464591	0.000027
 591	5.8705e+01	5.8656	5.069582	0.000323	3.233689	0.547802	0.000032
 592	5.8804e+01	5.8764	5.098096	0.000287	2.865294	0.485394	0.000029
 593	5.8904e+01	5.8858	5.124980	0.000270	2.701563	0.457657	0.000027
 594	5.9004e+01	5.8974	5.153087	0.000282	2.824361	0.478460	0.000028
 595	5.9103e+01	5.9055	5.178750	0.000258	2.578765	0.436855	0.000026
 596	5.9203e+01	5.9174	5.206041	0.000274	2.742496	0.464591	0.000027
 597	5.9302e+01	5.9290	5.234963	0.000291	2.906227	0.492328	0.000029
 598	5.9401e+01	5.9365	5.262255	0.000274	2.742496	0.464591	0.000027
 599	5.9501e+01	5.9486	5.289139	0.000270	2.701563	0.457657	0.000027
 600	5.9600e+01	5.9547	5.313580	0.000246	2.455966	0.416052	0.000025
 601	5.9700e+01	5.9651	5.340465	0.000270	2.701563	0.457657	0.000027
 602	5.9800e+01	5.9780	5.367349	0.000270	2.701563	0.457657	0.000027
 603	5.9899e+01	5.9853	5.394234	0.000270	2.701563	0.457657	0.000027
 604	5.9998e+01	5.9965	5.422748	0.000287	2.865294	0.485394	0.000029
 605	6.0098e+01	6.0059	5.448003	0.000254	2.537832	0.429920	0.000025
 606	6.0197e+01	6.0157	5.474073	0.000262	2.619698	0.443789	0.000026
 607	6.0297e+01	6.0256	5.501772	0.000278	2.783429	0.471526	0.000028
 608	6.0397e+01	6.0378	5.526620	0.000250	2.496899	0.422986	0.000025
 609	6.0496e+01	6.0449	5.549839	0.000233	2.333168	0.395249	0.000023
 610	6.0596e+01	6.0552	5.575501	0.000258	2.578765	0.436855	0.000026
 611	6.0695e+01	6.0666	5.599534	0.000242	2.415034	0.409118	0.000024
 612	6.0794e+01	6.0781	5.623568	0.000242	2.415034	0.409118	0.000024
 613	6.0894e+01	6.0867	5.649230	0.000258	2.578765	0.436855	0.000026
 614	6.0993e+01	6.0949	5.673263	0.000242	2.415034	0.409118	0.000024
 615	6.1093e+01	6.1057	5.702592	0.000295	2.947160	0.499262	0.000029
 616	6.1193e+01	6.1187	5.729884	0.000274	2.742496	0.464591	0.000027
 617	6.1292e+01	6.1279	5.755954	0.000262	2.619698	0.443789	0.000026
 618	6.1392e+01	6.1361	5.785283	0.000295	2.947160	0.499262	0.000029
 619	6.1491e+01	6.1460	5.808094	0.000229	2.292235	0.388315	0.000023
 620	6.1590e+01	6.1568	5.834164	0.000262	2.619698	0.443789	0.000026
 621	6.1690e+01	6.1650	5.858604	0.000246	2.455966	0.416052	0.000025
 622	6.1789e+01	6.1759	5.886304	0.000278	2.783429	0.471526	0.000028
 623	6.1889e+01	6.1868	5.912373	0.000262	2.619698	0.443789	0.000026
 624	6.1989e+01	6.1980	5.939258	0.000270	2.701563	0.457657	0.000027
 625	6.2088e+01	6.2077	5.968587	0.000295	2.947160	0.499262	0.000029
 626	6.2188e+01	6.2159	5.997915	0.000295	2.947160	0.499262	0.000029
 627	6.2287e+01	6.2270	6.023578	0.000258	2.578765	0.436855	0.000026
 628	6.2386e+01	6.2356	6.052092	0.000287	2.865294	0.485394	0.000029
 629	6.2486e+01	6.2469	6.086716	0.000348	3.479286	0.589407	0.000035
 630	6.2586e+01	6.2527	6.111971	0.000254	2.537832	0.429920	0.000025
 631	6.2685e+01	6.2649	6.142115	0.000303	3.029025	0.513131	0.000030
 632	6.2785e+01	6.2749	6.169814	0.000278	2.783429	0.471526	0.000028
 633	6.2884e+01	6.2853	6.197921	0.000282	2.824361	0.478460	0.000028
 634	6.2983e+01	6.2969	6.230915	0.000332	3.315555	0.561670	0.000033
 635	6.3083e+01	6.3040	6.256578	0.000258	2.578765	0.436855	0.000026
 636	6.3182e+01	6.3163	6.285907	0.000295	2.947160	0.499262	0.000029
 637	6.3282e+01	6.3254	6.315235	0.000295	2.947160	0.499262	0.000029
 638	6.3382e+01	6.3371	6.347415	0.000323	3.233689	0.547802	0.000032
 639	6.3481e+01	6.3442	6.371041	0.000237	2.374101	0.402184	0.000024
 640	6.3581e+01	6.3549	6.402407	0.000315	3.151824	0.533933	0.000032
 641	6.3680e+01	6.3642	6.433365	0.000311	3.110891	0.526999	0.000031
 642	6.3779e+01	6.3729	6.461064	0.000278	2.783429	0.471526	0.000028
 643	6.3879e+01	6.3863	6.487134	0.000262	2.619698	0.443789	0.000026
 644	6.3978e+01	6.3943	6.518499	0.000315	3.151824	0.533933	0.000032
 645	6.4078e+01	6.4053	6.546606	0.000282	2.824361	0.478460	0.000028
 646	6.4177e+01	6.4135	6.579193	0.000327	3.274622	0.554736	0.000033
 647	6.4277e+01	6.4236	6.610151	0.000311	3.110891	0.526999	0.000031
 648	6.4376e+01	6.4349	6.636629	0.000266	2.660630	0.450723	0.000027
 649	6.4476e+01	6.4449	6.665550	0.000291	2.906227	0.492328	0.000029
 650	6.4576e+01	6.4532	6.696915	0.000315	3.151824	0.533933	0.000032
 651	6.4675e+01	6.4652	6.730725	0.000340	3.397420	0.575539	0.000034
 652	6.4775e+01	6.4720	6.758831	0.000282	2.824361	0.478460	0.000028
 653	6.4874e+01	6.4837	6.786938	0.000282	2.824361	0.478460	0.000028
 654	6.4974e+01	6.4931	6.817896	0.000311	3.110891	0.526999	0.000031
 655	6.5073e+01	6.5041	6.845188	0.000274	2.742496	0.464591	0.000027
 656	6.5172e+01	6.5116	6.877368	0.000323	3.233689	0.547802	0.000032
 657	6.5272e+01	6.5234	6.910770	0.000336	3.356487	0.568604	0.000034
 658	6.5371e+01	6.5337	6.933581	0.000229	2.292235	0.388315	0.000023
 659	6.5471e+01	6.5431	6.967391	0.000340	3.397420	0.575539	0.000034
 660	6.5570e+01	6.5517	6.993461	0.000262	2.619698	0.443789	0.000026
 661	6.5670e+01	6.5618	7.027677	0.000344	3.438353	0.582473	0.000034
 662	6.5769e+01	6.5736	7.058228	0.000307	3.069958	0.520065	0.000031
 663	6.5869e+01	6.5813	7.090001	0.000319	3.192756	0.540868	0.000032
 664	6.5969e+01	6.5936	7.121366	0.000315	3.151824	0.533933	0.000032
 665	6.6068e+01	6.6026	7.151917	0.000307	3.069958	0.520065	0.000031
 666	6.6168e+01	6.6135	7.182875	0.000311	3.110891	0.526999	0.000031
 667	6.6267e+01	6.6270	7.209352	0.000266	2.660630	0.450723	0.000027
 668	6.6367e+01	6.6338	7.241125	0.000319	3.192756	0.540868	0.000032
 669	6.6466e+01	6.6436	7.273712	0.000327	3.274622	0.554736	0.000033
 670	6.6566e+01	6.6538	7.299782	0.000262	2.619698	0.443789	0.000026
 671	6.6665e+01	6.6622	7.329518	0.000299	2.988092	0.506197	0.000030
 672	6.6764e+01	6.6726	7.360476	0.000311	3.110891	0.526999	0.000031
 673	6.6864e+01	6.6835	7.389805	0.000295	2.947160	0.499262	0.000029
 674	6.6963e+01	6.6917	7.421170	0.000315	3.151824	0.533933	0.000032
 675	6.7063e+01	6.7031	7.446426	0.000254	2.537832	0.429920	0.000025
 676	6.7162e+01	6.7123	7.476162	0.000299	2.988092	0.506197	0.000030
 677	6.7262e+01	6.7223	7.513637	0.000377	3.765815	0.637946	0.000038
 678	6.7362e+01	6.7329	7.539707	0.000262	2.619698	0.443789	0.000026
 679	6.7461e+01	6.7424	7.571072	0.000315	3.151824	0.533933	0.000032
 680	6.7561e+01	6.7497	7.604474	0.000336	3.356487	0.568604	0.000034
 681	6.7660e+01	6.7635	7.632988	0.000287	2.865294	0.485394	0.000029
 682	6.7760e+01	6.7702	7.665983	0.000332	3.315555	0.561670	0.000033
 683	6.7859e+01	6.7837	7.696534	0.000307	3.069958	0.520065	0.000031
 684	6.7959e+01	6.7931	7.731158	0.000348	3.479286	0.589407	0.000035
 685	6.8058e+01	6.8011	7.760487	0.000295	2.947160	0.499262	0.000029
 686	6.8157e+01	6.8116	7.791037	0.000307	3.069958	0.520065	0.000031
 687	6.8257e+01	6.8239	7.823625	0.000327	3.274622	0.554736	0.000033
 688	6.8356e+01	6.8306	7.853361	0.000299	2.988092	0.506197	0.000030
 689	6.8456e+01	6.8401	7.885948	0.000327	3.274622	0.554736	0.000033
 690	6.8555e+01	6.8519	7.913240	0.000274	2.742496	0.464591	0.000027
 691	6.8655e+01	6.8621	7.946235	0.000332	3.315555	0.561670	0.000033
 692	6.8754e+01	6.8735	7.981266	0.000352	3.520219	0.596341	0.000035
 693	6.8854e+01	6.8819	8.016298	0.000352	3.520219	0.596341	0.000035
 694	6.8954e+01	6.8900	8.050107	0.000340	3.397420	0.575539	0.000034
 695	6.9053e+01	6.9033	8.087175	0.000372	3.724882	0.631012	0.000037
 696	6.9153e+01	6.9117	8.117319	0.000303	3.029025	0.513131	0.000030
 697	6.9252e+01	6.9225	8.149091	0.000319	3.192756	0.540868	0.000032
 698	6.9352e+01	6.9299	8.180864	0.000319	3.192756	0.540868	0.000032
 699	6.9451e+01	6.9411	8.212637	0.000319	3.192756	0.540868	0.000032
 700	6.9550e+01	6.9485	8.243188	0.000307	3.069958	0.520065	0.000031
 701	6.9650e+01	6.9640	8.273331	0.000303	3.029025	0.513131	0.000030
 702	6.9749e+01	6.9718	8.301845	0.000287	2.865294	0.485394	0.000029
 703	6.9849e+01	6.9805	8.335247	0.000336	3.356487	0.568604	0.000034
 704	6.9948e+01	6.9931	8.361317	0.000262	2.619698	0.443789	0.000026
 705	7.0048e+01	7.0029	8.395126	0.000340	3.397420	0.575539	0.000034
 706	7.0147e+01	7.0108	8.426899	0.000319	3.192756	0.540868	0.000032
 707	7.0247e+01	7.0222	8.458264	0.000315	3.151824	0.533933	0.000032
 708	7.0347e+01	7.0301	8.489630	0.000315	3.151824	0.533933	0.000032
 709	7.0446e+01	7.0397	8.520995	0.000315	3.151824	0.533933	0.000032
 710	7.0546e+01	7.0504	8.549102	0.000282	2.824361	0.478460	0.000028
 711	7.0645e+01	7.0611	8.577616	0.000287	2.865294	0.485394	0.000029
 712	7.0745e+01	7.0696	8.607352	0.000299	2.988092	0.506197	0.000030
 713	7.0844e+01	7.0806	8.635866	0.000287	2.865294	0.485394	0.000029
 714	7.0944e+01	7.0904	8.659899	0.000242	2.415034	0.409118	0.000024
 715	7.1043e+01	7.0989	8.689228	0.000295	2.947160	0.499262	0.000029
 716	7.1142e+01	7.1109	8.719778	0.000307	3.069958	0.520065	0.000031
 717	7.1242e+01	7.1233	8.747070	0.000274	2.742496	0.464591	0.000027
 718	7.1341e+01	7.1291	8.771511	0.000246	2.455966	0.416052	0.000025
 719	7.1441e+01	7.1424	8.803691	0.000323	3.233689	0.547802	0.000032
 720	7.1540e+01	7.1494	8.829761	0.000262	2.619698	0.443789	0.000026
 721	7.1640e+01	7.1577	8.856645	0.000270	2.701563	0.457657	0.000027
 722	7.1740e+01	7.1680	8.882715	0.000262	2.619698	0.443789	0.000026
 723	7.1839e+01	7.1816	8.913673	0.000311	3.110891	0.526999	0.000031
 724	7.1939e+01	7.1893	8.941373	0.000278	2.783429	0.471526	0.000028
 725	7.2038e+01	7.1996	8.966628	0.000254	2.537832	0.429920	0.000025
 726	7.2138e+01	7.2089	8.996364	0.000299	2.988092	0.506197	0.000030
 727	7.2237e+01	7.2195	9.026915	0.000307	3.069958	0.520065	0.000031
 728	7.2337e+01	7.2308	9.051763	0.000250	2.496899	0.422986	0.000025
 729	7.2436e+01	7.2398	9.078647	0.000270	2.701563	0.457657	0.000027
 730	7.2535e+01	7.2506	9.100236	0.000217	2.169437	0.367513	0.000022
 731	7.2635e+01	7.2582	9.130380	0.000303	3.029025	0.513131	0.000030
 732	7.2734e+01	7.2717	9.158486	0.000282	2.824361	0.478460	0.000028
 733	7.2834e+01	7.2796	9.187000	0.000287	2.865294	0.485394	0.000029
 734	7.2933e+01	7.2916	9.215107	0.000282	2.824361	0.478460	0.000028
 735	7.3033e+01	7.3001	9.235881	0.000209	2.087571	0.353644	0.000021
 736	7.3132e+01	7.3066	9.262766	0.000270	2.701563	0.457657	0.000027
 737	7.3232e+01	7.3211	9.290465	0.000278	2.783429	0.471526	0.000028
 738	7.3332e+01	7.3285	9.314906	0.000246	2.455966	0.416052	0.000025
 739	7.3431e+01	7.3400	9.340976	0.000262	2.619698	0.443789	0.000026
 740	7.3531e+01	7.3495	9.369897	0.000291	2.906227	0.492328	0.000029
 741	7.3630e+01	7.3595	9.397189	0.000274	2.742496	0.464591	0.000027
 742	7.3730e+01	7.3687	9.418371	0.000213	2.128504	0.360578	0.000021
 743	7.3829e+01	7.3785	9.446885	0.000287	2.865294	0.485394	0.000029
 744	7.3928e+01	7.3920	9.474991	0.000282	2.824361	0.478460	0.000028
 745	7.4028e+01	7.3950	9.500247	0.000254	2.537832	0.429920	0.000025
 746	7.4127e+01	7.4119	9.525502	0.000254	2.537832	0.429920	0.000025
 747	7.4227e+01	7.4212	9.552387	0.000270	2.701563	0.457657	0.000027
 748	7.4326e+01	7.4303	9.577642	0.000254	2.537832	0.429920	0.000025
 749	7.4426e+01	7.4427	9.601675	0.000242	2.415034	0.409118	0.000024
 750	7.4525e+01	7.4520	9.630596	0.000291	2.906227	0.492328	0.000029
 751	7.4625e+01	7.4609	9.656666	0.000262	2.619698	0.443789	0.000026
 752	7.4725e+01	7.4693	9.680699	0.000242	2.415034	0.409118	0.000024
 753	7.4824e+01	7.4798	9.704733	0.000242	2.415034	0.409118	0.000024
 754	7.4924e+01	7.4908	9.731210	0.000266	2.660630	0.450723	0.000027
 755	7.5023e+01	7.5007	9.757280	0.000262	2.619698	0.443789	0.000026
 756	7.5123e+01	7.5079	9.783350	0.000262	2.619698	0.443789	0.000026
 757	7.5222e+01	7.5185	9.812678	0.000295	2.947160	0.499262	0.000029
 758	7.5322e+01	7.5272	9.839156	0.000266	2.660630	0.450723	0.000027
 759	7.5421e+01	7.5378	9.864004	0.000250	2.496899	0.422986	0.000025
 760	7.5520e+01	7.5490	9.885185	0.000213	2.128504	0.360578	0.000021
 761	7.5620e+01	7.5565	9.912885	0.000278	2.783429	0.471526	0.000028
 762	7.5719e+01	7.5700	9.939769	0.000270	2.701563	0.457657	0.000027
 763	7.5819e+01	7.5771	9.962580	0.000229	2.292235	0.388315	0.000023
 764	7.5918e+01	7.5862	9.985392	0.000229	2.292235	0.388315	0.000023
 765	7.6018e+01	7.5948	10.012684	0.000274	2.742496	0.464591	0.000027
 766	7.6118e+01	7.6055	10.034273	0.000217	2.169437	0.367513	0.000022
 767	7.6217e+01	7.6203	10.057899	0.000237	2.374101	0.402184	0.000024
 768	7.6317e+01	7.6238	10.084783	0.000270	2.701563	0.457657	0.000027
 769	7.6416e+01	7.6424	10.105558	0.000209	2.087571	0.353644	0.000021
 770	7.6516e+01	7.6498	10.128369	0.000229	2.292235	0.388315	0.000023
 771	7.6615e+01	7.6592	10.158105	0.000299	2.988092	0.506197	0.000030
 772	7.6715e+01	7.6684	10.179287	0.000213	2.128504	0.360578	0.000021
 773	7.6814e+01	7.6778	10.202913	0.000237	2.374101	0.402184	0.000024
 774	7.6913e+01	7.6884	10.226538	0.000237	2.374101	0.402184	0.000024
 775	7.7013e+01	7.6968	10.254238	0.000278	2.783429	0.471526	0.000028
 776	7.7112e+01	7.7055	10.270939	0.000168	1.678244	0.284302	0.000017
 777	7.7212e+01	7.7178	10.292528	0.000217	2.169437	0.367513	0.000022
 778	7.7311e+01	7.7283	10.313710	0.000213	2.128504	0.360578	0.000021
 779	7.7411e+01	7.7385	10.338965	0.000254	2.537832	0.429920	0.000025
 780	7.7510e+01	7.7483	10.360961	0.000221	2.210370	0.374447	0.000022
 781	7.7610e+01	7.7575	10.383773	0.000229	2.292235	0.388315	0.000023
 782	7.7710e+01	7.7666	10.409435	0.000258	2.578765	0.436855	0.000026
 783	7.7809e+01	7.7770	10.433061	0.000237	2.374101	0.402184	0.000024
 784	7.7909e+01	7.7862	10.455465	0.000225	2.251303	0.381381	0.000023
 785	7.8008e+01	7.7972	10.485201	0.000299	2.988092	0.506197	0.000030
 786	7.8108e+01	7.8092	10.508827	0.000237	2.374101	0.402184	0.000024
 787	7.8207e+01	7.8185	10.530009	0.000213	2.128504	0.360578	0.000021
 788	7.8306e+01	7.8292	10.555264	0.000254	2.537832	0.429920	0.000025
 789	7.8406e+01	7.8376	10.575631	0.000205	2.046639	0.346710	0.000020
 790	7.8505e+01	7.8458	10.601701	0.000262	2.619698	0.443789	0.000026
 791	7.8605e+01	7.8545	10.628178	0.000266	2.660630	0.450723	0.000027
 792	7.8704e+01	7.8683	10.652619	0.000246	2.455966	0.416052	0.000025
 793	7.8804e+01	7.8776	10.677059	0.000246	2.455966	0.416052	0.000025
 794	7.8903e+01	7.8846	10.703537	0.000266	2.660630	0.450723	0.000027
 795	7.9003e+01	7.8977	10.728792	0.000254	2.537832	0.429920	0.000025
 796	7.9103e+01	7.9070	10.755676	0.000270	2.701563	0.457657	0.000027
 797	7.9202e+01	7.9171	10.780524	0.000250	2.496899	0.422986	0.000025
 798	7.9302e+01	7.9272	10.808224	0.000278	2.783429	0.471526	0.000028
 799	7.9401e+01	7.9375	10.837145	0.000291	2.906227	0.492328	0.000029
 800	7.9501e+01	7.9456	10.859141	0.000221	2.210370	0.374447	0.000022
 801	7.9600e+01	7.9574	10.892136	0.000332	3.315555	0.561670	0.000033
 802	7.9700e+01	7.9647	10.912503	0.000205	2.046639	0.346710	0.000020
 803	7.9799e+01	7.9778	10.940610	0.000282	2.824361	0.478460	0.000028
 804	7.9898e+01	7.9845	10.969124	0.000287	2.865294	0.485394	0.000029
 805	7.9998e+01	7.9956	10.993564	0.000246	2.455966	0.416052	0.000025
 806	8.0097e+01	8.0059	11.022078	0.000287	2.865294	0.485394	0.000029
 807	8.0197e+01	8.0169	11.051814	0.000299	2.988092	0.506197	0.000030
 808	8.0296e+01	8.0276	11.074218	0.000225	2.251303	0.381381	0.000023
 809	8.0396e+01	8.0355	11.106806	0.000327	3.274622	0.554736	0.000033
 810	8.0496e+01	8.0484	11.132061	0.000254	2.537832	0.429920	0.000025
 811	8.0595e+01	8.0564	11.158946	0.000270	2.701563	0.457657	0.000027
 812	8.0695e+01	8.0669	11.187867	0.000291	2.906227	0.492328	0.000029
 813	8.0794e+01	8.0753	11.216381	0.000287	2.865294	0.485394	0.000029
 814	8.0894e+01	8.0882	11.243265	0.000270	2.701563	0.457657	0.000027
 815	8.0993e+01	8.0930	11.268521	0.000254	2.537832	0.429920	0.000025
 816	8.1093e+01	8.1067	11.297035	0.000287	2.865294	0.485394	0.000029
 817	8.1192e+01	8.1163	11.330029	0.000332	3.315555	0.561670	0.000033
 818	8.1291e+01	8.1243	11.350804	0.000209	2.087571	0.353644	0.000021
 819	8.1391e+01	8.1397	11.380133	0.000295	2.947160	0.499262	0.000029
 820	8.1490e+01	8.1438	11.409461	0.000295	2.947160	0.499262	0.000029
 821	8.1590e+01	8.1550	11.439605	0.000303	3.029025	0.513131	0.000030
 822	8.1689e+01	8.1651	11.465674	0.000262	2.619698	0.443789	0.000026
 823	8.1789e+01	8.1758	11.493374	0.000278	2.783429	0.471526	0.000028
 824	8.1888e+01	8.1850	11.519036	0.000258	2.578765	0.436855	0.000026
 825	8.1988e+01	8.1928	11.546328	0.000274	2.742496	0.464591	0.000027
 826	8.2088e+01	8.2034	11.573213	0.000270	2.701563	0.457657	0.000027
 827	8.2187e+01	8.2171	11.607022	0.000340	3.397420	0.575539	0.000034
 828	8.2287e+01	8.2275	11.630648	0.000237	2.374101	0.402184	0.000024
 829	8.2386e+01	8.2334	11.662828	0.000323	3.233689	0.547802	0.000032
 830	8.2486e+01	8.2455	11.687676	0.000250	2.496899	0.422986	0.000025
 831	8.2585e+01	8.2520	11.721486	0.000340	3.397420	0.575539	0.000034
 832	8.2684e+01	8.2670	11.748370	0.000270	2.701563	0.457657	0.000027
 833	8.2784e+01	8.2756	11.776884	0.000287	2.865294	0.485394	0.000029
 834	8.2883e+01	8.2851	11.804176	0.000274	2.742496	0.464591	0.000027
 835	8.2983e+01	8.2954	11.833912	0.000299	2.988092	0.506197	0.000030
 836	8.3082e+01	8.3038	11.859167	0.000254	2.537832	0.429920	0.000025
 837	8.3182e+01	8.3154	11.890940	0.000319	3.192756	0.540868	0.000032
 838	8.3281e+01	8.3263	11.917010	0.000262	2.619698	0.443789	0.000026
 839	8.3381e+01	8.3350	11.946339	0.000295	2.947160	0.499262	0.000029
 840	8.3481e+01	8.3443	11.975260	0.000291	2.906227	0.492328	0.000029
 841	8.3580e+01	8.3529	12.003774	0.000287	2.865294	0.485394	0.000029
 842	8.3680e+01	8.3667	12.029844	0.000262	2.619698	0.443789	0.000026
 843	8.3779e+01	8.3747	12.056321	0.000266	2.660630	0.450723	0.000027
 844	8.3879e+01	8.3839	12.088909	0.000327	3.274622	0.554736	0.000033
 845	8.3978e+01	8.3936	12.116201	0.000274	2.742496	0.464591	0.000027
 846	8.4078e+01	8.4035	12.141863	0.000258	2.578765	0.436855	0.000026
 847	8.4177e+01	8.4126	12.172006	0.000303	3.029025	0.513131	0.000030
 848	8.4276e+01	8.4248	12.200520	0.000287	2.865294	0.485394	0.000029
 849	8.4376e+01	8.4361	12.229849	0.000295	2.947160	0.499262	0.000029
 850	8.4475e+01	8.4417	12.259178	0.000295	2.947160	0.499262	0.000029
 851	8.4575e+01	8.4522	12.292173	0.000332	3.315555	0.561670	0.000033
 852	8.4674e+01	8.4653	12.320279	0.000282	2.824361	0.478460	0.000028
 853	8.4774e+01	8.4753	12.354089	0.000340	3.397420	0.575539	0.000034
 854	8.4874e+01	8.4839	12.380158	0.000262	2.619698	0.443789	0.000026
 855	8.4973e+01	8.4942	12.409895	0.000299	2.988092	0.506197	0.000030
 856	8.5073e+01	8.5021	12.437186	0.000274	2.742496	0.464591	0.000027
 857	8.5172e+01	8.5145	12.466922	0.000299	2.988092	0.506197	0.000030
 858	8.5272e+01	8.5232	12.501139	0.000344	3.438353	0.582473	0.000034
 859	8.5371e+01	8.5367	12.531690	0.000307	3.069958	0.520065	0.000031
 860	8.5471e+01	8.5435	12.559389	0.000278	2.783429	0.471526	0.000028
 861	8.5570e+01	8.5548	12.593606	0.000344	3.438353	0.582473	0.000034
 862	8.5669e+01	8.5647	12.623749	0.000303	3.029025	0.513131	0.000030
 863	8.5769e+01	8.5748	12.658373	0.000348	3.479286	0.589407	0.000035
 864	8.5868e+01	8.5830	12.688924	0.000307	3.069958	0.520065	0.000031
 865	8.5968e+01	8.5932	12.722326	0.000336	3.356487	0.568604	0.000034
 866	8.6067e+01	8.6035	12.750433	0.000282	2.824361	0.478460	0.000028
 867	8.6167e+01	8.6151	12.778132	0.000278	2.783429	0.471526	0.000028
 868	8.6266e+01	8.6240	12.808683	0.000307	3.069958	0.520065	0.000031
 869	8.6366e+01	8.6338	12.841270	0.000327	3.274622	0.554736	0.000033
 870	8.6466e+01	8.6430	12.866933	0.000258	2.578765	0.436855	0.000026
 871	8.6565e+01	8.6548	12.899113	0.000323	3.233689	0.547802	0.000032
 872	8.6665e+01	8.6648	12.925590	0.000266	2.660630	0.450723	0.000027
 873	8.6764e+01	8.6707	12.956548	0.000311	3.110891	0.526999	0.000031
 874	8.6864e+01	8.6829	12.988728	0.000323	3.233689	0.547802	0.000032
 875	8.6963e+01	8.6929	13.015613	0.000270	2.701563	0.457657	0.000027
 876	8.7063e+01	8.7041	13.043720	0.000282	2.824361	0.478460	0.000028
 877	8.7162e+01	8.7130	13.074270	0.000307	3.069958	0.520065	0.000031
 878	8.7261e+01	8.7210	13.104006	0.000299	2.988092	0.506197	0.000030
 879	8.7361e+01	8.7318	13.129669	0.000258	2.578765	0.436855	0.000026
 880	8.7460e+01	8.7419	13.156961	0.000274	2.742496	0.464591	0.000027
 881	8.7560e+01	8.7513	13.185067	0.000282	2.824361	0.478460	0.000028
 882	8.7659e+01	8.7631	13.209915	0.000250	2.496899	0.422986	0.000025
 883	8.7759e+01	8.7739	13.238837	0.000291	2.906227	0.492328	0.000029
 884	8.7859e+01	8.7814	13.266129	0.000274	2.742496	0.464591	0.000027
 885	8.7958e+01	8.7930	13.292606	0.000266	2.660630	0.450723	0.000027
 886	8.8058e+01	8.8032	13.321934	0.000295	2.947160	0.499262	0.000029
 887	8.8157e+01	8.8137	13.345153	0.000233	2.333168	0.395249	0.000023
 888	8.8257e+01	8.8224	13.370816	0.000258	2.578765	0.436855	0.000026
 889	8.8356e+01	8.8302	13.398108	0.000274	2.742496	0.464591	0.000027
 890	8.8456e+01	8.8428	13.422141	0.000242	2.415034	0.409118	0.000024
 891	8.8555e+01	8.8514	13.450655	0.000287	2.865294	0.485394	0.000029
 892	8.8654e+01	8.8583	13.477132	0.000266	2.660630	0.450723	0.000027
 893	8.8754e+01	8.8738	13.503202	0.000262	2.619698	0.443789	0.000026
 894	8.8853e+01	8.8776	13.530087	0.000270	2.701563	0.457657	0.000027
 895	8.8953e+01	8.8926	13.555749	0.000258	2.578765	0.436855	0.000026
 896	8.9052e+01	8.9020	13.581819	0.000262	2.619698	0.443789	0.000026
 897	8.9152e+01	8.9104	13.609111	0.000274	2.742496	0.464591	0.000027
 898	8.9251e+01	8.9185	13.638440	0.000295	2.947160	0.499262	0.000029
 899	8.9351e+01	8.9329	13.662066	0.000237	2.374101	0.402184	0.000024
 900	8.9451e+01	8.9415	13.688950	0.000270	2.701563	0.457657	0.000027
 901	8.9550e+01	8.9502	13.712169	0.000233	2.333168	0.395249	0.000023
 902	8.9650e+01	8.9613	13.737424	0.000254	2.537832	0.429920	0.000025
 903	8.9749e+01	8.9706	13.761457	0.000242	2.415034	0.409118	0.000024
 904	8.9849e+01	8.9814	13.786305	0.000250	2.496899	0.422986	0.000025
 905	8.9948e+01	8.9910	13.816856	0.000307	3.069958	0.520065	0.000031
 906	9.0047e+01	8.9974	13.842926	0.000262	2.619698	0.443789	0.000026
 907	9.0147e+01	9.0096	13.866551	0.000237	2.374101	0.402184	0.000024
 908	9.0246e+01	9.0224	13.892621	0.000262	2.619698	0.443789	0.000026
 909	9.0346e+01	9.0302	13.919913	0.000274	2.742496	0.464591	0.000027
 910	9.0445e+01	9.0411	13.944761	0.000250	2.496899	0.422986	0.000025
 911	9.0545e+01	9.0507	13.970831	0.000262	2.619698	0.443789	0.000026
 912	9.0644e+01	9.0606	13.998123	0.000274	2.742496	0.464591	0.000027
 913	9.0744e+01	9.0686	14.024600	0.000266	2.660630	0.450723	0.000027
 914	9.0844e+01	9.0800	14.049448	0.000250	2.496899	0.422986	0.000025
 915	9.0943e+01	9.0887	14.074704	0.000254	2.537832	0.429920	0.000025
 916	9.1043e+01	9.0989	14.096293	0.000217	2.169437	0.367513	0.000022
 917	9.1142e+01	9.1109	14.124399	0.000282	2.824361	0.478460	0.000028
 918	9.1242e+01	9.1193	14.151691	0.000274	2.742496	0.464591	0.000027
 919	9.1341e+01	9.1331	14.179798	0.000282	2.824361	0.478460	0.000028
 920	9.1441e+01	9.1415	14.204238	0.000246	2.455966	0.416052	0.000025
 921	9.1540e+01	9.1520	14.227457	0.000233	2.333168	0.395249	0.000023
 922	9.1639e+01	9.1589	14.253934	0.000266	2.660630	0.450723	0.000027
 923	9.1739e+01	9.1693	14.280004	0.000262	2.619698	0.443789	0.000026
 924	9.1838e+01	9.1811	14.308518	0.000287	2.865294	0.485394	0.000029
 925	9.1938e+01	9.1895	14.332551	0.000242	2.415034	0.409118	0.000024
 926	9.2037e+01	9.1994	14.359436	0.000270	2.701563	0.457657	0.000027
 927	9.2137e+01	9.2098	14.381025	0.000217	2.169437	0.367513	0.000022
 928	9.2237e+01	9.2204	14.405873	0.000250	2.496899	0.422986	0.000025
 929	9.2336e+01	9.2287	14.434794	0.000291	2.906227	0.492328	0.000029
 930	9.2436e+01	9.2395	14.460864	0.000262	2.619698	0.443789	0.000026
 931	9.2535e+01	9.2480	14.481231	0.000205	2.046639	0.346710	0.000020
 932	9.2635e+01	9.2607	14.512189	0.000311	3.110891	0.526999	0.000031
 933	9.2734e+01	9.2709	14.532149	0.000201	2.005706	0.339776	0.000020
 934	9.2834e+01	9.2774	14.556182	0.000242	2.415034	0.409118	0.000024
 935	9.2933e+01	9.2886	14.581845	0.000258	2.578765	0.436855	0.000026
 936	9.3032e+01	9.2993	14.602212	0.000205	2.046639	0.346710	0.000020
 937	9.3132e+01	9.3108	14.627467	0.000254	2.537832	0.429920	0.000025
 938	9.3231e+01	9.3192	14.652315	0.000250	2.496899	0.422986	0.000025
 939	9.3331e+01	9.3290	14.679200	0.000270	2.701563	0.457657	0.000027
 940	9.3430e+01	9.3398	14.703233	0.000242	2.415034	0.409118	0.000024
 941	9.3530e+01	9.3485	14.727674	0.000246	2.455966	0.416052	0.000025
 942	9.3629e+01	9.3555	14.751707	0.000242	2.415034	0.409118	0.000024
 943	9.3729e+01	9.3661	14.775333	0.000237	2.374101	0.402184	0.000024
 944	9.3829e+01	9.3815	14.791219	0.000160	1.596378	0.270434	0.000016
 945	9.3928e+01	9.3897	14.814030	0.000229	2.292235	0.388315	0.000023
 946	9.4028e+01	9.3985	14.840100	0.000262	2.619698	0.443789	0.000026
 947	9.4127e+01	9.4080	14.861282	0.000213	2.128504	0.360578	0.000021
 948	9.4227e+01	9.4189	14.883686	0.000225	2.251303	0.381381	0.000023
 949	9.4326e+01	9.4287	14.906090	0.000225	2.251303	0.381381	0.000023
 950	9.4425e+01	9.4391	14.933789	0.000278	2.783429	0.471526	0.000028
 951	9.4525e+01	9.4511	14.957822	0.000242	2.415034	0.409118	0.000024
 952	9.4624e+01	9.4587	14.981855	0.000242	2.415034	0.409118	0.000024
 953	9.4724e+01	9.4666	15.007925	0.000262	2.619698	0.443789	0.000026
 954	9.4823e+01	9.4775	15.031551	0.000237	2.374101	0.402184	0.000024
 955	9.4923e+01	9.4887	15.057621	0.000262	2.619698	0.443789	0.000026
 956	9.5022e+01	9.4985	15.081654	0.000242	2.415034	0.409118	0.000024
 957	9.5122e+01	9.5094	15.101614	0.000201	2.005706	0.339776	0.000020
 958	9.5222e+01	9.5174	15.133794	0.000323	3.233689	0.547802	0.000032
 959	9.5321e+01	9.5264	15.159049	0.000254	2.537832	0.429920	0.000025
 960	9.5421e+01	9.5381	15.183897	0.000250	2.496899	0.422986	0.000025
 961	9.5520e+01	9.5459	15.210375	0.000266	2.660630	0.450723	0.000027
 962	9.5620e+01	9.5582	15.238074	0.000278	2.783429	0.471526	0.000028
 963	9.5719e+01	9.5691	15.267810	0.000299	2.988092	0.506197	0.000030
 964	9.5819e+01	9.5795	15.290214	0.000225	2.251303	0.381381	0.000023
 965	9.5918e+01	9.5880	15.319135	0.000291	2.906227	0.492328	0.000029
 966	9.6017e+01	9.5974	15.345612	0.000266	2.660630	0.450723	0.000027
 967	9.6117e+01	9.6090	15.373719	0.000282	2.824361	0.478460	0.000028
 968	9.6216e+01	9.6160	15.399789	0.000262	2.619698	0.443789	0.000026
 969	9.6316e+01	9.6272	15.427488	0.000278	2.783429	0.471526	0.000028
 970	9.6415e+01	9.6378	15.459261	0.000319	3.192756	0.540868	0.000032
 971	9.6515e+01	9.6468	15.482072	0.000229	2.292235	0.388315	0.000023
 972	9.6615e+01	9.6561	15.510993	0.000291	2.906227	0.492328	0.000029
 973	9.6714e+01	9.6662	15.540322	0.000295	2.947160	0.499262	0.000029
 974	9.6814e+01	9.6780	15.568429	0.000282	2.824361	0.478460	0.000028
 975	9.6913e+01	9.6908	15.597350	0.000291	2.906227	0.492328	0.000029
 976	9.7013e+01	9.6973	15.625457	0.000282	2.824361	0.478460	0.000028
 977	9.7112e+01	9.7070	15.654785	0.000295	2.947160	0.499262	0.000029
 978	9.7212e+01	9.7175	15.684929	0.000303	3.029025	0.513131	0.000030
 979	9.7311e+01	9.7269	15.710591	0.000258	2.578765	0.436855	0.000026
 980	9.7410e+01	9.7367	15.742771	0.000323	3.233689	0.547802	0.000032
 981	9.7510e+01	9.7469	15.768434	0.000258	2.578765	0.436855	0.000026
 982	9.7609e+01	9.7594	15.797763	0.000295	2.947160	0.499262	0.000029
 983	9.7709e+01	9.7660	15.824647	0.000270	2.701563	0.457657	0.000027
 984	9.7808e+01	9.7772	15.849902	0.000254	2.537832	0.429920	0.000025
 985	9.7908e+01	9.7876	15.881675	0.000319	3.192756	0.540868	0.000032
 986	9.8007e+01	9.7999	15.910596	0.000291	2.906227	0.492328	0.000029
 987	9.8107e+01	9.8096	15.941147	0.000307	3.069958	0.520065	0.000031
 988	9.8207e+01	9.8153	15.970883	0.000299	2.988092	0.506197	0.000030
 989	9.8306e+01	9.8260	16.000619	0.000299	2.988092	0.506197	0.000030
 990	9.8406e+01	9.8367	16.027096	0.000266	2.660630	0.450723	0.000027
 991	9.8505e+01	9.8443	16.060498	0.000336	3.356487	0.568604	0.000034
 992	9.8605e+01	9.8553	16.090234	0.000299	2.988092	0.506197	0.000030
 993	9.8704e+01	9.8653	16.116712	0.000266	2.660630	0.450723	0.000027
 994	9.8803e+01	9.8774	16.146855	0.000303	3.029025	0.513131	0.000030
 995	9.8903e+01	9.8865	16.179442	0.000327	3.274622	0.554736	0.000033
 996	9.9002e+01	9.8969	16.209178	0.000299	2.988092	0.506197	0.000030
 997	9.9102e+01	9.9061	16.237285	0.000282	2.824361	0.478460	0.000028
 998	9.9201e+01	9.9170	16.266614	0.000295	2.947160	0.499262	0.000029
 999	9.9301e+01	9.9247	16.297979	0.000315	3.151824	0.533933	0.000032
1000	9.9400e+01	9.9349	16.328937	0.000311	3.110891	0.526999	0.000031
1001	9.9500e+01	9.9459	16.359081	0.000303	3.029025	0.513131	0.000030
1002	9.9600e+01	9.9561	16.390446	0.000315	3.151824	0.533933	0.000032
1003	9.9699e+01	9.9667	16.418960	0.000287	2.865294	0.485394	0.000029
1004	9.9799e+01	9.9758	16.446252	0.000274	2.742496	0.464591	0.000027
1005	9.9898e+01	9.9862	16.478025	0.000319	3.192756	0.540868	0.000032
1006	9.9998e+01	9.9982	16.508575	0.000307	3.069958	0.520065	0.000031
1007	1.0010e+02	9.9844	16.493911	0.000147	1.473580	0.249631	-0.000015
1008	1.0020e+02	9.9770	16.482505	0.000115	1.146118	0.194158	-0.000011
1009	1.0030e+02	9.9651	16.467841	0.000147	1.473580	0.249631	-0.000015
1010	1.0040e+02	9.9561	16.456435	0.000115	1.146118	0.194158	-0.000011
1011	1.0050e+02	9.9445	16.439327	0.000172	1.719176	0.291236	-0.000017
1012	1.0059e+02	9.9354	16.425885	0.000135	1.350782	0.228829	-0.000014
1013	1.0069e+02	9.9268	16.413257	0.000127	1.268916	0.214960	-0.000013
1014	1.0079e+02	9.9143	16.396149	0.000172	1.719176	0.291236	-0.000017
1015	1.0089e+02	9.9052	16.388002	0.000082	0.818655	0.138684	-0.000008
1016	1.0099e+02	9.8965	16.369264	0.000188	1.882908	0.318973	-0.000019
1017	1.0109e+02	9.8861	16.360303	0.000090	0.900521	0.152552	-0.000009
1018	1.0119e+02	9.8756	16.346046	0.000143	1.432647	0.242697	-0.000014
1019	1.0129e+02	9.8644	16.332603	0.000135	1.350782	0.228829	-0.000014
1020	1.0139e+02	9.8560	16.321198	0.000115	1.146118	0.194158	-0.000011
1021	1.0149e+02	9.8450	16.306941	0.000143	1.432647	0.242697	-0.000014
1022	1.0159e+02	9.8389	16.290647	0.000164	1.637311	0.277368	-0.000016
1023	1.0169e+02	9.8255	16.275575	0.000151	1.514513	0.256565	-0.000015
1024	1.0179e+02	9.8187	16.258874	0.000168	1.678244	0.284302	-0.000017
1025	1.0189e+02	9.8075	16.248691	0.000102	1.023319	0.173355	-0.000010
1026	1.0199e+02	9.7940	16.229953	0.000188	1.882908	0.318973	-0.000019
1027	1.0209e+02	9.7863	16.218140	0.000119	1.187050	0.201092	-0.000012
1028	1.0219e+02	9.7773	16.205920	0.000123	1.227983	0.208026	-0.000012
1029	1.0229e+02	9.7650	16.194514	0.000115	1.146118	0.194158	-0.000011
1030	1.0239e+02	9.7576	16.187589	0.000070	0.695857	0.117881	-0.000007
1031	1.0248e+02	9.7495	16.170074	0.000176	1.760109	0.298171	-0.000018
1032	1.0258e+02	9.7376	16.156631	0.000135	1.350782	0.228829	-0.000014
1033	1.0268e+02	9.7283	16.143189	0.000135	1.350782	0.228829	-0.000014
1034	1.0278e+02	9.7142	16.125266	0.000180	1.801042	0.305105	-0.000018
1035	1.0288e+02	9.7072	16.111009	0.000143	1.432647	0.242697	-0.000014
1036	1.0298e+02	9.6973	16.095937	0.000151	1.514513	0.256565	-0.000015
1037	1.0308e+02	9.6865	16.080051	0.000160	1.596378	0.270434	-0.000016
1038	1.0318e+02	9.6777	16.063757	0.000164	1.637311	0.277368	-0.000016
1039	1.0328e+02	9.6658	16.047056	0.000168	1.678244	0.284302	-0.000017
1040	1.0338e+02	9.6622	16.032799	0.000143	1.432647	0.242697	-0.000014
1041	1.0348e+02	9.6478	16.014469	0.000184	1.841975	0.312039	-0.000018
1042	1.0358e+02	9.6381	15.996138	0.000184	1.841975	0.312039	-0.000018
1043	1.0368e+02	9.6275	15.980659	0.000156	1.555445	0.263500	-0.000016
1044	1.0378e+02	9.6183	15.963958	0.000168	1.678244	0.284302	-0.000017
1045	1.0388e+02	9.6051	15.947257	0.000168	1.678244	0.284302	-0.000017
1046	1.0398e+02	9.5964	15.929741	0.000176	1.760109	0.298171	-0.000018
1047	1.0408e+02	9.5889	15.909374	0.000205	2.046639	0.346710	-0.000020
1048	1.0418e+02	9.5784	15.888600	0.000209	2.087571	0.353644	-0.000021
1049	1.0428e+02	9.5657	15.870269	0.000184	1.841975	0.312039	-0.000018
1050	1.0438e+02	9.5581	15.851939	0.000184	1.841975	0.312039	-0.000018
1051	1.0447e+02	9.5453	15.830350	0.000217	2.169437	0.367513	-0.000022
1052	1.0457e+02	9.5368	15.809575	0.000209	2.087571	0.353644	-0.000021
1053	1.0467e+02	9.5276	15.789616	0.000201	2.005706	0.339776	-0.000020
1054	1.0477e+02	9.5190	15.771693	0.000180	1.801042	0.305105	-0.000018
1055	1.0487e+02	9.5080	15.753770	0.000180	1.801042	0.305105	-0.000018
1056	1.0497e+02	9.4971	15.732588	0.000213	2.128504	0.360578	-0.000021
1057	1.0507e+02	9.4868	15.712628	0.000201	2.005706	0.339776	-0.000020
1058	1.0517e+02	9.4781	15.690224	0.000225	2.251303	0.381381	-0.000023
1059	1.0527e+02	9.4714	15.668635	0.000217	2.169437	0.367513	-0.000022
1060	1.0537e+02	9.4580	15.651119	0.000176	1.760109	0.298171	-0.000018
1061	1.0547e+02	9.4501	15.627901	0.000233	2.333168	0.395249	-0.000023
1062	1.0557e+02	9.4375	15.608756	0.000192	1.923840	0.325907	-0.000019
1063	1.0567e+02	9.4270	15.585537	0.000233	2.333168	0.395249	-0.000023
1064	1.0577e+02	9.4171	15.568429	0.000172	1.719176	0.291236	-0.000017
1065	1.0587e+02	9.4092	15.545210	0.000233	2.333168	0.395249	-0.000023
1066	1.0597e+02	9.3998	15.523214	0.000221	2.210370	0.374447	-0.000022
1067	1.0607e+02	9.3897	15.504883	0.000184	1.841975	0.312039	-0.000018
1068	1.0617e+02	9.3780	15.479221	0.000258	2.578765	0.436855	-0.000026
1069	1.0627e+02	9.3677	15.458039	0.000213	2.128504	0.360578	-0.000021
1070	1.0637e+02	9.3557	15.434820	0.000233	2.333168	0.395249	-0.000023
1071	1.0647e+02	9.3498	15.417712	0.000172	1.719176	0.291236	-0.000017
1072	1.0656e+02	9.3396	15.396123	0.000217	2.169437	0.367513	-0.000022
1073	1.0666e+02	9.3291	15.372497	0.000237	2.374101	0.402184	-0.000024
1074	1.0676e+02	9.3192	15.346427	0.000262	2.619698	0.443789	-0.000026
1075	1.0686e+02	9.3087	15.324838	0.000217	2.169437	0.367513	-0.000022
1076	1.0696e+02	9.2984	15.307729	0.000172	1.719176	0.291236	-0.000017
1077	1.0706e+02	9.2878	15.281252	0.000266	2.660630	0.450723	-0.000027
1078	1.0716e+02	9.2803	15.260885	0.000205	2.046639	0.346710	-0.000020
1079	1.0726e+02	9.2683	15.238889	0.000221	2.210370	0.374447	-0.000022
1080	1.0736e+02	9.2609	15.214448	0.000246	2.455966	0.416052	-0.000025
1081	1.0746e+02	9.2499	15.192451	0.000221	2.210370	0.374447	-0.000022
1082	1.0756e+02	9.2384	15.170048	0.000225	2.251303	0.381381	-0.000023
1083	1.0766e+02	9.2310	15.146014	0.000242	2.415034	0.409118	-0.000024
1084	1.0776e+02	9.2188	15.122796	0.000233	2.333168	0.395249	-0.000023
1085	1.0786e+02	9.2098	15.098763	0.000242	2.415034	0.409118	-0.000024
1086	1.0796e+02	9.1968	15.075952	0.000229	2.292235	0.388315	-0.000023
1087	1.0806e+02	9.1913	15.053955	0.000221	2.210370	0.374447	-0.000022
1088	1.0816e+02	9.1791	15.033181	0.000209	2.087571	0.353644	-0.000021
1089	1.0826e+02	9.1726	15.005481	0.000278	2.783429	0.471526	-0.000028
1090	1.0836e+02	9.1602	14.986336	0.000192	1.923840	0.325907	-0.000019
1091	1.0845e+02	9.1518	14.961488	0.000250	2.496899	0.422986	-0.000025
1092	1.0855e+02	9.1383	14.943973	0.000176	1.760109	0.298171	-0.000018
1093	1.0865e+02	9.1311	14.916273	0.000278	2.783429	0.471526	-0.000028
1094	1.0875e+02	9.1229	14.897535	0.000188	1.882908	0.318973	-0.000019
1095	1.0885e+02	9.1099	14.871873	0.000258	2.578765	0.436855	-0.000026
1096	1.0895e+02	9.0989	14.849062	0.000229	2.292235	0.388315	-0.000023
1097	1.0905e+02	9.0904	14.824621	0.000246	2.455966	0.416052	-0.000025
1098	1.0915e+02	9.0798	14.799773	0.000250	2.496899	0.422986	-0.000025
1099	1.0925e+02	9.0691	14.779406	0.000205	2.046639	0.346710	-0.000020
1100	1.0935e+02	9.0612	14.750892	0.000287	2.865294	0.485394	-0.000029
1101	1.0945e+02	9.0518	14.726859	0.000242	2.415034	0.409118	-0.000024
1102	1.0955e+02	9.0387	14.702418	0.000246	2.455966	0.416052	-0.000025
1103	1.0965e+02	9.0298	14.677978	0.000246	2.455966	0.416052	-0.000025
1104	1.0975e+02	9.0186	14.648649	0.000295	2.947160	0.499262	-0.000029
1105	1.0985e+02	9.0112	14.627060	0.000217	2.169437	0.367513	-0.000022
1106	1.0995e+02	8.9986	14.601397	0.000258	2.578765	0.436855	-0.000026
1107	1.1005e+02	8.9893	14.576550	0.000250	2.496899	0.422986	-0.000025
1108	1.1015e+02	8.9808	14.550072	0.000266	2.660630	0.450723	-0.000027
1109	1.1025e+02	8.9687	14.527261	0.000229	2.292235	0.388315	-0.000023
1110	1.1035e+02	8.9625	14.495896	0.000315	3.151824	0.533933	-0.000032
1111	1.1044e+02	8.9517	14.471455	0.000246	2.455966	0.416052	-0.000025
1112	1.1054e+02	8.9411	14.439682	0.000319	3.192756	0.540868	-0.000032
1113	1.1064e+02	8.9307	14.416464	0.000233	2.333168	0.395249	-0.000023
1114	1.1074e+02	8.9209	14.389172	0.000274	2.742496	0.464591	-0.000027
1115	1.1084e+02	8.9101	14.364731	0.000246	2.455966	0.416052	-0.000025
1116	1.1094e+02	8.9030	14.335403	0.000295	2.947160	0.499262	-0.000029
1117	1.1104e+02	8.8898	14.310148	0.000254	2.537832	0.429920	-0.000025
1118	1.1114e+02	8.8795	14.286522	0.000237	2.374101	0.402184	-0.000024
1119	1.1124e+02	8.8715	14.258415	0.000282	2.824361	0.478460	-0.000028
1120	1.1134e+02	8.8618	14.234789	0.000237	2.374101	0.402184	-0.000024
1121	1.1144e+02	8.8528	14.209534	0.000254	2.537832	0.429920	-0.000025
1122	1.1154e+02	8.8448	14.186723	0.000229	2.292235	0.388315	-0.000023
1123	1.1164e+02	8.8312	14.157394	0.000295	2.947160	0.499262	-0.000029
1124	1.1174e+02	8.8216	14.131324	0.000262	2.619698	0.443789	-0.000026
1125	1.1184e+02	8.8094	14.108513	0.000229	2.292235	0.388315	-0.000023
1126	1.1194e+02	8.8044	14.084480	0.000242	2.415034	0.409118	-0.000024
1127	1.1204e+02	8.7916	14.062483	0.000221	2.210370	0.374447	-0.000022
1128	1.1214e+02	8.7814	14.038450	0.000242	2.415034	0.409118	-0.000024
1129	1.1224e+02	8.7716	14.011565	0.000270	2.701563	0.457657	-0.000027
1130	1.1234e+02	8.7616	13.991198	0.000205	2.046639	0.346710	-0.000020
1131	1.1244e+02	8.7508	13.965536	0.000258	2.578765	0.436855	-0.000026
1132	1.1253e+02	8.7423	13.942725	0.000229	2.292235	0.388315	-0.000023
1133	1.1263e+02	8.7334	13.917877	0.000250	2.496899	0.422986	-0.000025
1134	1.1273e+02	8.7218	13.893029	0.000250	2.496899	0.422986	-0.000025
1135	1.1283e+02	8.7125	13.869403	0.000237	2.374101	0.402184	-0.000024
1136	1.1293e+02	8.7041	13.846592	0.000229	2.292235	0.388315	-0.000023
1137	1.1303e+02	8.6938	13.827447	0.000192	1.923840	0.325907	-0.000019
1138	1.1313e+02	8.6830	13.805857	0.000217	2.169437	0.367513	-0.000022
1139	1.1323e+02	8.6715	13.778973	0.000270	2.701563	0.457657	-0.000027
1140	1.1333e+02	8.6630	13.756569	0.000225	2.251303	0.381381	-0.000023
1141	1.1343e+02	8.6505	13.736202	0.000205	2.046639	0.346710	-0.000020
1142	1.1353e+02	8.6439	13.711761	0.000246	2.455966	0.416052	-0.000025
1143	1.1363e+02	8.6341	13.691802	0.000201	2.005706	0.339776	-0.000020
1144	1.1373e+02	8.6256	13.668990	0.000229	2.292235	0.388315	-0.000023
1145	1.1383e+02	8.6131	13.645364	0.000237	2.374101	0.402184	-0.000024
1146	1.1393e+02	8.6020	13.620109	0.000254	2.537832	0.429920	-0.000025
1147	1.1403e+02	8.5948	13.598113	0.000221	2.210370	0.374447	-0.000022
1148	1.1413e+02	8.5822	13.575709	0.000225	2.251303	0.381381	-0.000023
1149	1.1423e+02	8.5722	13.557786	0.000180	1.801042	0.305105	-0.000018
1150	1.1433e+02	8.5639	13.529679	0.000282	2.824361	0.478460	-0.000028
1151	1.1442e+02	8.5532	13.510534	0.000192	1.923840	0.325907	-0.000019
1152	1.1452e+02	8.5438	13.490167	0.000205	2.046639	0.346710	-0.000020
1153	1.1462e+02	8.5320	13.468170	0.000221	2.210370	0.374447	-0.000022
1154	1.1472e+02	8.5224	13.444137	0.000242	2.415034	0.409118	-0.000024
1155	1.1482e+02	8.5137	13.426214	0.000180	1.801042	0.305105	-0.000018
1156	1.1492e+02	8.5029	13.402181	0.000242	2.415034	0.409118	-0.000024
1157	1.1502e+02	8.4933	13.381406	0.000209	2.087571	0.353644	-0.000021
1158	1.1512e+02	8.4821	13.356151	0.000254	2.537832	0.429920	-0.000025
1159	1.1522e+02	8.4754	13.332525	0.000237	2.374101	0.402184	-0.000024
1160	1.1532e+02	8.4626	13.311344	0.000213	2.128504	0.360578	-0.000021
1161	1.1542e+02	8.4541	13.286903	0.000246	2.455966	0.416052	-0.000025
1162	1.1552e+02	8.4437	13.268980	0.000180	1.801042	0.305105	-0.000018
1163	1.1562e+02	8.4319	13.246576	0.000225	2.251303	0.381381	-0.000023
1164	1.1572e+02	8.4232	13.224580	0.000221	2.210370	0.374447	-0.000022
1165	1.1582e+02	8.4164	13.202990	0.000217	2.169437	0.367513	-0.000022
1166	1.1592e+02	8.4052	13.180994	0.000221	2.210370	0.374447	-0.000022
1167	1.1602e+02	8.3949	13.159812	0.000213	2.128504	0.360578	-0.000021
1168	1.1612e+02	8.3839	13.141482	0.000184	1.841975	0.312039	-0.000018
1169	1.1622e+02	8.3762	13.115819	0.000258	2.578765	0.436855	-0.000026
1170	1.1632e+02	8.3646	13.095859	0.000201	2.005706	0.339776	-0.000020
1171	1.1642e+02	8.3517	13.071011	0.000250	2.496899	0.422986	-0.000025
1172	1.1651e+02	8.3451	13.050644	0.000205	2.046639	0.346710	-0.000020
1173	1.1661e+02	8.3356	13.026611	0.000242	2.415034	0.409118	-0.000024
1174	1.1671e+02	8.3221	13.003800	0.000229	2.292235	0.388315	-0.000023
1175	1.1681e+02	8.3146	12.980989	0.000229	2.292235	0.388315	-0.000023
1176	1.1691e+02	8.3050	12.956548	0.000246	2.455966	0.416052	-0.000025
1177	1.1701e+02	8.2944	12.936588	0.000201	2.005706	0.339776	-0.000020
1178	1.1711e+02	8.2834	12.914592	0.000221	2.210370	0.374447	-0.000022
1179	1.1721e+02	8.2740	12.890966	0.000237	2.374101	0.402184	-0.000024
1180	1.1731e+02	8.2653	12.870599	0.000205	2.046639	0.346710	-0.000020
1181	1.1741e+02	8.2546	12.850639	0.000201	2.005706	0.339776	-0.000020
1182	1.1751e+02	8.2485	12.829050	0.000217	2.169437	0.367513	-0.000022
1183	1.1761e+02	8.2373	12.806646	0.000225	2.251303	0.381381	-0.000023
1184	1.1771e+02	8.2261	12.784650	0.000221	2.210370	0.374447	-0.000022
1185	1.1781e+02	8.2139	12.767134	0.000176	1.760109	0.298171	-0.000018
1186	1.1791e+02	8.2036	12.744730	0.000225	2.251303	0.381381	-0.000023
1187	1.1801e+02	8.1948	12.722326	0.000225	2.251303	0.381381	-0.000023
1188	1.1811e+02	8.1846	12.704403	0.000180	1.801042	0.305105	-0.000018
1189	1.1821e+02	8.1758	12.682407	0.000221	2.210370	0.374447	-0.000022
1190	1.1831e+02	8.1641	12.662447	0.000201	2.005706	0.339776	-0.000020
1191	1.1841e+02	8.1557	12.640043	0.000225	2.251303	0.381381	-0.000023
1192	1.1850e+02	8.1460	12.616010	0.000242	2.415034	0.409118	-0.000024
1193	1.1860e+02	8.1348	12.597679	0.000184	1.841975	0.312039	-0.000018
1194	1.1870e+02	8.1251	12.574054	0.000237	2.374101	0.402184	-0.000024
1195	1.1880e+02	8.1178	12.561426	0.000127	1.268916	0.214960	-0.000013
1196	1.1890e+02	8.1043	12.540244	0.000213	2.128504	0.360578	-0.000021
1197	1.1900e+02	8.0950	12.523136	0.000172	1.719176	0.291236	-0.000017
1198	1.1910e+02	8.0849	12.505620	0.000176	1.760109	0.298171	-0.000018
1199	1.1920e+02	8.0770	12.484846	0.000209	2.087571	0.353644	-0.000021
1200	1.1930e+02	8.0661	12.467330	0.000176	1.760109	0.298171	-0.000018
1201	1.1940e+02	8.0546	12.442889	0.000246	2.455966	0.416052	-0.000025
1202	1.1950e+02	8.0460	12.424966	0.000180	1.801042	0.305105	-0.000018
1203	1.1960e+02	8.0335	12.401748	0.000233	2.333168	0.395249	-0.000023
1204	1.1970e+02	8.0270	12.378122	0.000237	2.374101	0.402184	-0.000024
1205	1.1980e+02	8.0177	12.356940	0.000213	2.128504	0.360578	-0.000021
1206	1.1990e+02	8.0071	12.334943	0.000221	2.210370	0.374447	-0.000022
1207	1.2000e+02	7.9964	12.313762	0.000213	2.128504	0.360578	-0.000021
1208	1.2010e+02	7.9861	12.288506	0.000254	2.537832	0.429920	-0.000025
1209	1.2020e+02	7.9749	12.268139	0.000205	2.046639	0.346710	-0.000020
1210	1.2030e+02	7.9708	12.246143	0.000221	2.210370	0.374447	-0.000022
1211	1.2039e+02	7.9569	12.224146	0.000221	2.210370	0.374447	-0.000022
1212	1.2049e+02	7.9445	12.204187	0.000201	2.005706	0.339776	-0.000020
1213	1.2059e+02	7.9403	12.184634	0.000196	1.964773	0.332842	-0.000020
1214	1.2069e+02	7.9252	12.156935	0.000278	2.783429	0.471526	-0.000028
1215	1.2079e+02	7.9180	12.132902	0.000242	2.415034	0.409118	-0.000024
1216	1.2089e+02	7.9064	12.111720	0.000213	2.128504	0.360578	-0.000021
1217	1.2099e+02	7.8989	12.085242	0.000266	2.660630	0.450723	-0.000027
1218	1.2109e+02	7.8844	12.061209	0.000242	2.415034	0.409118	-0.000024
1219	1.2119e+02	7.8770	12.032695	0.000287	2.865294	0.485394	-0.000029
1220	1.2129e+02	7.8664	12.011513	0.000213	2.128504	0.360578	-0.000021
1221	1.2139e+02	7.8561	11.988295	0.000233	2.333168	0.395249	-0.000023
1222	1.2149e+02	7.8458	11.963447	0.000250	2.496899	0.422986	-0.000025
1223	1.2159e+02	7.8373	11.936155	0.000274	2.742496	0.464591	-0.000027
1224	1.2169e+02	7.8279	11.912937	0.000233	2.333168	0.395249	-0.000023
1225	1.2179e+02	7.8161	11.886459	0.000266	2.660630	0.450723	-0.000027
1226	1.2189e+02	7.8076	11.862019	0.000246	2.455966	0.416052	-0.000025
1227	1.2199e+02	7.7979	11.838800	0.000233	2.333168	0.395249	-0.000023
1228	1.2209e+02	7.7882	11.809879	0.000291	2.906227	0.492328	-0.000029
1229	1.2219e+02	7.7777	11.787475	0.000225	2.251303	0.381381	-0.000023
1230	1.2229e+02	7.7652	11.760998	0.000266	2.660630	0.450723	-0.000027
1231	1.2239e+02	7.7589	11.737372	0.000237	2.374101	0.402184	-0.000024
1232	1.2248e+02	7.7464	11.708043	0.000295	2.947160	0.499262	-0.000029
1233	1.2258e+02	7.7360	11.687269	0.000209	2.087571	0.353644	-0.000021
1234	1.2268e+02	7.7267	11.657533	0.000299	2.988092	0.506197	-0.000030
1235	1.2278e+02	7.7180	11.632685	0.000250	2.496899	0.422986	-0.000025
1236	1.2288e+02	7.7077	11.605800	0.000270	2.701563	0.457657	-0.000027
1237	1.2298e+02	7.6982	11.578101	0.000278	2.783429	0.471526	-0.000028
1238	1.2308e+02	7.6885	11.553660	0.000246	2.455966	0.416052	-0.000025
1239	1.2318e+02	7.6786	11.527183	0.000266	2.660630	0.450723	-0.000027
1240	1.2328e+02	7.6696	11.502743	0.000246	2.455966	0.416052	-0.000025
1241	1.2338e+02	7.6588	11.475858	0.000270	2.701563	0.457657	-0.000027
1242	1.2348e+02	7.6487	11.452232	0.000237	2.374101	0.402184	-0.000024
1243	1.2358e+02	7.6377	11.423718	0.000287	2.865294	0.485394	-0.000029
1244	1.2368e+02	7.6244	11.396834	0.000270	2.701563	0.457657	-0.000027
1245	1.2378e+02	7.6179	11.370764	0.000262	2.619698	0.443789	-0.000026
1246	1.2388e+02	7.6099	11.345101	0.000258	2.578765	0.436855	-0.000026
1247	1.2398e+02	7.5959	11.319031	0.000262	2.619698	0.443789	-0.000026
1248	1.2408e+02	7.5866	11.292554	0.000266	2.660630	0.450723	-0.000027
1249	1.2418e+02	7.5783	11.264040	0.000287	2.865294	0.485394	-0.000029
1250	1.2428e+02	7.5687	11.238785	0.000254	2.537832	0.429920	-0.000025
1251	1.2438e+02	7.5600	11.211085	0.000278	2.783429	0.471526	-0.000028
1252	1.2447e+02	7.5488	11.183386	0.000278	2.783429	0.471526	-0.000028
1253	1.2457e+02	7.5393	11.155279	0.000282	2.824361	0.478460	-0.000028
1254	1.2467e+02	7.5286	11.130024	0.000254	2.537832	0.429920	-0.000025
1255	1.2477e+02	7.5211	11.101918	0.000282	2.824361	0.478460	-0.000028
1256	1.2487e+02	7.5115	11.073404	0.000287	2.865294	0.485394	-0.000029
1257	1.2497e+02	7.4985	11.048963	0.000246	2.455966	0.416052	-0.000025
1258	1.2507e+02	7.4900	11.025745	0.000233	2.333168	0.395249	-0.000023
1259	1.2517e+02	7.4809	10.999267	0.000266	2.660630	0.450723	-0.000027
1260	1.2527e+02	7.4699	10.974419	0.000250	2.496899	0.422986	-0.000025
1261	1.2537e+02	7.4609	10.944683	0.000299	2.988092	0.506197	-0.000030
1262	1.2547e+02	7.4470	10.918206	0.000266	2.660630	0.450723	-0.000027
1263	1.2557e+02	7.4380	10.888470	0.000299	2.988092	0.506197	-0.000030
1264	1.2567e+02	7.4297	10.860771	0.000278	2.783429	0.471526	-0.000028
1265	1.2577e+02	7.4184	10.834701	0.000262	2.619698	0.443789	-0.000026
1266	1.2587e+02	7.4085	10.807816	0.000270	2.701563	0.457657	-0.000027
1267	1.2597e+02	7.3960	10.774822	0.000332	3.315555	0.561670	-0.000033
1268	1.2607e+02	7.3933	10.747530	0.000274	2.742496	0.464591	-0.000027
1269	1.2617e+02	7.3796	10.717386	0.000303	3.029025	0.513131	-0.000030
1270	1.2627e+02	7.3692	10.691316	0.000262	2.619698	0.443789	-0.000026
1271	1.2636e+02	7.3617	10.660358	0.000311	3.110891	0.526999	-0.000031
1272	1.2646e+02	7.3487	10.629808	0.000307	3.069958	0.520065	-0.000031
1273	1.2656e+02	7.3376	10.603330	0.000266	2.660630	0.450723	-0.000027
1274	1.2666e+02	7.3278	10.575224	0.000282	2.824361	0.478460	-0.000028
1275	1.2676e+02	7.3222	10.549968	0.000254	2.537832	0.429920	-0.000025
1276	1.2686e+02	7.3112	10.520640	0.000295	2.947160	0.499262	-0.000029
1277	1.2696e+02	7.3020	10.486830	0.000340	3.397420	0.575539	-0.000034
1278	1.2706e+02	7.2875	10.458724	0.000282	2.824361	0.478460	-0.000028
1279	1.2716e+02	7.2775	10.427766	0.000311	3.110891	0.526999	-0.000031
1280	1.2726e+02	7.2706	10.395993	0.000319	3.192756	0.540868	-0.000032
1281	1.2736e+02	7.2588	10.365442	0.000307	3.069958	0.520065	-0.000031
1282	1.2746e+02	7.2491	10.336928	0.000287	2.865294	0.485394	-0.000029
1283	1.2756e+02	7.2384	10.303119	0.000340	3.397420	0.575539	-0.000034
1284	1.2766e+02	7.2305	10.277864	0.000254	2.537832	0.429920	-0.000025
1285	1.2776e+02	7.2221	10.247720	0.000303	3.029025	0.513131	-0.000030
1286	1.2786e+02	7.2091	10.219614	0.000282	2.824361	0.478460	-0.000028
1287	1.2796e+02	7.1996	10.187841	0.000319	3.192756	0.540868	-0.000032
1288	1.2806e+02	7.1918	10.162993	0.000250	2.496899	0.422986	-0.000025
1289	1.2816e+02	7.1819	10.132850	0.000303	3.029025	0.513131	-0.000030
1290	1.2826e+02	7.1691	10.103521	0.000295	2.947160	0.499262	-0.000029
1291	1.2835e+02	7.1585	10.074192	0.000295	2.947160	0.499262	-0.000029
1292	1.2845e+02	7.1497	10.045678	0.000287	2.865294	0.485394	-0.000029
1293	1.2855e+02	7.1397	10.017164	0.000287	2.865294	0.485394	-0.000029
1294	1.2865e+02	7.1291	9.987428	0.000299	2.988092	0.506197	-0.000030
1295	1.2875e+02	7.1195	9.960951	0.000266	2.660630	0.450723	-0.000027
1296	1.2885e+02	7.1098	9.932844	0.000282	2.824361	0.478460	-0.000028
1297	1.2895e+02	7.1009	9.905960	0.000270	2.701563	0.457657	-0.000027
1298	1.2905e+02	7.0884	9.885593	0.000205	2.046639	0.346710	-0.000020
1299	1.2915e+02	7.0806	9.853005	0.000327	3.274622	0.554736	-0.000033
1300	1.2925e+02	7.0712	9.825713	0.000274	2.742496	0.464591	-0.000027
1301	1.2935e+02	7.0601	9.800458	0.000254	2.537832	0.429920	-0.000025
1302	1.2945e+02	7.0506	9.774388	0.000262	2.619698	0.443789	-0.000026
1303	1.2955e+02	7.0408	9.747504	0.000270	2.701563	0.457657	-0.000027
1304	1.2965e+02	7.0304	9.718990	0.000287	2.865294	0.485394	-0.000029
1305	1.2975e+02	7.0216	9.693734	0.000254	2.537832	0.429920	-0.000025
1306	1.2985e+02	7.0072	9.668479	0.000254	2.537832	0.429920	-0.000025
1307	1.2995e+02	7.0034	9.641595	0.000270	2.701563	0.457657	-0.000027
1308	1.3005e+02	6.9927	9.616339	0.000254	2.537832	0.429920	-0.000025
1309	1.3015e+02	6.9822	9.592306	0.000242	2.415034	0.409118	-0.000024
1310	1.3025e+02	6.9726	9.567458	0.000250	2.496899	0.422986	-0.000025
1311	1.3034e+02	6.9621	9.536093	0.000315	3.151824	0.533933	-0.000032
1312	1.3044e+02	6.9491	9.511652	0.000246	2.455966	0.416052	-0.000025
1313	1.3054e+02	6.9402	9.485990	0.000258	2.578765	0.436855	-0.000026
1314	1.3064e+02	6.9305	9.460327	0.000258	2.578765	0.436855	-0.000026
1315	1.3074e+02	6.9218	9.434665	0.000258	2.578765	0.436855	-0.000026
1316	1.3084e+02	6.9093	9.407373	0.000274	2.742496	0.464591	-0.000027
1317	1.3094e+02	6.8996	9.384154	0.000233	2.333168	0.395249	-0.000023
1318	1.3104e+02	6.8928	9.356862	0.000274	2.742496	0.464591	-0.000027
1319	1.3114e+02	6.8806	9.328348	0.000287	2.865294	0.485394	-0.000029
1320	1.3124e+02	6.8702	9.304722	0.000237	2.374101	0.402184	-0.000024
1321	1.3134e+02	6.8610	9.281911	0.000229	2.292235	0.388315	-0.000023
1322	1.3144e+02	6.8506	9.254619	0.000274	2.742496	0.464591	-0.000027
1323	1.3154e+02	6.8409	9.233030	0.000217	2.169437	0.367513	-0.000022
1324	1.3164e+02	6.8301	9.203701	0.000295	2.947160	0.499262	-0.000029
1325	1.3174e+02	6.8236	9.180075	0.000237	2.374101	0.402184	-0.000024
1326	1.3184e+02	6.8157	9.154005	0.000262	2.619698	0.443789	-0.000026
1327	1.3194e+02	6.8007	9.128343	0.000258	2.578765	0.436855	-0.000026
1328	1.3204e+02	6.7936	9.103088	0.000254	2.537832	0.429920	-0.000025
1329	1.3214e+02	6.7831	9.074574	0.000287	2.865294	0.485394	-0.000029
1330	1.3224e+02	6.7721	9.054207	0.000205	2.046639	0.346710	-0.000020
1331	1.3234e+02	6.7603	9.027322	0.000270	2.701563	0.457657	-0.000027
1332	1.3243e+02	6.7514	9.001659	0.000258	2.578765	0.436855	-0.000026
1333	1.3253e+02	6.7439	8.976404	0.000254	2.537832	0.429920	-0.000025
1334	1.3263e+02	6.7304	8.956037	0.000205	2.046639	0.346710	-0.000020
1335	1.3273e+02	6.7257	8.926301	0.000299	2.988092	0.506197	-0.000030
1336	1.3283e+02	6.7132	8.901453	0.000250	2.496899	0.422986	-0.000025
1337	1.3293e+02	6.7037	8.877827	0.000237	2.374101	0.402184	-0.000024
1338	1.3303e+02	6.6929	8.850943	0.000270	2.701563	0.457657	-0.000027
1339	1.3313e+02	6.6856	8.827317	0.000237	2.374101	0.402184	-0.000024
1340	1.3323e+02	6.6749	8.798395	0.000291	2.906227	0.492328	-0.000029
1341	1.3333e+02	6.6586	8.774362	0.000242	2.415034	0.409118	-0.000024
1342	1.3343e+02	6.6531	8.745848	0.000287	2.865294	0.485394	-0.000029
1343	1.3353e+02	6.6433	8.723444	0.000225	2.251303	0.381381	-0.000023
1344	1.3363e+02	6.6375	8.698189	0.000254	2.537832	0.429920	-0.000025
1345	1.3373e+02	6.6227	8.671712	0.000266	2.660630	0.450723	-0.000027
1346	1.3383e+02	6.6138	8.646864	0.000250	2.496899	0.422986	-0.000025
1347	1.3393e+02	6.6035	8.621609	0.000254	2.537832	0.429920	-0.000025
1348	1.3403e+02	6.5934	8.593502	0.000282	2.824361	0.478460	-0.000028
1349	1.3413e+02	6.5824	8.569876	0.000237	2.374101	0.402184	-0.000024
1350	1.3423e+02	6.5720	8.548694	0.000213	2.128504	0.360578	-0.000021
1351	1.3432e+02	6.5636	8.523847	0.000250	2.496899	0.422986	-0.000025
1352	1.3442e+02	6.5549	8.501443	0.000225	2.251303	0.381381	-0.000023
1353	1.3452e+02	6.5437	8.478632	0.000229	2.292235	0.388315	-0.000023
1354	1.3462e+02	6.5356	8.450118	0.000287	2.865294	0.485394	-0.000029
1355	1.3472e+02	6.5243	8.427306	0.000229	2.292235	0.388315	-0.000023
1356	1.3482e+02	6.5145	8.402051	0.000254	2.537832	0.429920	-0.000025
1357	1.3492e+02	6.5031	8.378425	0.000237	2.374101	0.402184	-0.000024
1358	1.3502e+02	6.4953	8.351541	0.000270	2.701563	0.457657	-0.000027
1359	1.3512e+02	6.4831	8.329544	0.000221	2.210370	0.374447	-0.000022
1360	1.3522e+02	6.4748	8.304289	0.000254	2.537832	0.429920	-0.000025
1361	1.3532e+02	6.4614	8.283107	0.000213	2.128504	0.360578	-0.000021
1362	1.3542e+02	6.4538	8.257037	0.000262	2.619698	0.443789	-0.000026
1363	1.3552e+02	6.4423	8.239521	0.000176	1.760109	0.298171	-0.000018
1364	1.3562e+02	6.4326	8.216303	0.000233	2.333168	0.395249	-0.000023
1365	1.3572e+02	6.4239	8.195528	0.000209	2.087571	0.353644	-0.000021
1366	1.3582e+02	6.4156	8.171495	0.000242	2.415034	0.409118	-0.000024
1367	1.3592e+02	6.4050	8.147055	0.000246	2.455966	0.416052	-0.000025
1368	1.3602e+02	6.3963	8.123836	0.000233	2.333168	0.395249	-0.000023
1369	1.3612e+02	6.3840	8.099396	0.000246	2.455966	0.416052	-0.000025
1370	1.3622e+02	6.3729	8.075362	0.000242	2.415034	0.409118	-0.000024
1371	1.3631e+02	6.3653	8.049700	0.000258	2.578765	0.436855	-0.000026
1372	1.3641e+02	6.3511	8.025667	0.000242	2.415034	0.409118	-0.000024
1373	1.3651e+02	6.3427	8.002855	0.000229	2.292235	0.388315	-0.000023
1374	1.3661e+02	6.3353	7.977600	0.000254	2.537832	0.429920	-0.000025
1375	1.3671e+02	6.3262	7.950308	0.000274	2.742496	0.464591	-0.000027
1376	1.3681e+02	6.3157	7.927090	0.000233	2.333168	0.395249	-0.000023
1377	1.3691e+02	6.3030	7.902242	0.000250	2.496899	0.422986	-0.000025
1378	1.3701e+02	6.2972	7.877394	0.000250	2.496899	0.422986	-0.000025
1379	1.3711e+02	6.2881	7.850509	0.000270	2.701563	0.457657	-0.000027
1380	1.3721e+02	6.2775	7.823625	0.000270	2.701563	0.457657	-0.000027
1381	1.3731e+02	6.2658	7.799999	0.000237	2.374101	0.402184	-0.000024
1382	1.3741e+02	6.2542	7.773929	0.000262	2.619698	0.443789	-0.000026
1383	1.3751e+02	6.2452	7.745822	0.000282	2.824361	0.478460	-0.000028
1384	1.3761e+02	6.2354	7.714864	0.000311	3.110891	0.526999	-0.000031
1385	1.3771e+02	6.2251	7.687165	0.000278	2.783429	0.471526	-0.000028
1386	1.3781e+02	6.2148	7.661502	0.000258	2.578765	0.436855	-0.000026
1387	1.3791e+02	6.2061	7.633803	0.000278	2.783429	0.471526	-0.000028
1388	1.3801e+02	6.2002	7.607326	0.000266	2.660630	0.450723	-0.000027
1389	1.3811e+02	6.1816	7.579627	0.000278	2.783429	0.471526	-0.000028
1390	1.3821e+02	6.1749	7.551520	0.000282	2.824361	0.478460	-0.000028
1391	1.3831e+02	6.1638	7.520155	0.000315	3.151824	0.533933	-0.000032
1392	1.3840e+02	6.1559	7.492863	0.000274	2.742496	0.464591	-0.000027
1393	1.3850e+02	6.1476	7.462719	0.000303	3.029025	0.513131	-0.000030
1394	1.3860e+02	6.1352	7.437464	0.000254	2.537832	0.429920	-0.000025
1395	1.3870e+02	6.1257	7.412209	0.000254	2.537832	0.429920	-0.000025
1396	1.3880e+02	6.1144	7.382880	0.000295	2.947160	0.499262	-0.000029
1397	1.3890e+02	6.1065	7.351922	0.000311	3.110891	0.526999	-0.000031
1398	1.3900e+02	6.0961	7.322186	0.000299	2.988092	0.506197	-0.000030
1399	1.3910e+02	6.0840	7.296931	0.000254	2.537832	0.429920	-0.000025
1400	1.3920e+02	6.0766	7.267195	0.000299	2.988092	0.506197	-0.000030
1401	1.3930e+02	6.0670	7.235422	0.000319	3.192756	0.540868	-0.000032
1402	1.3940e+02	6.0578	7.207723	0.000278	2.783429	0.471526	-0.000028
1403	1.3950e+02	6.0448	7.177987	0.000299	2.988092	0.506197	-0.000030
1404	1.3960e+02	6.0355	7.149473	0.000287	2.865294	0.485394	-0.000029
1405	1.3970e+02	6.0264	7.120144	0.000295	2.947160	0.499262	-0.000029
1406	1.3980e+02	6.0159	7.090001	0.000303	3.029025	0.513131	-0.000030
1407	1.3990e+02	6.0075	7.059450	0.000307	3.069958	0.520065	-0.000031
1408	1.4000e+02	5.9962	7.028492	0.000311	3.110891	0.526999	-0.000031
1409	1.4010e+02	5.9859	7.000793	0.000278	2.783429	0.471526	-0.000028
1410	1.4020e+02	5.9765	6.973908	0.000270	2.701563	0.457657	-0.000027
1411	1.4029e+02	5.9669	6.942950	0.000311	3.110891	0.526999	-0.000031
1412	1.4039e+02	5.9566	6.913214	0.000299	2.988092	0.506197	-0.000030
1413	1.4049e+02	5.9464	6.883478	0.000299	2.988092	0.506197	-0.000030
1414	1.4059e+02	5.9351	6.852927	0.000307	3.069958	0.520065	-0.000031
1415	1.4069e+02	5.9277	6.820747	0.000323	3.233689	0.547802	-0.000032
1416	1.4079e+02	5.9171	6.791826	0.000291	2.906227	0.492328	-0.000029
1417	1.4089e+02	5.9087	6.762905	0.000291	2.906227	0.492328	-0.000029
1418	1.4099e+02	5.8981	6.729503	0.000336	3.356487	0.568604	-0.000034
1419	1.4109e+02	5.8875	6.702211	0.000274	2.742496	0.464591	-0.000027
1420	1.4119e+02	5.8752	6.671660	0.000307	3.069958	0.520065	-0.000031
1421	1.4129e+02	5.8697	6.644775	0.000270	2.701563	0.457657	-0.000027
1422	1.4139e+02	5.8559	6.610151	0.000348	3.479286	0.589407	-0.000035
1423	1.4149e+02	5.8468	6.585303	0.000250	2.496899	0.422986	-0.000025
1424	1.4159e+02	5.8373	6.553531	0.000319	3.192756	0.540868	-0.000032
1425	1.4169e+02	5.8256	6.519314	0.000344	3.438353	0.582473	-0.000034
1426	1.4179e+02	5.8177	6.494059	0.000254	2.537832	0.429920	-0.000025
1427	1.4189e+02	5.8074	6.463101	0.000311	3.110891	0.526999	-0.000031
1428	1.4199e+02	5.7949	6.435401	0.000278	2.783429	0.471526	-0.000028
1429	1.4209e+02	5.7876	6.402407	0.000332	3.315555	0.561670	-0.000033
1430	1.4219e+02	5.7780	6.373485	0.000291	2.906227	0.492328	-0.000029
1431	1.4228e+02	5.7653	6.340083	0.000336	3.356487	0.568604	-0.000034
1432	1.4238e+02	5.7593	6.311977	0.000282	2.824361	0.478460	-0.000028
1433	1.4248e+02	5.7467	6.278574	0.000336	3.356487	0.568604	-0.000034
1434	1.4258e+02	5.7374	6.247616	0.000311	3.110891	0.526999	-0.000031
1435	1.4268e+02	5.7285	6.213807	0.000340	3.397420	0.575539	-0.000034
1436	1.4278e+02	5.7183	6.186108	0.000278	2.783429	0.471526	-0.000028
1437	1.4288e+02	5.7070	6.147817	0.000385	3.847681	0.651815	-0.000038
1438	1.4298e+02	5.7009	6.118081	0.000299	2.988092	0.506197	-0.000030
1439	1.4308e+02	5.6893	6.085494	0.000327	3.274622	0.554736	-0.000033
1440	1.4318e+02	5.6777	6.054129	0.000315	3.151824	0.533933	-0.000032
1441	1.4328e+02	5.6691	6.024393	0.000299	2.988092	0.506197	-0.000030
1442	1.4338e+02	5.6572	5.991398	0.000332	3.315555	0.561670	-0.000033
1443	1.4348e+02	5.6483	5.959625	0.000319	3.192756	0.540868	-0.000032
1444	1.4358e+02	5.6368	5.931519	0.000282	2.824361	0.478460	-0.000028
1445	1.4368e+02	5.6278	5.892821	0.000389	3.888613	0.658749	-0.000039
1446	1.4378e+02	5.6178	5.856975	0.000360	3.602084	0.610210	-0.000036
1447	1.4388e+02	5.6091	5.825202	0.000319	3.192756	0.540868	-0.000032
1448	1.4398e+02	5.5982	5.791393	0.000340	3.397420	0.575539	-0.000034
1449	1.4408e+02	5.5910	5.755954	0.000356	3.561151	0.603275	-0.000036
1450	1.4418e+02	5.5770	5.721737	0.000344	3.438353	0.582473	-0.000034
1451	1.4428e+02	5.5694	5.688742	0.000332	3.315555	0.561670	-0.000033
1452	1.4437e+02	5.5614	5.656970	0.000319	3.192756	0.540868	-0.000032
1453	1.4447e+02	5.5460	5.624382	0.000327	3.274622	0.554736	-0.000033
1454	1.4457e+02	5.5404	5.593832	0.000307	3.069958	0.520065	-0.000031
1455	1.4467e+02	5.5322	5.560429	0.000336	3.356487	0.568604	-0.000034
1456	1.4477e+02	5.5215	5.529064	0.000315	3.151824	0.533933	-0.000032
1457	1.4487e+02	5.5097	5.497699	0.000315	3.151824	0.533933	-0.000032
1458	1.4497e+02	5.4995	5.461853	0.000360	3.602084	0.610210	-0.000036
1459	1.4507e+02	5.4877	5.432931	0.000291	2.906227	0.492328	-0.000029
1460	1.4517e+02	5.4812	5.398715	0.000344	3.438353	0.582473	-0.000034
1461	1.4527e+02	5.4684	5.367756	0.000311	3.110891	0.526999	-0.000031
1462	1.4537e+02	5.4594	5.337206	0.000307	3.069958	0.520065	-0.000031
1463	1.4547e+02	5.4517	5.306655	0.000307	3.069958	0.520065	-0.000031
1464	1.4557e+02	5.4432	5.274068	0.000327	3.274622	0.554736	-0.000033
1465	1.4567e+02	5.4317	5.242295	0.000319	3.192756	0.540868	-0.000032
1466	1.4577e+02	5.4220	5.213374	0.000291	2.906227	0.492328	-0.000029
1467	1.4587e+02	5.4089	5.182823	0.000307	3.069958	0.520065	-0.000031
1468	1.4597e+02	5.3988	5.153902	0.000291	2.906227	0.492328	-0.000029
1469	1.4607e+02	5.3884	5.127424	0.000266	2.660630	0.450723	-0.000027
1470	1.4617e+02	5.3787	5.096059	0.000315	3.151824	0.533933	-0.000032
1471	1.4626e+02	5.3698	5.065508	0.000307	3.069958	0.520065	-0.000031
1472	1.4636e+02	5.3603	5.034958	0.000307	3.069958	0.520065	-0.000031
1473	1.4646e+02	5.3503	5.005629	0.000295	2.947160	0.499262	-0.000029
1474	1.4656e+02	5.3390	4.975486	0.000303	3.029025	0.513131	-0.000030
1475	1.4666e+02	5.3277	4.951452	0.000242	2.415034	0.409118	-0.000024
1476	1.4676e+02	5.3211	4.917643	0.000340	3.397420	0.575539	-0.000034
1477	1.4686e+02	5.3069	4.888314	0.000295	2.947160	0.499262	-0.000029
1478	1.4696e+02	5.2975	4.856542	0.000319	3.192756	0.540868	-0.000032
1479	1.4706e+02	5.2889	4.827213	0.000295	2.947160	0.499262	-0.000029
1480	1.4716e+02	5.2808	4.796662	0.000307	3.069958	0.520065	-0.000031
1481	1.4726e+02	5.2709	4.770185	0.000266	2.660630	0.450723	-0.000027
1482	1.4736e+02	5.2572	4.742486	0.000278	2.783429	0.471526	-0.000028
1483	1.4746e+02	5.2502	4.715601	0.000270	2.701563	0.457657	-0.000027
1484	1.4756e+02	5.2399	4.680977	0.000348	3.479286	0.589407	-0.000035
1485	1.4766e+02	5.2295	4.651648	0.000295	2.947160	0.499262	-0.000029
1486	1.4776e+02	5.2213	4.621505	0.000303	3.029025	0.513131	-0.000030
1487	1.4786e+02	5.2105	4.594213	0.000274	2.742496	0.464591	-0.000027
1488	1.4796e+02	5.2027	4.568143	0.000262	2.619698	0.443789	-0.000026
1489	1.4806e+02	5.1900	4.534334	0.000340	3.397420	0.575539	-0.000034
1490	1.4816e+02	5.1789	4.508264	0.000262	2.619698	0.443789	-0.000026
1491	1.4825e+02	5.1707	4.480972	0.000274	2.742496	0.464591	-0.000027
1492	1.4835e+02	5.1604	4.452050	0.000291	2.906227	0.492328	-0.000029
1493	1.4845e+02	5.1514	4.421907	0.000303	3.029025	0.513131	-0.000030
1494	1.4855e+02	5.1404	4.389320	0.000327	3.274622	0.554736	-0.000033
1495	1.4865e+02	5.1300	4.359991	0.000295	2.947160	0.499262	-0.000029
1496	1.4875e+02	5.1212	4.333921	0.000262	2.619698	0.443789	-0.000026
1497	1.4885e+02	5.1092	4.300519	0.000336	3.356487	0.568604	-0.000034
1498	1.4895e+02	5.1009	4.275671	0.000250	2.496899	0.422986	-0.000025
1499	1.4905e+02	5.0910	4.248379	0.000274	2.742496	0.464591	-0.000027
1500	1.4915e+02	5.0796	4.217421	0.000311	3.110891	0.526999	-0.000031
1501	1.4925e+02	5.0704	4.190129	0.000274	2.742496	0.464591	-0.000027
1502	1.4935e+02	5.0594	4.162430	0.000278	2.783429	0.471526	-0.000028
1503	1.4945e+02	5.0502	4.133916	0.000287	2.865294	0.485394	-0.000029
1504	1.4955e+02	5.0404	4.106624	0.000274	2.742496	0.464591	-0.000027
1505	1.4965e+02	5.0326	4.078925	0.000278	2.783429	0.471526	-0.000028
1506	1.4975e+02	5.0217	4.047967	0.000311	3.110891	0.526999	-0.000031
1507	1.4985e+02	5.0103	4.016194	0.000319	3.192756	0.540868	-0.000032
1508	1.4995e+02	5.0007	3.992161	0.000242	2.415034	0.409118	-0.000024
1509	1.5005e+02	4.9909	3.959981	0.000323	3.233689	0.547802	-0.000032
1510	1.5015e+02	4.9822	3.930652	0.000295	2.947160	0.499262	-0.000029
1511	1.5025e+02	4.9695	3.898879	0.000319	3.192756	0.540868	-0.000032
1512	1.5034e+02	4.9609	3.873217	0.000258	2.578765	0.436855	-0.000026
1513	1.5044e+02	4.9506	3.847147	0.000262	2.619698	0.443789	-0.000026
1514	1.5054e+02	4.9432	3.813337	0.000340	3.397420	0.575539	-0.000034
1515	1.5064e+02	4.9349	3.785231	0.000282	2.824361	0.478460	-0.000028
1516	1.5074e+02	4.9200	3.757124	0.000282	2.824361	0.478460	-0.000028
1517	1.5084e+02	4.9123	3.731869	0.000254	2.537832	0.429920	-0.000025
1518	1.5094e+02	4.9023	3.699281	0.000327	3.274622	0.554736	-0.000033
1519	1.5104e+02	4.8916	3.680544	0.000188	1.882908	0.318973	-0.000019
1520	1.5114e+02	4.8811	3.649993	0.000307	3.069958	0.520065	-0.000031
1521	1.5124e+02	4.8723	3.620664	0.000295	2.947160	0.499262	-0.000029
1522	1.5134e+02	4.8614	3.590521	0.000303	3.029025	0.513131	-0.000030
1523	1.5144e+02	4.8528	3.566488	0.000242	2.415034	0.409118	-0.000024
1524	1.5154e+02	4.8418	3.533086	0.000336	3.356487	0.568604	-0.000034
1525	1.5164e+02	4.8321	3.507830	0.000254	2.537832	0.429920	-0.000025
1526	1.5174e+02	4.8214	3.481760	0.000262	2.619698	0.443789	-0.000026
1527	1.5184e+02	4.8116	3.453246	0.000287	2.865294	0.485394	-0.000029
1528	1.5194e+02	4.8024	3.423918	0.000295	2.947160	0.499262	-0.000029
1529	1.5204e+02	4.7941	3.400292	0.000237	2.374101	0.402184	-0.000024
1530	1.5214e+02	4.7823	3.374629	0.000258	2.578765	0.436855	-0.000026
1531	1.5224e+02	4.7718	3.347745	0.000270	2.701563	0.457657	-0.000027
1532	1.5233e+02	4.7668	3.323712	0.000242	2.415034	0.409118	-0.000024
1533	1.5243e+02	4.7524	3.296420	0.000274	2.742496	0.464591	-0.000027
1534	1.5253e+02	4.7430	3.267906	0.000287	2.865294	0.485394	-0.000029
1535	1.5263e+02	4.7330	3.241836	0.000262	2.619698	0.443789	-0.000026
1536	1.5273e+02	4.7237	3.212914	0.000291	2.906227	0.492328	-0.000029
1537	1.5283e+02	4.7147	3.184400	0.000287	2.865294	0.485394	-0.000029
1538	1.5293e+02	4.7039	3.159145	0.000254	2.537832	0.429920	-0.000025
1539	1.5303e+02	4.6939	3.124928	0.000344	3.438353	0.582473	-0.000034
1540	1.5313e+02	4.6816	3.101303	0.000237	2.374101	0.402184	-0.000024
1541	1.5323e+02	4.6760	3.072381	0.000291	2.906227	0.492328	-0.000029
1542	1.5333e+02	4.6629	3.042645	0.000299	2.988092	0.506197	-0.000030
1543	1.5343e+02	4.6526	3.016575	0.000262	2.619698	0.443789	-0.000026
1544	1.5353e+02	4.6432	2.987247	0.000295	2.947160	0.499262	-0.000029
1545	1.5363e+02	4.6334	2.957511	0.000299	2.988092	0.506197	-0.000030
1546	1.5373e+02	4.6230	2.929811	0.000278	2.783429	0.471526	-0.000028
1547	1.5383e+02	4.6121	2.900890	0.000291	2.906227	0.492328	-0.000029
1548	1.5393e+02	4.6006	2.867081	0.000340	3.397420	0.575539	-0.000034
1549	1.5403e+02	4.5918	2.840196	0.000270	2.701563	0.457657	-0.000027
1550	1.5413e+02	4.5829	2.808016	0.000323	3.233689	0.547802	-0.000032
1551	1.5422e+02	4.5737	2.778687	0.000295	2.947160	0.499262	-0.000029
1552	1.5432e+02	4.5643	2.746507	0.000323	3.233689	0.547802	-0.000032
1553	1.5442e+02	4.5560	2.719215	0.000274	2.742496	0.464591	-0.000027
1554	1.5452e+02	4.5437	2.685406	0.000340	3.397420	0.575539	-0.000034
1555	1.5462e+02	4.5355	2.649560	0.000360	3.602084	0.610210	-0.000036
1556	1.5472e+02	4.5261	2.619416	0.000303	3.029025	0.513131	-0.000030
1557	1.5482e+02	4.5168	2.589680	0.000299	2.988092	0.506197	-0.000030
1558	1.5492e+02	4.5048	2.556686	0.000332	3.315555	0.561670	-0.000033
1559	1.5502e+02	4.4930	2.525320	0.000315	3.151824	0.533933	-0.000032
1560	1.5512e+02	4.4838	2.491918	0.000336	3.356487	0.568604	-0.000034
1561	1.5522e+02	4.4779	2.462997	0.000291	2.906227	0.492328	-0.000029
1562	1.5532e+02	4.4622	2.426743	0.000364	3.643017	0.617144	-0.000036
1563	1.5542e+02	4.4530	2.397415	0.000295	2.947160	0.499262	-0.000029
1564	1.5552e+02	4.4447	2.364827	0.000327	3.274622	0.554736	-0.000033
1565	1.5562e+02	4.4341	2.329388	0.000356	3.561151	0.603275	-0.000036
1566	1.5572e+02	4.4224	2.300467	0.000291	2.906227	0.492328	-0.000029
1567	1.5582e+02	4.4140	2.269509	0.000311	3.110891	0.526999	-0.000031
1568	1.5592e+02	4.4050	2.234070	0.000356	3.561151	0.603275	-0.000036
1569	1.5602e+02	4.3963	2.205149	0.000291	2.906227	0.492328	-0.000029
1570	1.5612e+02	4.3844	2.171339	0.000340	3.397420	0.575539	-0.000034
1571	1.5622e+02	4.3737	2.134271	0.000372	3.724882	0.631012	-0.000037
1572	1.5631e+02	4.3650	2.101684	0.000327	3.274622	0.554736	-0.000033
1573	1.5641e+02	4.3534	2.067874	0.000340	3.397420	0.575539	-0.000034
1574	1.5651e+02	4.3447	2.033658	0.000344	3.438353	0.582473	-0.000034
1575	1.5661e+02	4.3361	1.999848	0.000340	3.397420	0.575539	-0.000034
1576	1.5671e+02	4.3253	1.968076	0.000319	3.192756	0.540868	-0.000032
1577	1.5681e+02	4.3162	1.935081	0.000332	3.315555	0.561670	-0.000033
1578	1.5691e+02	4.3053	1.902493	0.000327	3.274622	0.554736	-0.000033
1579	1.5701e+02	4.2952	1.872757	0.000299	2.988092	0.506197	-0.000030
1580	1.5711e+02	4.2835	1.836504	0.000364	3.643017	0.617144	-0.000036
1581	1.5721e+02	4.2754	1.803509	0.000332	3.315555	0.561670	-0.000033
1582	1.5731e+02	4.2645	1.772144	0.000315	3.151824	0.533933	-0.000032
1583	1.5741e+02	4.2556	1.734668	0.000377	3.765815	0.637946	-0.000038
1584	1.5751e+02	4.2443	1.702081	0.000327	3.274622	0.554736	-0.000033
1585	1.5761e+02	4.2345	1.668271	0.000340	3.397420	0.575539	-0.000034
1586	1.5771e+02	4.2249	1.633240	0.000352	3.520219	0.596341	-0.000035
1587	1.5781e+02	4.2118	1.601875	0.000315	3.151824	0.533933	-0.000032
1588	1.5791e+02	4.2092	1.563584	0.000385	3.847681	0.651815	-0.000038
1589	1.5801e+02	4.1947	1.532219	0.000315	3.151824	0.533933	-0.000032
1590	1.5811e+02	4.1833	1.496780	0.000356	3.561151	0.603275	-0.000036
1591	1.5821e+02	4.1763	1.464193	0.000327	3.274622	0.554736	-0.000033
1592	1.5830e+02	4.1653	1.427532	0.000368	3.683950	0.624078	-0.000037
1593	1.5840e+02	4.1537	1.397389	0.000303	3.029025	0.513131	-0.000030
1594	1.5850e+02	4.1456	1.365209	0.000323	3.233689	0.547802	-0.000032
1595	1.5860e+02	4.1372	1.332214	0.000332	3.315555	0.561670	-0.000033
1596	1.5870e+02	4.1290	1.294738	0.000377	3.765815	0.637946	-0.000038
1597	1.5880e+02	4.1178	1.259707	0.000352	3.520219	0.596341	-0.000035
1598	1.5890e+02	4.1029	1.226712	0.000332	3.315555	0.561670	-0.000033
1599	1.5900e+02	4.0974	1.189644	0.000372	3.724882	0.631012	-0.000037
1600	1.5910e+02	4.0869	1.157464	0.000323	3.233689	0.547802	-0.000032
1601	1.5920e+02	4.0762	1.122025	0.000356	3.561151	0.603275	-0.000036
1602	1.5930e+02	4.0646	1.085772	0.000364	3.643017	0.617144	-0.000036
1603	1.5940e+02	4.0597	1.048296	0.000377	3.765815	0.637946	-0.000038
1604	1.5950e+02	4.0470	1.014079	0.000344	3.438353	0.582473	-0.000034
1605	1.5960e+02	4.0348	0.976604	0.000377	3.765815	0.637946	-0.000038
1606	1.5970e+02	4.0276	0.943202	0.000336	3.356487	0.568604	-0.000034
1607	1.5980e+02	4.0145	0.906541	0.000368	3.683950	0.624078	-0.000037
1608	1.5990e+02	4.0062	0.869473	0.000372	3.724882	0.631012	-0.000037
1609	1.6000e+02	3.9986	0.832405	0.000372	3.724882	0.631012	-0.000037
1610	1.6010e+02	3.9870	0.796966	0.000356	3.561151	0.603275	-0.000036
1611	1.6019e+02	3.9777	0.761120	0.000360	3.602084	0.610210	-0.000036
1612	1.6029e+02	3.9668	0.723644	0.000377	3.765815	0.637946	-0.000038
1613	1.6039e+02	3.9556	0.686169	0.000377	3.765815	0.637946	-0.000038
1614	1.6049e+02	3.9494	0.651137	0.000352	3.520219	0.596341	-0.000035
1615	1.6059e+02	3.9375	0.608773	0.000426	4.257008	0.721157	-0.000043
1616	1.6069e+02	3.9291	0.570483	0.000385	3.847681	0.651815	-0.000038
1617	1.6079e+02	3.9188	0.530564	0.000401	4.011412	0.679552	-0.000040
1618	1.6089e+02	3.9076	0.495125	0.000356	3.561151	0.603275	-0.000036
1619	1.6099e+02	3.8992	0.458057	0.000372	3.724882	0.631012	-0.000037
1620	1.6109e+02	3.8865	0.423025	0.000352	3.520219	0.596341	-0.000035
1621	1.6119e+02	3.8752	0.385550	0.000377	3.765815	0.637946	-0.000038
1622	1.6129e+02	3.8646	0.355406	0.000303	3.029025	0.513131	-0.000030
1623	1.6139e+02	3.8552	0.315079	0.000405	4.052345	0.686486	-0.000041
1624	1.6149e+02	3.8444	0.278011	0.000372	3.724882	0.631012	-0.000037
1625	1.6159e+02	3.8351	0.237684	0.000405	4.052345	0.686486	-0.000041
1626	1.6169e+02	3.8293	0.204690	0.000332	3.315555	0.561670	-0.000033
1627	1.6179e+02	3.8189	0.169658	0.000352	3.520219	0.596341	-0.000035
1628	1.6189e+02	3.8078	0.134219	0.000356	3.561151	0.603275	-0.000036
1629	1.6199e+02	3.7978	0.098373	0.000360	3.602084	0.610210	-0.000036
1630	1.6209e+02	3.7868	0.061305	0.000372	3.724882	0.631012	-0.000037
1631	1.6219e+02	3.7783	0.031976	0.000295	2.947160	0.499262	-0.000029
1632	1.6228e+02	3.7676	-0.006721	0.000389	3.888613	0.658749	-0.000039
1633	1.6238e+02	3.7574	-0.036865	0.000303	3.029025	0.513131	-0.000030
1634	1.6248e+02	3.7450	-0.073118	0.000364	3.643017	0.617144	-0.000036
1635	1.6258e+02	3.7350	-0.105298	0.000323	3.233689	0.547802	-0.000032
1636	1.6268e+02	3.7267	-0.139922	0.000348	3.479286	0.589407	-0.000035
1637	1.6278e+02	3.7163	-0.173324	0.000336	3.356487	0.568604	-0.000034
1638	1.6288e+02	3.7093	-0.205504	0.000323	3.233689	0.547802	-0.000032
1639	1.6298e+02	3.6989	-0.242572	0.000372	3.724882	0.631012	-0.000037
1640	1.6308e+02	3.6861	-0.278419	0.000360	3.602084	0.610210	-0.000036
1641	1.6318e+02	3.6779	-0.307747	0.000295	2.947160	0.499262	-0.000029
1642	1.6328e+02	3.6668	-0.345630	0.000381	3.806748	0.644881	-0.000038
1643	1.6338e+02	3.6565	-0.378218	0.000327	3.274622	0.554736	-0.000033
1644	1.6348e+02	3.6468	-0.410398	0.000323	3.233689	0.547802	-0.000032
1645	1.6358e+02	3.6379	-0.445429	0.000352	3.520219	0.596341	-0.000035
1646	1.6368e+02	3.6337	-0.475980	0.000307	3.069958	0.520065	-0.000031
1647	1.6378e+02	3.6182	-0.511011	0.000352	3.520219	0.596341	-0.000035
1648	1.6388e+02	3.6082	-0.545635	0.000348	3.479286	0.589407	-0.000035
1649	1.6398e+02	3.5952	-0.580667	0.000352	3.520219	0.596341	-0.000035
1650	1.6408e+02	3.5886	-0.613254	0.000327	3.274622	0.554736	-0.000033
1651	1.6418e+02	3.5797	-0.644212	0.000311	3.110891	0.526999	-0.000031
1652	1.6427e+02	3.5687	-0.680058	0.000360	3.602084	0.610210	-0.000036
1653	1.6437e+02	3.5583	-0.709794	0.000299	2.988092	0.506197	-0.000030
1654	1.6447e+02	3.5487	-0.742789	0.000332	3.315555	0.561670	-0.000033
1655	1.6457e+02	3.5377	-0.777006	0.000344	3.438353	0.582473	-0.000034
1656	1.6467e+02	3.5299	-0.810815	0.000340	3.397420	0.575539	-0.000034
1657	1.6477e+02	3.5162	-0.844217	0.000336	3.356487	0.568604	-0.000034
1658	1.6487e+02	3.5065	-0.876397	0.000323	3.233689	0.547802	-0.000032
1659	1.6497e+02	3.4994	-0.909800	0.000336	3.356487	0.568604	-0.000034
1660	1.6507e+02	3.4914	-0.942794	0.000332	3.315555	0.561670	-0.000033
1661	1.6517e+02	3.4796	-0.976196	0.000336	3.356487	0.568604	-0.000034
1662	1.6527e+02	3.4705	-1.011228	0.000352	3.520219	0.596341	-0.000035
1663	1.6537e+02	3.4599	-1.043001	0.000319	3.192756	0.540868	-0.000032
1664	1.6547e+02	3.4496	-1.075588	0.000327	3.274622	0.554736	-0.000033
1665	1.6557e+02	3.4438	-1.111027	0.000356	3.561151	0.603275	-0.000036
1666	1.6567e+02	3.4318	-1.141170	0.000303	3.029025	0.513131	-0.000030
1667	1.6577e+02	3.4197	-1.174572	0.000336	3.356487	0.568604	-0.000034
1668	1.6587e+02	3.4084	-1.205123	0.000307	3.069958	0.520065	-0.000031
1669	1.6597e+02	3.3991	-1.239747	0.000348	3.479286	0.589407	-0.000035
1670	1.6607e+02	3.3909	-1.272742	0.000332	3.315555	0.561670	-0.000033
1671	1.6616e+02	3.3791	-1.303292	0.000307	3.069958	0.520065	-0.000031
1672	1.6626e+02	3.3694	-1.335880	0.000327	3.274622	0.554736	-0.000033
1673	1.6636e+02	3.3606	-1.368060	0.000323	3.233689	0.547802	-0.000032
1674	1.6646e+02	3.3489	-1.401869	0.000340	3.397420	0.575539	-0.000034
1675	1.6656e+02	3.3398	-1.436901	0.000352	3.520219	0.596341	-0.000035
1676	1.6666e+02	3.3297	-1.473154	0.000364	3.643017	0.617144	-0.000036
1677	1.6676e+02	3.3204	-1.505334	0.000323	3.233689	0.547802	-0.000032
1678	1.6686e+02	3.3096	-1.539551	0.000344	3.438353	0.582473	-0.000034
1679	1.6696e+02	3.2998	-1.569287	0.000299	2.988092	0.506197	-0.000030
1680	1.6706e+02	3.2890	-1.602282	0.000332	3.315555	0.561670	-0.000033
1681	1.6716e+02	3.2800	-1.636499	0.000344	3.438353	0.582473	-0.000034
1682	1.6726e+02	3.2663	-1.670308	0.000340	3.397420	0.575539	-0.000034
1683	1.6736e+02	3.2590	-1.705340	0.000352	3.520219	0.596341	-0.000035
1684	1.6746e+02	3.2484	-1.736298	0.000311	3.110891	0.526999	-0.000031
1685	1.6756e+02	3.2397	-1.766034	0.000299	2.988092	0.506197	-0.000030
1686	1.6766e+02	3.2322	-1.799028	0.000332	3.315555	0.561670	-0.000033
1687	1.6776e+02	3.2180	-1.830801	0.000319	3.192756	0.540868	-0.000032
1688	1.6786e+02	3.2108	-1.861352	0.000307	3.069958	0.520065	-0.000031
1689	1.6796e+02	3.2014	-1.893939	0.000327	3.274622	0.554736	-0.000033
1690	1.6806e+02	3.1908	-1.927749	0.000340	3.397420	0.575539	-0.000034
1691	1.6816e+02	3.1790	-1.956670	0.000291	2.906227	0.492328	-0.000029
1692	1.6825e+02	3.1705	-1.994145	0.000377	3.765815	0.637946	-0.000038
1693	1.6835e+02	3.1625	-2.023881	0.000299	2.988092	0.506197	-0.000030
1694	1.6845e+02	3.1510	-2.057691	0.000340	3.397420	0.575539	-0.000034
1695	1.6855e+02	3.1402	-2.084576	0.000270	2.701563	0.457657	-0.000027
1696	1.6865e+02	3.1313	-2.115941	0.000315	3.151824	0.533933	-0.000032
1697	1.6875e+02	3.1214	-2.150565	0.000348	3.479286	0.589407	-0.000035
1698	1.6885e+02	3.1104	-2.174191	0.000237	2.374101	0.402184	-0.000024
1699	1.6895e+02	3.1004	-2.208815	0.000348	3.479286	0.589407	-0.000035
1700	1.6905e+02	3.0912	-2.236514	0.000278	2.783429	0.471526	-0.000028
1701	1.6915e+02	3.0804	-2.268694	0.000323	3.233689	0.547802	-0.000032
1702	1.6925e+02	3.0695	-2.300467	0.000319	3.192756	0.540868	-0.000032
1703	1.6935e+02	3.0637	-2.334276	0.000340	3.397420	0.575539	-0.000034
1704	1.6945e+02	3.0500	-2.366049	0.000319	3.192756	0.540868	-0.000032
1705	1.6955e+02	3.0407	-2.396600	0.000307	3.069958	0.520065	-0.000031
1706	1.6965e+02	3.0297	-2.430409	0.000340	3.397420	0.575539	-0.000034
1707	1.6975e+02	3.0215	-2.464626	0.000344	3.438353	0.582473	-0.000034
1708	1.6985e+02	3.0114	-2.493547	0.000291	2.906227	0.492328	-0.000029
1709	1.6995e+02	3.0010	-2.527764	0.000344	3.438353	0.582473	-0.000034
1710	1.7005e+02	2.9928	-2.561574	0.000340	3.397420	0.575539	-0.000034
1711	1.7015e+02	2.9803	-2.593754	0.000323	3.233689	0.547802	-0.000032
1712	1.7024e+02	2.9736	-2.627563	0.000340	3.397420	0.575539	-0.000034
1713	1.7034e+02	2.9603	-2.660151	0.000327	3.274622	0.554736	-0.000033
1714	1.7044e+02	2.9514	-2.693553	0.000336	3.356487	0.568604	-0.000034
1715	1.7054e+02	2.9433	-2.730213	0.000368	3.683950	0.624078	-0.000037
1716	1.7064e+02	2.9304	-2.762801	0.000327	3.274622	0.554736	-0.000033
1717	1.7074e+02	2.9231	-2.798240	0.000356	3.561151	0.603275	-0.000036
1718	1.7084e+02	2.9099	-2.836530	0.000385	3.847681	0.651815	-0.000038
1719	1.7094e+02	2.9012	-2.871154	0.000348	3.479286	0.589407	-0.000035
1720	1.7104e+02	2.8948	-2.906593	0.000356	3.561151	0.603275	-0.000036
1721	1.7114e+02	2.8808	-2.939995	0.000336	3.356487	0.568604	-0.000034
1722	1.7124e+02	2.8691	-2.978285	0.000385	3.847681	0.651815	-0.000038
1723	1.7134e+02	2.8613	-3.014946	0.000368	3.683950	0.624078	-0.000037
1724	1.7144e+02	2.8512	-3.047941	0.000332	3.315555	0.561670	-0.000033
1725	1.7154e+02	2.8417	-3.085416	0.000377	3.765815	0.637946	-0.000038
1726	1.7164e+02	2.8344	-3.120040	0.000348	3.479286	0.589407	-0.000035
1727	1.7174e+02	2.8244	-3.159553	0.000397	3.970479	0.672617	-0.000040
1728	1.7184e+02	2.8098	-3.192547	0.000332	3.315555	0.561670	-0.000033
1729	1.7194e+02	2.8029	-3.229208	0.000368	3.683950	0.624078	-0.000037
1730	1.7204e+02	2.7915	-3.269535	0.000405	4.052345	0.686486	-0.000041
1731	1.7213e+02	2.7824	-3.304566	0.000352	3.520219	0.596341	-0.000035
1732	1.7223e+02	2.7741	-3.342857	0.000385	3.847681	0.651815	-0.000038
1733	1.7233e+02	2.7625	-3.373815	0.000311	3.110891	0.526999	-0.000031
1734	1.7243e+02	2.7518	-3.417400	0.000438	4.379807	0.741959	-0.000044
1735	1.7253e+02	2.7438	-3.452024	0.000348	3.479286	0.589407	-0.000035
1736	1.7263e+02	2.7297	-3.487871	0.000360	3.602084	0.610210	-0.000036
1737	1.7273e+02	2.7233	-3.526568	0.000389	3.888613	0.658749	-0.000039
1738	1.7283e+02	2.7119	-3.564044	0.000377	3.765815	0.637946	-0.000038
1739	1.7293e+02	2.7036	-3.599075	0.000352	3.520219	0.596341	-0.000035
1740	1.7303e+02	2.6922	-3.639809	0.000409	4.093277	0.693420	-0.000041
1741	1.7313e+02	2.6835	-3.676470	0.000368	3.683950	0.624078	-0.000037
1742	1.7323e+02	2.6730	-3.714760	0.000385	3.847681	0.651815	-0.000038
1743	1.7333e+02	2.6612	-3.751014	0.000364	3.643017	0.617144	-0.000036
1744	1.7343e+02	2.6534	-3.789304	0.000385	3.847681	0.651815	-0.000038
1745	1.7353e+02	2.6427	-3.829631	0.000405	4.052345	0.686486	-0.000041
1746	1.7363e+02	2.6331	-3.865884	0.000364	3.643017	0.617144	-0.000036
1747	1.7373e+02	2.6211	-3.901323	0.000356	3.561151	0.603275	-0.000036
1748	1.7383e+02	2.6110	-3.943280	0.000422	4.216076	0.714223	-0.000042
1749	1.7393e+02	2.6039	-3.980348	0.000372	3.724882	0.631012	-0.000037
1750	1.7403e+02	2.5930	-4.020675	0.000405	4.052345	0.686486	-0.000041
1751	1.7413e+02	2.5846	-4.052855	0.000323	3.233689	0.547802	-0.000032
1752	1.7422e+02	2.5736	-4.094404	0.000418	4.175143	0.707288	-0.000042
1753	1.7432e+02	2.5645	-4.134323	0.000401	4.011412	0.679552	-0.000040
1754	1.7442e+02	2.5520	-4.175465	0.000413	4.134210	0.700354	-0.000041
1755	1.7452e+02	2.5452	-4.212533	0.000372	3.724882	0.631012	-0.000037
1756	1.7462e+02	2.5330	-4.254897	0.000426	4.257008	0.721157	-0.000043
1757	1.7472e+02	2.5246	-4.289928	0.000352	3.520219	0.596341	-0.000035
1758	1.7482e+02	2.5135	-4.328218	0.000385	3.847681	0.651815	-0.000038
1759	1.7492e+02	2.5031	-4.364472	0.000364	3.643017	0.617144	-0.000036
1760	1.7502e+02	2.4915	-4.402355	0.000381	3.806748	0.644881	-0.000038
1761	1.7512e+02	2.4809	-4.441460	0.000393	3.929546	0.665683	-0.000039
1762	1.7522e+02	2.4728	-4.480157	0.000389	3.888613	0.658749	-0.000039
1763	1.7532e+02	2.4662	-4.516003	0.000360	3.602084	0.610210	-0.000036
1764	1.7542e+02	2.4531	-4.554293	0.000385	3.847681	0.651815	-0.000038
1765	1.7552e+02	2.4453	-4.597472	0.000434	4.338874	0.735025	-0.000043
1766	1.7562e+02	2.4330	-4.634133	0.000368	3.683950	0.624078	-0.000037
1767	1.7572e+02	2.4250	-4.670793	0.000368	3.683950	0.624078	-0.000037
1768	1.7582e+02	2.4129	-4.715194	0.000446	4.461672	0.755828	-0.000045
1769	1.7592e+02	2.4034	-4.755521	0.000405	4.052345	0.686486	-0.000041
1770	1.7602e+02	2.3933	-4.794626	0.000393	3.929546	0.665683	-0.000039
1771	1.7612e+02	2.3858	-4.833323	0.000389	3.888613	0.658749	-0.000039
1772	1.7621e+02	2.3763	-4.880575	0.000475	4.748202	0.804367	-0.000047
1773	1.7631e+02	2.3653	-4.916421	0.000360	3.602084	0.610210	-0.000036
1774	1.7641e+02	2.3539	-4.958377	0.000422	4.216076	0.714223	-0.000042
1775	1.7651e+02	2.3449	-4.999111	0.000409	4.093277	0.693420	-0.000041
1776	1.7661e+02	2.3349	-5.035772	0.000368	3.683950	0.624078	-0.000037
1777	1.7671e+02	2.3254	-5.076099	0.000405	4.052345	0.686486	-0.000041
1778	1.7681e+02	2.3132	-5.115204	0.000393	3.929546	0.665683	-0.000039
1779	1.7691e+02	2.3044	-5.162456	0.000475	4.748202	0.804367	-0.000047
1780	1.7701e+02	2.2935	-5.206041	0.000438	4.379807	0.741959	-0.000044
1781	1.7711e+02	2.2871	-5.246776	0.000409	4.093277	0.693420	-0.000041
1782	1.7721e+02	2.2754	-5.288732	0.000422	4.216076	0.714223	-0.000042
1783	1.7731e+02	2.2646	-5.332318	0.000438	4.379807	0.741959	-0.000044
1784	1.7741e+02	2.2532	-5.375903	0.000438	4.379807	0.741959	-0.000044
1785	1.7751e+02	2.2451	-5.419082	0.000434	4.338874	0.735025	-0.000043
1786	1.7761e+02	2.2348	-5.461038	0.000422	4.216076	0.714223	-0.000042
1787	1.7771e+02	2.2257	-5.500143	0.000393	3.929546	0.665683	-0.000039
1788	1.7781e+02	2.2147	-5.541692	0.000418	4.175143	0.707288	-0.000042
1789	1.7791e+02	2.2050	-5.577538	0.000360	3.602084	0.610210	-0.000036
1790	1.7801e+02	2.1980	-5.621938	0.000446	4.461672	0.755828	-0.000045
1791	1.7810e+02	2.1853	-5.664709	0.000430	4.297941	0.728091	-0.000043
1792	1.7820e+02	2.1770	-5.705036	0.000405	4.052345	0.686486	-0.000041
1793	1.7830e+02	2.1664	-5.750251	0.000454	4.543538	0.769696	-0.000045
1794	1.7840e+02	2.1554	-5.788541	0.000385	3.847681	0.651815	-0.000038
1795	1.7850e+02	2.1455	-5.828054	0.000397	3.970479	0.672617	-0.000040
1796	1.7860e+02	2.1342	-5.865529	0.000377	3.765815	0.637946	-0.000038
1797	1.7870e+02	2.1254	-5.906263	0.000409	4.093277	0.693420	-0.000041
1798	1.7880e+02	2.1157	-5.949442	0.000434	4.338874	0.735025	-0.000043
1799	1.7890e+02	2.1068	-5.988547	0.000393	3.929546	0.665683	-0.000039
1800	1.7900e+02	2.0997	-6.029281	0.000409	4.093277	0.693420	-0.000041
1801	1.7910e+02	2.0837	-6.063498	0.000344	3.438353	0.582473	-0.000034
1802	1.7920e+02	2.0791	-6.102602	0.000393	3.929546	0.665683	-0.000039
1803	1.7930e+02	2.0660	-6.140078	0.000377	3.765815	0.637946	-0.000038
1804	1.7940e+02	2.0544	-6.181220	0.000413	4.134210	0.700354	-0.000041
1805	1.7950e+02	2.0464	-6.215844	0.000348	3.479286	0.589407	-0.000035
1806	1.7960e+02	2.0367	-6.255356	0.000397	3.970479	0.672617	-0.000040
1807	1.7970e+02	2.0266	-6.300164	0.000450	4.502605	0.762762	-0.000045
1808	1.7980e+02	2.0170	-6.336417	0.000364	3.643017	0.617144	-0.000036
1809	1.7990e+02	2.0071	-6.373485	0.000372	3.724882	0.631012	-0.000037
1810	1.8000e+02	1.9973	-6.412590	0.000393	3.929546	0.665683	-0.000039
1811	1.8009e+02	1.9842	-6.449658	0.000372	3.724882	0.631012	-0.000037
1812	1.8019e+02	1.9756	-6.488763	0.000393	3.929546	0.665683	-0.000039
1813	1.8029e+02	1.9659	-6.527868	0.000393	3.929546	0.665683	-0.000039
1814	1.8039e+02	1.9567	-6.565344	0.000377	3.765815	0.637946	-0.000038
1815	1.8049e+02	1.9453	-6.607300	0.000422	4.216076	0.714223	-0.000042
1816	1.8059e+02	1.9361	-6.642739	0.000356	3.561151	0.603275	-0.000036
1817	1.8069e+02	1.9274	-6.684288	0.000418	4.175143	0.707288	-0.000042
1818	1.8079e+02	1.9163	-6.720948	0.000368	3.683950	0.624078	-0.000037
1819	1.8089e+02	1.9082	-6.754351	0.000336	3.356487	0.568604	-0.000034
1820	1.8099e+02	1.8978	-6.796307	0.000422	4.216076	0.714223	-0.000042
1821	1.8109e+02	1.8880	-6.832153	0.000360	3.602084	0.610210	-0.000036
1822	1.8119e+02	1.8759	-6.872887	0.000409	4.093277	0.693420	-0.000041
1823	1.8129e+02	1.8679	-6.907919	0.000352	3.520219	0.596341	-0.000035
1824	1.8139e+02	1.8560	-6.945394	0.000377	3.765815	0.637946	-0.000038
1825	1.8149e+02	1.8471	-6.985314	0.000401	4.011412	0.679552	-0.000040
1826	1.8159e+02	1.8379	-7.019938	0.000348	3.479286	0.589407	-0.000035
1827	1.8169e+02	1.8278	-7.058635	0.000389	3.888613	0.658749	-0.000039
1828	1.8179e+02	1.8174	-7.101814	0.000434	4.338874	0.735025	-0.000043
1829	1.8189e+02	1.8091	-7.135623	0.000340	3.397420	0.575539	-0.000034
1830	1.8199e+02	1.7979	-7.175135	0.000397	3.970479	0.672617	-0.000040
1831	1.8209e+02	1.7874	-7.214240	0.000393	3.929546	0.665683	-0.000039
1832	1.8218e+02	1.7760	-7.248457	0.000344	3.438353	0.582473	-0.000034
1833	1.8228e+02	1.7669	-7.292043	0.000438	4.379807	0.741959	-0.000044
1834	1.8238e+02	1.7573	-7.326667	0.000348	3.479286	0.589407	-0.000035
1835	1.8248e+02	1.7463	-7.365772	0.000393	3.929546	0.665683	-0.000039
1836	1.8258e+02	1.7372	-7.403247	0.000377	3.765815	0.637946	-0.000038
1837	1.8268e+02	1.7280	-7.437871	0.000348	3.479286	0.589407	-0.000035
1838	1.8278e+02	1.7182	-7.477791	0.000401	4.011412	0.679552	-0.000040
1839	1.8288e+02	1.7065	-7.510786	0.000332	3.315555	0.561670	-0.000033
1840	1.8298e+02	1.6954	-7.548668	0.000381	3.806748	0.644881	-0.000038
1841	1.8308e+02	1.6869	-7.588181	0.000397	3.970479	0.672617	-0.000040
1842	1.8318e+02	1.6780	-7.629322	0.000413	4.134210	0.700354	-0.000041
1843	1.8328e+02	1.6671	-7.666798	0.000377	3.765815	0.637946	-0.000038
1844	1.8338e+02	1.6612	-7.705088	0.000385	3.847681	0.651815	-0.000038
1845	1.8348e+02	1.6463	-7.741749	0.000368	3.683950	0.624078	-0.000037
1846	1.8358e+02	1.6397	-7.782076	0.000405	4.052345	0.686486	-0.000041
1847	1.8368e+02	1.6298	-7.820366	0.000385	3.847681	0.651815	-0.000038
1848	1.8378e+02	1.6189	-7.859064	0.000389	3.888613	0.658749	-0.000039
1849	1.8388e+02	1.6093	-7.897354	0.000385	3.847681	0.651815	-0.000038
1850	1.8398e+02	1.5969	-7.931978	0.000348	3.479286	0.589407	-0.000035
1851	1.8407e+02	1.5894	-7.968639	0.000368	3.683950	0.624078	-0.000037
1852	1.8417e+02	1.5784	-8.009780	0.000413	4.134210	0.700354	-0.000041
1853	1.8427e+02	1.5662	-8.044404	0.000348	3.479286	0.589407	-0.000035
1854	1.8437e+02	1.5572	-8.080658	0.000364	3.643017	0.617144	-0.000036
1855	1.8447e+02	1.5461	-8.120985	0.000405	4.052345	0.686486	-0.000041
1856	1.8457e+02	1.5389	-8.154387	0.000336	3.356487	0.568604	-0.000034
1857	1.8467e+02	1.5290	-8.193084	0.000389	3.888613	0.658749	-0.000039
1858	1.8477e+02	1.5187	-8.233411	0.000405	4.052345	0.686486	-0.000041
1859	1.8487e+02	1.5081	-8.270072	0.000368	3.683950	0.624078	-0.000037
1860	1.8497e+02	1.4979	-8.303882	0.000340	3.397420	0.575539	-0.000034
1861	1.8507e+02	1.4907	-8.340135	0.000364	3.643017	0.617144	-0.000036
1862	1.8517e+02	1.4769	-8.383313	0.000434	4.338874	0.735025	-0.000043
1863	1.8527e+02	1.4697	-8.417530	0.000344	3.438353	0.582473	-0.000034
1864	1.8537e+02	1.4571	-8.449710	0.000323	3.233689	0.547802	-0.000032
1865	1.8547e+02	1.4503	-8.483112	0.000336	3.356487	0.568604	-0.000034
1866	1.8557e+02	1.4379	-8.519773	0.000368	3.683950	0.624078	-0.000037
1867	1.8567e+02	1.4275	-8.554805	0.000352	3.520219	0.596341	-0.000035
1868	1.8577e+02	1.4191	-8.591058	0.000364	3.643017	0.617144	-0.000036
1869	1.8587e+02	1.4095	-8.624460	0.000336	3.356487	0.568604	-0.000034
1870	1.8597e+02	1.3989	-8.663972	0.000397	3.970479	0.672617	-0.000040
1871	1.8606e+02	1.3883	-8.701855	0.000381	3.806748	0.644881	-0.000038
1872	1.8616e+02	1.3767	-8.738516	0.000368	3.683950	0.624078	-0.000037
1873	1.8626e+02	1.3655	-8.779658	0.000413	4.134210	0.700354	-0.000041
1874	1.8636e+02	1.3570	-8.815504	0.000360	3.602084	0.610210	-0.000036
1875	1.8646e+02	1.3488	-8.852165	0.000368	3.683950	0.624078	-0.000037
1876	1.8656e+02	1.3382	-8.887196	0.000352	3.520219	0.596341	-0.000035
1877	1.8666e+02	1.3274	-8.926708	0.000397	3.970479	0.672617	-0.000040
1878	1.8676e+02	1.3181	-8.967850	0.000413	4.134210	0.700354	-0.000041
1879	1.8686e+02	1.3068	-9.007770	0.000401	4.011412	0.679552	-0.000040
1880	1.8696e+02	1.3003	-9.041986	0.000344	3.438353	0.582473	-0.000034
1881	1.8706e+02	1.2923	-9.083535	0.000418	4.175143	0.707288	-0.000042
1882	1.8716e+02	1.2808	-9.122640	0.000393	3.929546	0.665683	-0.000039
1883	1.8726e+02	1.2697	-9.158894	0.000364	3.643017	0.617144	-0.000036
1884	1.8736e+02	1.2593	-9.199221	0.000405	4.052345	0.686486	-0.000041
1885	1.8746e+02	1.2493	-9.236289	0.000372	3.724882	0.631012	-0.000037
1886	1.8756e+02	1.2383	-9.276616	0.000405	4.052345	0.686486	-0.000041
1887	1.8766e+02	1.2304	-9.319794	0.000434	4.338874	0.735025	-0.000043
1888	1.8776e+02	1.2197	-9.356862	0.000372	3.724882	0.631012	-0.000037
1889	1.8786e+02	1.2080	-9.396374	0.000397	3.970479	0.672617	-0.000040
1890	1.8796e+02	1.2012	-9.439960	0.000438	4.379807	0.741959	-0.000044
1891	1.8806e+02	1.1906	-9.478658	0.000389	3.888613	0.658749	-0.000039
1892	1.8815e+02	1.1784	-9.521836	0.000434	4.338874	0.735025	-0.000043
1893	1.8825e+02	1.1716	-9.565014	0.000434	4.338874	0.735025	-0.000043
1894	1.8835e+02	1.1581	-9.606970	0.000422	4.216076	0.714223	-0.000042
1895	1.8845e+02	1.1510	-9.648112	0.000413	4.134210	0.700354	-0.000041
1896	1.8855e+02	1.1420	-9.692105	0.000442	4.420740	0.748894	-0.000044
1897	1.8865e+02	1.1296	-9.732025	0.000401	4.011412	0.679552	-0.000040
1898	1.8875e+02	1.1223	-9.773981	0.000422	4.216076	0.714223	-0.000042
1899	1.8885e+02	1.1140	-9.817974	0.000442	4.420740	0.748894	-0.000044
1900	1.8895e+02	1.1008	-9.857486	0.000397	3.970479	0.672617	-0.000040
1901	1.8905e+02	1.0900	-9.892518	0.000352	3.520219	0.596341	-0.000035
1902	1.8915e+02	1.0821	-9.939362	0.000471	4.707269	0.797433	-0.000047
1903	1.8925e+02	1.0740	-9.987836	0.000487	4.871000	0.825170	-0.000049
1904	1.8935e+02	1.0629	-10.027755	0.000401	4.011412	0.679552	-0.000040
1905	1.8945e+02	1.0480	-10.070934	0.000434	4.338874	0.735025	-0.000043
1906	1.8955e+02	1.0403	-10.110446	0.000397	3.970479	0.672617	-0.000040
1907	1.8965e+02	1.0320	-10.155661	0.000454	4.543538	0.769696	-0.000045
1908	1.8975e+02	1.0225	-10.195988	0.000405	4.052345	0.686486	-0.000041
1909	1.8985e+02	1.0090	-10.239166	0.000434	4.338874	0.735025	-0.000043
1910	1.8995e+02	1.0016	-10.282344	0.000434	4.338874	0.735025	-0.000043
1911	1.9004e+02	0.9888	-10.326337	0.000442	4.420740	0.748894	-0.000044
1912	1.9014e+02	0.9832	-10.371145	0.000450	4.502605	0.762762	-0.000045
1913	1.9024e+02	0.9729	-10.409435	0.000385	3.847681	0.651815	-0.000038
1914	1.9034e+02	0.9634	-10.454650	0.000454	4.543538	0.769696	-0.000045
1915	1.9044e+02	0.9521	-10.496607	0.000422	4.216076	0.714223	-0.000042
1916	1.9054e+02	0.9425	-10.544266	0.000479	4.789135	0.811301	-0.000048
1917	1.9064e+02	0.9284	-10.585000	0.000409	4.093277	0.693420	-0.000041
1918	1.9074e+02	0.9210	-10.629808	0.000450	4.502605	0.762762	-0.000045
1919	1.9084e+02	0.9105	-10.674208	0.000446	4.461672	0.755828	-0.000045
1920	1.9094e+02	0.9013	-10.716572	0.000426	4.257008	0.721157	-0.000043
1921	1.9104e+02	0.8911	-10.756898	0.000405	4.052345	0.686486	-0.000041
1922	1.9114e+02	0.8804	-10.802521	0.000458	4.584471	0.776630	-0.000046
1923	1.9124e+02	0.8732	-10.846106	0.000438	4.379807	0.741959	-0.000044
1924	1.9134e+02	0.8625	-10.891729	0.000458	4.584471	0.776630	-0.000046
1925	1.9144e+02	0.8520	-10.935722	0.000442	4.420740	0.748894	-0.000044
1926	1.9154e+02	0.8391	-10.974012	0.000385	3.847681	0.651815	-0.000038
1927	1.9164e+02	0.8321	-11.018820	0.000450	4.502605	0.762762	-0.000045
1928	1.9174e+02	0.8221	-11.061591	0.000430	4.297941	0.728091	-0.000043
1929	1.9184e+02	0.8117	-11.105584	0.000442	4.420740	0.748894	-0.000044
1930	1.9194e+02	0.8038	-11.149169	0.000438	4.379807	0.741959	-0.000044
1931	1.9203e+02	0.7912	-11.193977	0.000450	4.502605	0.762762	-0.000045
1932	1.9213e+02	0.7819	-11.237155	0.000434	4.338874	0.735025	-0.000043
1933	1.9223e+02	0.7726	-11.281556	0.000446	4.461672	0.755828	-0.000045
1934	1.9233e+02	0.7641	-11.325141	0.000438	4.379807	0.741959	-0.000044
1935	1.9243e+02	0.7486	-11.373615	0.000487	4.871000	0.825170	-0.000049
1936	1.9253e+02	0.7423	-11.416386	0.000430	4.297941	0.728091	-0.000043
1937	1.9263e+02	0.7356	-11.463230	0.000471	4.707269	0.797433	-0.000047
1938	1.9273e+02	0.7231	-11.512519	0.000495	4.952866	0.839038	-0.000050
1939	1.9283e+02	0.7138	-11.555697	0.000434	4.338874	0.735025	-0.000043
1940	1.9293e+02	0.7018	-11.601320	0.000458	4.584471	0.776630	-0.000046
1941	1.9303e+02	0.6939	-11.650608	0.000495	4.952866	0.839038	-0.000050
1942	1.9313e+02	0.6813	-11.696230	0.000458	4.584471	0.776630	-0.000046
1943	1.9323e+02	0.6725	-11.741038	0.000450	4.502605	0.762762	-0.000045
1944	1.9333e+02	0.6618	-11.787882	0.000471	4.707269	0.797433	-0.000047
1945	1.9343e+02	0.6508	-11.831875	0.000442	4.420740	0.748894	-0.000044
1946	1.9353e+02	0.6445	-11.875868	0.000442	4.420740	0.748894	-0.000044
1947	1.9363e+02	0.6353	-11.922713	0.000471	4.707269	0.797433	-0.000047
1948	1.9373e+02	0.6219	-11.975667	0.000532	5.321261	0.901446	-0.000053
1949	1.9383e+02	0.6136	-12.020475	0.000450	4.502605	0.762762	-0.000045
1950	1.9393e+02	0.6008	-12.066097	0.000458	4.584471	0.776630	-0.000046
1951	1.9403e+02	0.5948	-12.114978	0.000491	4.911933	0.832104	-0.000049
1952	1.9412e+02	0.5819	-12.164674	0.000499	4.993798	0.845972	-0.000050
1953	1.9422e+02	0.5746	-12.210704	0.000463	4.625403	0.783565	-0.000046
1954	1.9432e+02	0.5653	-12.257141	0.000467	4.666336	0.790499	-0.000047
1955	1.9442e+02	0.5540	-12.307652	0.000508	5.075664	0.859841	-0.000051
1956	1.9452e+02	0.5411	-12.350830	0.000434	4.338874	0.735025	-0.000043
1957	1.9462e+02	0.5346	-12.396452	0.000458	4.584471	0.776630	-0.000046
1958	1.9472e+02	0.5226	-12.441667	0.000454	4.543538	0.769696	-0.000045
1959	1.9482e+02	0.5145	-12.491770	0.000503	5.034731	0.852907	-0.000050
1960	1.9492e+02	0.5038	-12.534949	0.000434	4.338874	0.735025	-0.000043
1961	1.9502e+02	0.4936	-12.580164	0.000454	4.543538	0.769696	-0.000045
1962	1.9512e+02	0.4860	-12.630674	0.000508	5.075664	0.859841	-0.000051
1963	1.9522e+02	0.4735	-12.672630	0.000422	4.216076	0.714223	-0.000042
1964	1.9532e+02	0.4632	-12.718253	0.000458	4.584471	0.776630	-0.000046
1965	1.9542e+02	0.4546	-12.764690	0.000467	4.666336	0.790499	-0.000047
1966	1.9552e+02	0.4462	-12.808276	0.000438	4.379807	0.741959	-0.000044
1967	1.9562e+02	0.4337	-12.850639	0.000426	4.257008	0.721157	-0.000043
1968	1.9572e+02	0.4250	-12.900742	0.000503	5.034731	0.852907	-0.000050
1969	1.9582e+02	0.4135	-12.941069	0.000405	4.052345	0.686486	-0.000041
1970	1.9592e+02	0.4042	-12.983840	0.000430	4.297941	0.728091	-0.000043
1971	1.9601e+02	0.3918	-13.028648	0.000450	4.502605	0.762762	-0.000045
1972	1.9611e+02	0.3844	-13.073048	0.000446	4.461672	0.755828	-0.000045
1973	1.9621e+02	0.3765	-13.121522	0.000487	4.871000	0.825170	-0.000049
1974	1.9631e+02	0.3632	-13.160627	0.000393	3.929546	0.665683	-0.000039
1975	1.9641e+02	0.3551	-13.206249	0.000458	4.584471	0.776630	-0.000046
1976	1.9651e+02	0.3448	-13.248205	0.000422	4.216076	0.714223	-0.000042
1977	1.9661e+02	0.3364	-13.295457	0.000475	4.748202	0.804367	-0.000047
1978	1.9671e+02	0.3242	-13.336191	0.000409	4.093277	0.693420	-0.000041
1979	1.9681e+02	0.3135	-13.381814	0.000458	4.584471	0.776630	-0.000046
1980	1.9691e+02	0.3056	-13.422548	0.000409	4.093277	0.693420	-0.000041
1981	1.9701e+02	0.2937	-13.467763	0.000454	4.543538	0.769696	-0.000045
1982	1.9711e+02	0.2844	-13.511349	0.000438	4.379807	0.741959	-0.000044
1983	1.9721e+02	0.2748	-13.552898	0.000418	4.175143	0.707288	-0.000042
1984	1.9731e+02	0.2629	-13.596483	0.000438	4.379807	0.741959	-0.000044
1985	1.9741e+02	0.2546	-13.644142	0.000479	4.789135	0.811301	-0.000048
1986	1.9751e+02	0.2470	-13.686506	0.000426	4.257008	0.721157	-0.000043
1987	1.9761e+02	0.2370	-13.728462	0.000422	4.216076	0.714223	-0.000042
1988	1.9771e+02	0.2263	-13.776121	0.000479	4.789135	0.811301	-0.000048
1989	1.9781e+02	0.2148	-13.818892	0.000430	4.297941	0.728091	-0.000043
1990	1.9791e+02	0.2059	-13.856368	0.000377	3.765815	0.637946	-0.000038
1991	1.9800e+02	0.1930	-13.899954	0.000438	4.379807	0.741959	-0.000044
1992	1.9810e+02	0.1819	-13.941910	0.000422	4.216076	0.714223	-0.000042
1993	1.9820e+02	0.1759	-13.991606	0.000499	4.993798	0.845972	-0.000050
1994	1.9830e+02	0.1646	-14.031525	0.000401	4.011412	0.679552	-0.000040
1995	1.9840e+02	0.1529	-14.075926	0.000446	4.461672	0.755828	-0.000045
1996	1.9850e+02	0.1447	-14.119511	0.000438	4.379807	0.741959	-0.000044
1997	1.9860e+02	0.1358	-14.163097	0.000438	4.379807	0.741959	-0.000044
1998	1.9870e+02	0.1255	-14.205460	0.000426	4.257008	0.721157	-0.000043
1999	1.9880e+02	0.1148	-14.248231	0.000430	4.297941	0.728091	-0.000043
2000	1.9890e+02	0.1043	-14.291410	0.000434	4.338874	0.735025	-0.000043
2001	1.9900e+02	0.0962	-14.332959	0.000418	4.175143	0.707288	-0.000042
2002	1.9910e+02	0.0806	-14.376952	0.000442	4.420740	0.748894	-0.000044
2003	1.9920e+02	0.0754	-14.418501	0.000418	4.175143	0.707288	-0.000042
2004	1.9930e+02	0.0669	-14.458828	0.000405	4.052345	0.686486	-0.000041
2005	1.9940e+02	0.0558	-14.507709	0.000491	4.911933	0.832104	-0.000049
2006	1.9950e+02	0.0465	-14.545591	0.000381	3.806748	0.644881	-0.000038
2007	1.9960e+02	0.0357	-14.587140	0.000418	4.175143	0.707288	-0.000042
2008	1.9970e+02	0.0254	-14.634800	0.000479	4.789135	0.811301	-0.000048
2009	1.9980e+02	0.0154	-14.680015	0.000454	4.543538	0.769696	-0.000045
2010	1.9990e+02	0.0062	-14.723193	0.000434	4.338874	0.735025	-0.000043
2011	2.0000e+02	-0.0040	-14.765964	0.000434	4.338874	0.735025	-0.000043

PMax (uC/cm2):	3.30e+01
Pr (uC/cm2):	1.75e+00
-Pr (uC/cm2):	0.00e+00
PLoss (uC/cm2):	0.00e+00
C (Max-Eff) (nF):	3.30e-01
K (Eff):	5.60e+02
Vert. (+/-Pr) Shift (uC/cm2):	8.77e-01
Offset (uC/cm2):	1.65e+01

A (Loop Area - uC/cm2·Volts):	-1.74e-02



Hysteresis Version: 5.48.1 - Radiant Technologies, Inc., 1999 - 9/12/24

