»»»»»»»»»»»»»»»»»»»»»»»»»»»»»»»»»»»» Hysteresis ««««««««««««««««««««««««««««««««««««
»»»  Executed Version:	5.48.1
»»»  Vision Version:	5.48.4 (R)
»»»  Vision Compiled:	9/18/24
»»»  Driver Version:	5.47.0
»»»  Windows Version:	Windows 8 or 8.1
»»»  Processor Information:	x86 (AMD or Intel) - 32 Processors
»»»  Tester Name:	PMF21124-494 (100V)
»»»  Tester S/N:	PMF21124-494
»»»  Internal Amp Type:	100V RevK 270k
»»»  Internal Amp S/N:	iAB2-596/K     
»»»  Execution Count:	1
»»»»»»»»»»»»»»»»»»»»»»»»»»»»»»»»»»»»»»»»»»««««««««««««««««««««««««««««««««««««««««««

Stored:	6/30/2025 - 11:26:8
Configured:	06/30/25 10:19:58 AM
Executed:	06/30/25 11:25:34 AM

»»»»»»»»»»»»»»»»»»»»»»»»»»»»»»»»»»» Sample Info ««««««««««««««««««««««««««««««««««««
Sample Name:	
Lot Name:	
Wafer Name:	
Die Row/Column:	0/0
Capacitor Number:	0
Sample Area (cm2):	1.00e-04
Sample Thickness (microns):	1.50e-01

Amplifier:	Internal

»»»»»»»»»»»»»»»»»»»»»»»»»»»»»»»»»»» Tester Info «««««««««««««««««««««««««««««««««««
Tester Name:	PMF21124-494 (100V)
Tester Serial Number:	PMF21124-494
Return Signal Amp. Level:	1.9 [Index: 2]

»»»»»»»»»»»»»»»»»»»»»»»»»»»»»»»» Hysteresis Info ««««««««««««««««««««««««««««««««««
Task Name:	Hyst-1804
Volts:	10.00
Field:	666.67 (kV/cm)
DCBias:	0.00
DCField:	0.00 (kV/cm)
Hysteresis Period (ms):	2.00e+02
Preset:	Enabled
Preset Delay (ms):	1.00e+03
Profile:	Standard Monopolar

»»»»»»»»»»»»»»»»»»»»»»»»»»»»»»»»»»»»»» Data «««««««««««««««««««««««««««««««««««««««
Points:	2011

Valid Data

Point	Time (ms)	Drive Voltage	Measured Polarization (uC/cm2)	Capacitance (uF)	Normalized Capacitance (uF/cm2)	Dielectric Constant	Instantaneous Current (mA)
   1	0.0000e+00	-0.0023	-17.277434	0.000414	4.135709	0.700608	0.000041
   2	9.9500e-02	0.0053	-17.236293	0.000414	4.135709	0.700608	0.000041
   3	1.9900e-01	0.0151	-17.197188	0.000393	3.930971	0.665924	0.000039
   4	2.9850e-01	0.0255	-17.156861	0.000405	4.053813	0.686735	0.000041
   5	3.9800e-01	0.0365	-17.112053	0.000450	4.504237	0.763038	0.000045
   6	4.9750e-01	0.0471	-17.072948	0.000393	3.930971	0.665924	0.000039
   7	5.9700e-01	0.0564	-17.030992	0.000422	4.217604	0.714481	0.000042
   8	6.9650e-01	0.0657	-16.987406	0.000438	4.381394	0.742228	0.000044
   9	7.9600e-01	0.0745	-16.946265	0.000414	4.135709	0.700608	0.000041
  10	8.9550e-01	0.0837	-16.902272	0.000442	4.422342	0.749165	0.000044
  11	9.9500e-01	0.0958	-16.859094	0.000434	4.340447	0.735292	0.000043
  12	1.0945e+00	0.1048	-16.819989	0.000393	3.930971	0.665924	0.000039
  13	1.1940e+00	0.1148	-16.773144	0.000471	4.708975	0.797722	0.000047
  14	1.2935e+00	0.1258	-16.738520	0.000348	3.480547	0.589621	0.000035
  15	1.3930e+00	0.1375	-16.694527	0.000442	4.422342	0.749165	0.000044
  16	1.4925e+00	0.1444	-16.652978	0.000418	4.176656	0.707545	0.000042
  17	1.5920e+00	0.1535	-16.607763	0.000455	4.545185	0.769975	0.000045
  18	1.6915e+00	0.1643	-16.567029	0.000409	4.094761	0.693671	0.000041
  19	1.7910e+00	0.1765	-16.521814	0.000455	4.545185	0.769975	0.000045
  20	1.8905e+00	0.1835	-16.481894	0.000401	4.012866	0.679798	0.000040
  21	1.9900e+00	0.1955	-16.437494	0.000446	4.463290	0.756102	0.000045
  22	2.0895e+00	0.2041	-16.398796	0.000389	3.890023	0.658988	0.000039
  23	2.1890e+00	0.2142	-16.354803	0.000442	4.422342	0.749165	0.000044
  24	2.2885e+00	0.2246	-16.316106	0.000389	3.890023	0.658988	0.000039
  25	2.3880e+00	0.2326	-16.271706	0.000446	4.463290	0.756102	0.000045
  26	2.4875e+00	0.2422	-16.233415	0.000385	3.849075	0.652051	0.000038
  27	2.5870e+00	0.2541	-16.191459	0.000422	4.217604	0.714481	0.000042
  28	2.6865e+00	0.2659	-16.153984	0.000377	3.767180	0.638178	0.000038
  29	2.7860e+00	0.2735	-16.112027	0.000422	4.217604	0.714481	0.000042
  30	2.8855e+00	0.2828	-16.070071	0.000422	4.217604	0.714481	0.000042
  31	2.9850e+00	0.2959	-16.029744	0.000405	4.053813	0.686735	0.000041
  32	3.0845e+00	0.3052	-15.989010	0.000409	4.094761	0.693671	0.000041
  33	3.1840e+00	0.3137	-15.950312	0.000389	3.890023	0.658988	0.000039
  34	3.2835e+00	0.3255	-15.913244	0.000373	3.726233	0.631241	0.000037
  35	3.3830e+00	0.3349	-15.872917	0.000405	4.053813	0.686735	0.000041
  36	3.4825e+00	0.3448	-15.836256	0.000369	3.685285	0.624304	0.000037
  37	3.5820e+00	0.3526	-15.790634	0.000459	4.586132	0.776912	0.000046
  38	3.6815e+00	0.3621	-15.758454	0.000323	3.234861	0.548000	0.000032
  39	3.7810e+00	0.3729	-15.722608	0.000360	3.603390	0.610431	0.000036
  40	3.8805e+00	0.3817	-15.682688	0.000401	4.012866	0.679798	0.000040
  41	3.9800e+00	0.3934	-15.643176	0.000397	3.971918	0.672861	0.000040
  42	4.0795e+00	0.4028	-15.602849	0.000405	4.053813	0.686735	0.000041
  43	4.1790e+00	0.4146	-15.567003	0.000360	3.603390	0.610431	0.000036
  44	4.2785e+00	0.4231	-15.530749	0.000364	3.644337	0.617367	0.000036
  45	4.3780e+00	0.4336	-15.489201	0.000418	4.176656	0.707545	0.000042
  46	4.4775e+00	0.4428	-15.448466	0.000409	4.094761	0.693671	0.000041
  47	4.5770e+00	0.4514	-15.413027	0.000356	3.562442	0.603494	0.000036
  48	4.6765e+00	0.4628	-15.371886	0.000414	4.135709	0.700608	0.000041
  49	4.7760e+00	0.4711	-15.335225	0.000369	3.685285	0.624304	0.000037
  50	4.8755e+00	0.4841	-15.301416	0.000340	3.398652	0.575747	0.000034
  51	4.9750e+00	0.4946	-15.260274	0.000414	4.135709	0.700608	0.000041
  52	5.0745e+00	0.5042	-15.224428	0.000360	3.603390	0.610431	0.000036
  53	5.1740e+00	0.5128	-15.184916	0.000397	3.971918	0.672861	0.000040
  54	5.2735e+00	0.5241	-15.147033	0.000381	3.808128	0.645114	0.000038
  55	5.3730e+00	0.5318	-15.109150	0.000381	3.808128	0.645114	0.000038
  56	5.4725e+00	0.5446	-15.069230	0.000401	4.012866	0.679798	0.000040
  57	5.5720e+00	0.5511	-15.029718	0.000397	3.971918	0.672861	0.000040
  58	5.6715e+00	0.5644	-14.989391	0.000405	4.053813	0.686735	0.000041
  59	5.7710e+00	0.5727	-14.951101	0.000385	3.849075	0.652051	0.000038
  60	5.8705e+00	0.5823	-14.911996	0.000393	3.930971	0.665924	0.000039
  61	5.9700e+00	0.5936	-14.869632	0.000426	4.258552	0.721418	0.000043
  62	6.0695e+00	0.6039	-14.835008	0.000348	3.480547	0.589621	0.000035
  63	6.1690e+00	0.6110	-14.792645	0.000426	4.258552	0.721418	0.000043
  64	6.2685e+00	0.6230	-14.756391	0.000364	3.644337	0.617367	0.000036
  65	6.3680e+00	0.6334	-14.714028	0.000426	4.258552	0.721418	0.000043
  66	6.4675e+00	0.6409	-14.673293	0.000409	4.094761	0.693671	0.000041
  67	6.5670e+00	0.6548	-14.635818	0.000377	3.767180	0.638178	0.000038
  68	6.6665e+00	0.6622	-14.596713	0.000393	3.930971	0.665924	0.000039
  69	6.7660e+00	0.6742	-14.555571	0.000414	4.135709	0.700608	0.000041
  70	6.8655e+00	0.6817	-14.513615	0.000422	4.217604	0.714481	0.000042
  71	6.9650e+00	0.6948	-14.481028	0.000328	3.275809	0.554937	0.000033
  72	7.0645e+00	0.7047	-14.439479	0.000418	4.176656	0.707545	0.000042
  73	7.1640e+00	0.7136	-14.397522	0.000422	4.217604	0.714481	0.000042
  74	7.2635e+00	0.7206	-14.359232	0.000385	3.849075	0.652051	0.000038
  75	7.3630e+00	0.7343	-14.318091	0.000414	4.135709	0.700608	0.000041
  76	7.4625e+00	0.7423	-14.279800	0.000385	3.849075	0.652051	0.000038
  77	7.5620e+00	0.7536	-14.239474	0.000405	4.053813	0.686735	0.000041
  78	7.6615e+00	0.7635	-14.199147	0.000405	4.053813	0.686735	0.000041
  79	7.7610e+00	0.7720	-14.159634	0.000397	3.971918	0.672861	0.000040
  80	7.8605e+00	0.7804	-14.118900	0.000409	4.094761	0.693671	0.000041
  81	7.9600e+00	0.7927	-14.077351	0.000418	4.176656	0.707545	0.000042
  82	8.0595e+00	0.8031	-14.037432	0.000401	4.012866	0.679798	0.000040
  83	8.1590e+00	0.8115	-13.993846	0.000438	4.381394	0.742228	0.000044
  84	8.2585e+00	0.8249	-13.960444	0.000336	3.357704	0.568810	0.000034
  85	8.3580e+00	0.8331	-13.918895	0.000418	4.176656	0.707545	0.000042
  86	8.4575e+00	0.8421	-13.880605	0.000385	3.849075	0.652051	0.000038
  87	8.5570e+00	0.8522	-13.840278	0.000405	4.053813	0.686735	0.000041
  88	8.6565e+00	0.8618	-13.799951	0.000405	4.053813	0.686735	0.000041
  89	8.7560e+00	0.8700	-13.764105	0.000360	3.603390	0.610431	0.000036
  90	8.8555e+00	0.8833	-13.722556	0.000418	4.176656	0.707545	0.000042
  91	8.9550e+00	0.8907	-13.685488	0.000373	3.726233	0.631241	0.000037
  92	9.0545e+00	0.9018	-13.648012	0.000377	3.767180	0.638178	0.000038
  93	9.1540e+00	0.9127	-13.606056	0.000422	4.217604	0.714481	0.000042
  94	9.2535e+00	0.9209	-13.568173	0.000381	3.808128	0.645114	0.000038
  95	9.3530e+00	0.9328	-13.531512	0.000369	3.685285	0.624304	0.000037
  96	9.4525e+00	0.9423	-13.492000	0.000397	3.971918	0.672861	0.000040
  97	9.5520e+00	0.9515	-13.449636	0.000426	4.258552	0.721418	0.000043
  98	9.6515e+00	0.9614	-13.412161	0.000377	3.767180	0.638178	0.000038
  99	9.7510e+00	0.9696	-13.377944	0.000344	3.439599	0.582684	0.000034
 100	9.8505e+00	0.9822	-13.339247	0.000389	3.890023	0.658988	0.000039
 101	9.9500e+00	0.9895	-13.300956	0.000385	3.849075	0.652051	0.000038
 102	1.0050e+01	0.9975	-13.265518	0.000356	3.562442	0.603494	0.000036
 103	1.0149e+01	1.0104	-13.220710	0.000450	4.504237	0.763038	0.000045
 104	1.0248e+01	1.0197	-13.186493	0.000344	3.439599	0.582684	0.000034
 105	1.0348e+01	1.0315	-13.147388	0.000393	3.930971	0.665924	0.000039
 106	1.0447e+01	1.0413	-13.107469	0.000401	4.012866	0.679798	0.000040
 107	1.0547e+01	1.0483	-13.067142	0.000405	4.053813	0.686735	0.000041
 108	1.0646e+01	1.0640	-13.030074	0.000373	3.726233	0.631241	0.000037
 109	1.0746e+01	1.0699	-12.988525	0.000418	4.176656	0.707545	0.000042
 110	1.0845e+01	1.0808	-12.948198	0.000405	4.053813	0.686735	0.000041
 111	1.0945e+01	1.0889	-12.903390	0.000450	4.504237	0.763038	0.000045
 112	1.1044e+01	1.1002	-12.867544	0.000360	3.603390	0.610431	0.000036
 113	1.1144e+01	1.1102	-12.824773	0.000430	4.299499	0.728355	0.000043
 114	1.1243e+01	1.1198	-12.785668	0.000393	3.930971	0.665924	0.000039
 115	1.1343e+01	1.1272	-12.749822	0.000360	3.603390	0.610431	0.000036
 116	1.1443e+01	1.1403	-12.704199	0.000459	4.586132	0.776912	0.000046
 117	1.1542e+01	1.1489	-12.663465	0.000409	4.094761	0.693671	0.000041
 118	1.1642e+01	1.1624	-12.622731	0.000409	4.094761	0.693671	0.000041
 119	1.1741e+01	1.1696	-12.584848	0.000381	3.808128	0.645114	0.000038
 120	1.1841e+01	1.1784	-12.540855	0.000442	4.422342	0.749165	0.000044
 121	1.1940e+01	1.1890	-12.494011	0.000471	4.708975	0.797722	0.000047
 122	1.2040e+01	1.2020	-12.456128	0.000381	3.808128	0.645114	0.000038
 123	1.2139e+01	1.2115	-12.414986	0.000414	4.135709	0.700608	0.000041
 124	1.2239e+01	1.2179	-12.370179	0.000450	4.504237	0.763038	0.000045
 125	1.2338e+01	1.2302	-12.325778	0.000446	4.463290	0.756102	0.000045
 126	1.2438e+01	1.2402	-12.287488	0.000385	3.849075	0.652051	0.000038
 127	1.2537e+01	1.2513	-12.243088	0.000446	4.463290	0.756102	0.000045
 128	1.2636e+01	1.2600	-12.203168	0.000401	4.012866	0.679798	0.000040
 129	1.2736e+01	1.2691	-12.167322	0.000360	3.603390	0.610431	0.000036
 130	1.2835e+01	1.2799	-12.118848	0.000487	4.872766	0.825469	0.000049
 131	1.2935e+01	1.2898	-12.080151	0.000389	3.890023	0.658988	0.000039
 132	1.3034e+01	1.3012	-12.038194	0.000422	4.217604	0.714481	0.000042
 133	1.3134e+01	1.3107	-11.995423	0.000430	4.299499	0.728355	0.000043
 134	1.3233e+01	1.3194	-11.949394	0.000463	4.627080	0.783849	0.000046
 135	1.3333e+01	1.3271	-11.910696	0.000389	3.890023	0.658988	0.000039
 136	1.3432e+01	1.3390	-11.861408	0.000495	4.954661	0.839342	0.000050
 137	1.3532e+01	1.3469	-11.825562	0.000360	3.603390	0.610431	0.000036
 138	1.3632e+01	1.3577	-11.783605	0.000422	4.217604	0.714481	0.000042
 139	1.3731e+01	1.3694	-11.742464	0.000414	4.135709	0.700608	0.000041
 140	1.3831e+01	1.3784	-11.697249	0.000455	4.545185	0.769975	0.000045
 141	1.3930e+01	1.3915	-11.657736	0.000397	3.971918	0.672861	0.000040
 142	1.4030e+01	1.3979	-11.618224	0.000397	3.971918	0.672861	0.000040
 143	1.4129e+01	1.4094	-11.576675	0.000418	4.176656	0.707545	0.000042
 144	1.4229e+01	1.4181	-11.538792	0.000381	3.808128	0.645114	0.000038
 145	1.4328e+01	1.4298	-11.491948	0.000471	4.708975	0.797722	0.000047
 146	1.4428e+01	1.4393	-11.453658	0.000385	3.849075	0.652051	0.000038
 147	1.4527e+01	1.4491	-11.414553	0.000393	3.930971	0.665924	0.000039
 148	1.4627e+01	1.4574	-11.371782	0.000430	4.299499	0.728355	0.000043
 149	1.4726e+01	1.4686	-11.334306	0.000377	3.767180	0.638178	0.000038
 150	1.4825e+01	1.4787	-11.293980	0.000405	4.053813	0.686735	0.000041
 151	1.4925e+01	1.4879	-11.253245	0.000409	4.094761	0.693671	0.000041
 152	1.5024e+01	1.4980	-11.213326	0.000401	4.012866	0.679798	0.000040
 153	1.5124e+01	1.5070	-11.174221	0.000393	3.930971	0.665924	0.000039
 154	1.5223e+01	1.5186	-11.136745	0.000377	3.767180	0.638178	0.000038
 155	1.5323e+01	1.5296	-11.091530	0.000455	4.545185	0.769975	0.000045
 156	1.5422e+01	1.5384	-11.056092	0.000356	3.562442	0.603494	0.000036
 157	1.5522e+01	1.5441	-11.014135	0.000422	4.217604	0.714481	0.000042
 158	1.5621e+01	1.5557	-10.972586	0.000418	4.176656	0.707545	0.000042
 159	1.5721e+01	1.5678	-10.935111	0.000377	3.767180	0.638178	0.000038
 160	1.5820e+01	1.5767	-10.896821	0.000385	3.849075	0.652051	0.000038
 161	1.5920e+01	1.5902	-10.851198	0.000459	4.586132	0.776912	0.000046
 162	1.6020e+01	1.5949	-10.812908	0.000385	3.849075	0.652051	0.000038
 163	1.6119e+01	1.6060	-10.775433	0.000377	3.767180	0.638178	0.000038
 164	1.6218e+01	1.6185	-10.736328	0.000393	3.930971	0.665924	0.000039
 165	1.6318e+01	1.6263	-10.696001	0.000405	4.053813	0.686735	0.000041
 166	1.6418e+01	1.6393	-10.657303	0.000389	3.890023	0.658988	0.000039
 167	1.6517e+01	1.6487	-10.620235	0.000373	3.726233	0.631241	0.000037
 168	1.6616e+01	1.6566	-10.576649	0.000438	4.381394	0.742228	0.000044
 169	1.6716e+01	1.6634	-10.539581	0.000373	3.726233	0.631241	0.000037
 170	1.6816e+01	1.6775	-10.498032	0.000418	4.176656	0.707545	0.000042
 171	1.6915e+01	1.6851	-10.455261	0.000430	4.299499	0.728355	0.000043
 172	1.7015e+01	1.6985	-10.418193	0.000373	3.726233	0.631241	0.000037
 173	1.7114e+01	1.7094	-10.378274	0.000401	4.012866	0.679798	0.000040
 174	1.7213e+01	1.7175	-10.335095	0.000434	4.340447	0.735292	0.000043
 175	1.7313e+01	1.7307	-10.295583	0.000397	3.971918	0.672861	0.000040
 176	1.7413e+01	1.7379	-10.254849	0.000409	4.094761	0.693671	0.000041
 177	1.7512e+01	1.7474	-10.213300	0.000418	4.176656	0.707545	0.000042
 178	1.7611e+01	1.7550	-10.176232	0.000373	3.726233	0.631241	0.000037
 179	1.7711e+01	1.7677	-10.135090	0.000414	4.135709	0.700608	0.000041
 180	1.7811e+01	1.7760	-10.095170	0.000401	4.012866	0.679798	0.000040
 181	1.7910e+01	1.7876	-10.056880	0.000385	3.849075	0.652051	0.000038
 182	1.8009e+01	1.8008	-10.011258	0.000459	4.586132	0.776912	0.000046
 183	1.8109e+01	1.8069	-9.973782	0.000377	3.767180	0.638178	0.000038
 184	1.8209e+01	1.8148	-9.931826	0.000422	4.217604	0.714481	0.000042
 185	1.8308e+01	1.8301	-9.895165	0.000369	3.685285	0.624304	0.000037
 186	1.8407e+01	1.8370	-9.847914	0.000475	4.749923	0.804659	0.000047
 187	1.8507e+01	1.8465	-9.809216	0.000389	3.890023	0.658988	0.000039
 188	1.8607e+01	1.8560	-9.766445	0.000430	4.299499	0.728355	0.000043
 189	1.8706e+01	1.8671	-9.730192	0.000364	3.644337	0.617367	0.000036
 190	1.8805e+01	1.8765	-9.687828	0.000426	4.258552	0.721418	0.000043
 191	1.8905e+01	1.8874	-9.649538	0.000385	3.849075	0.652051	0.000038
 192	1.9005e+01	1.8971	-9.613284	0.000364	3.644337	0.617367	0.000036
 193	1.9104e+01	1.9064	-9.572143	0.000414	4.135709	0.700608	0.000041
 194	1.9203e+01	1.9144	-9.536704	0.000356	3.562442	0.603494	0.000036
 195	1.9303e+01	1.9292	-9.501672	0.000352	3.521495	0.596557	0.000035
 196	1.9402e+01	1.9379	-9.460531	0.000414	4.135709	0.700608	0.000041
 197	1.9502e+01	1.9454	-9.418982	0.000418	4.176656	0.707545	0.000042
 198	1.9602e+01	1.9564	-9.383543	0.000356	3.562442	0.603494	0.000036
 199	1.9701e+01	1.9659	-9.341587	0.000422	4.217604	0.714481	0.000042
 200	1.9800e+01	1.9742	-9.304926	0.000369	3.685285	0.624304	0.000037
 201	1.9900e+01	1.9869	-9.268672	0.000364	3.644337	0.617367	0.000036
 202	2.0000e+01	1.9975	-9.231604	0.000373	3.726233	0.631241	0.000037
 203	2.0099e+01	2.0049	-9.197387	0.000344	3.439599	0.582684	0.000034
 204	2.0198e+01	2.0143	-9.154617	0.000430	4.299499	0.728355	0.000043
 205	2.0298e+01	2.0248	-9.122436	0.000323	3.234861	0.548000	0.000032
 206	2.0398e+01	2.0348	-9.084146	0.000385	3.849075	0.652051	0.000038
 207	2.0497e+01	2.0437	-9.049522	0.000348	3.480547	0.589621	0.000035
 208	2.0596e+01	2.0560	-9.012454	0.000373	3.726233	0.631241	0.000037
 209	2.0696e+01	2.0672	-8.979052	0.000336	3.357704	0.568810	0.000034
 210	2.0796e+01	2.0729	-8.944835	0.000344	3.439599	0.582684	0.000034
 211	2.0895e+01	2.0879	-8.904101	0.000409	4.094761	0.693671	0.000041
 212	2.0994e+01	2.0968	-8.869884	0.000344	3.439599	0.582684	0.000034
 213	2.1094e+01	2.1071	-8.831187	0.000389	3.890023	0.658988	0.000039
 214	2.1194e+01	2.1166	-8.797377	0.000340	3.398652	0.575747	0.000034
 215	2.1293e+01	2.1273	-8.764382	0.000332	3.316756	0.561874	0.000033
 216	2.1392e+01	2.1374	-8.725685	0.000389	3.890023	0.658988	0.000039
 217	2.1492e+01	2.1449	-8.688617	0.000373	3.726233	0.631241	0.000037
 218	2.1591e+01	2.1542	-8.657251	0.000315	3.152966	0.534127	0.000032
 219	2.1691e+01	2.1667	-8.623034	0.000344	3.439599	0.582684	0.000034
 220	2.1791e+01	2.1735	-8.585966	0.000373	3.726233	0.631241	0.000037
 221	2.1890e+01	2.1873	-8.550935	0.000352	3.521495	0.596557	0.000035
 222	2.1989e+01	2.1921	-8.512645	0.000385	3.849075	0.652051	0.000038
 223	2.2089e+01	2.2059	-8.480057	0.000328	3.275809	0.554937	0.000033
 224	2.2189e+01	2.2148	-8.437286	0.000430	4.299499	0.728355	0.000043
 225	2.2288e+01	2.2253	-8.402662	0.000348	3.480547	0.589621	0.000035
 226	2.2387e+01	2.2343	-8.371297	0.000315	3.152966	0.534127	0.000032
 227	2.2487e+01	2.2433	-8.330970	0.000405	4.053813	0.686735	0.000041
 228	2.2587e+01	2.2536	-8.297975	0.000332	3.316756	0.561874	0.000033
 229	2.2686e+01	2.2642	-8.257648	0.000405	4.053813	0.686735	0.000041
 230	2.2785e+01	2.2762	-8.222209	0.000356	3.562442	0.603494	0.000036
 231	2.2885e+01	2.2866	-8.183919	0.000385	3.849075	0.652051	0.000038
 232	2.2985e+01	2.2966	-8.145222	0.000389	3.890023	0.658988	0.000039
 233	2.3084e+01	2.3038	-8.110598	0.000348	3.480547	0.589621	0.000035
 234	2.3183e+01	2.3159	-8.073529	0.000373	3.726233	0.631241	0.000037
 235	2.3283e+01	2.3239	-8.037276	0.000364	3.644337	0.617367	0.000036
 236	2.3383e+01	2.3334	-7.998986	0.000385	3.849075	0.652051	0.000038
 237	2.3482e+01	2.3465	-7.960695	0.000385	3.849075	0.652051	0.000038
 238	2.3581e+01	2.3544	-7.923220	0.000377	3.767180	0.638178	0.000038
 239	2.3681e+01	2.3646	-7.886966	0.000364	3.644337	0.617367	0.000036
 240	2.3780e+01	2.3736	-7.854786	0.000323	3.234861	0.548000	0.000032
 241	2.3880e+01	2.3840	-7.812423	0.000426	4.258552	0.721418	0.000043
 242	2.3980e+01	2.3952	-7.775355	0.000373	3.726233	0.631241	0.000037
 243	2.4079e+01	2.4052	-7.740323	0.000352	3.521495	0.596557	0.000035
 244	2.4178e+01	2.4094	-7.703255	0.000373	3.726233	0.631241	0.000037
 245	2.4278e+01	2.4249	-7.666187	0.000373	3.726233	0.631241	0.000037
 246	2.4378e+01	2.4341	-7.627897	0.000385	3.849075	0.652051	0.000038
 247	2.4477e+01	2.4442	-7.592050	0.000360	3.603390	0.610431	0.000036
 248	2.4576e+01	2.4548	-7.553353	0.000389	3.890023	0.658988	0.000039
 249	2.4676e+01	2.4677	-7.519951	0.000336	3.357704	0.568810	0.000034
 250	2.4776e+01	2.4739	-7.477587	0.000426	4.258552	0.721418	0.000043
 251	2.4875e+01	2.4828	-7.443778	0.000340	3.398652	0.575747	0.000034
 252	2.4974e+01	2.4957	-7.406302	0.000377	3.767180	0.638178	0.000038
 253	2.5074e+01	2.5043	-7.371271	0.000352	3.521495	0.596557	0.000035
 254	2.5174e+01	2.5145	-7.331351	0.000401	4.012866	0.679798	0.000040
 255	2.5273e+01	2.5249	-7.296320	0.000352	3.521495	0.596557	0.000035
 256	2.5372e+01	2.5321	-7.260474	0.000360	3.603390	0.610431	0.000036
 257	2.5472e+01	2.5435	-7.225442	0.000352	3.521495	0.596557	0.000035
 258	2.5572e+01	2.5555	-7.188781	0.000369	3.685285	0.624304	0.000037
 259	2.5671e+01	2.5657	-7.155787	0.000332	3.316756	0.561874	0.000033
 260	2.5770e+01	2.5718	-7.120755	0.000352	3.521495	0.596557	0.000035
 261	2.5870e+01	2.5833	-7.083280	0.000377	3.767180	0.638178	0.000038
 262	2.5970e+01	2.5928	-7.047841	0.000356	3.562442	0.603494	0.000036
 263	2.6069e+01	2.6019	-7.007514	0.000405	4.053813	0.686735	0.000041
 264	2.6169e+01	2.6115	-6.974927	0.000328	3.275809	0.554937	0.000033
 265	2.6268e+01	2.6214	-6.938266	0.000369	3.685285	0.624304	0.000037
 266	2.6367e+01	2.6315	-6.900383	0.000381	3.808128	0.645114	0.000038
 267	2.6467e+01	2.6398	-6.870239	0.000303	3.030123	0.513317	0.000030
 268	2.6567e+01	2.6546	-6.831542	0.000389	3.890023	0.658988	0.000039
 269	2.6666e+01	2.6646	-6.797732	0.000340	3.398652	0.575747	0.000034
 270	2.6765e+01	2.6735	-6.764738	0.000332	3.316756	0.561874	0.000033
 271	2.6865e+01	2.6835	-6.724818	0.000401	4.012866	0.679798	0.000040
 272	2.6965e+01	2.6933	-6.689787	0.000352	3.521495	0.596557	0.000035
 273	2.7064e+01	2.6992	-6.652719	0.000373	3.726233	0.631241	0.000037
 274	2.7163e+01	2.7123	-6.618502	0.000344	3.439599	0.582684	0.000034
 275	2.7263e+01	2.7227	-6.580619	0.000381	3.808128	0.645114	0.000038
 276	2.7363e+01	2.7311	-6.543143	0.000377	3.767180	0.638178	0.000038
 277	2.7462e+01	2.7441	-6.508112	0.000352	3.521495	0.596557	0.000035
 278	2.7561e+01	2.7540	-6.469414	0.000389	3.890023	0.658988	0.000039
 279	2.7661e+01	2.7635	-6.433161	0.000364	3.644337	0.617367	0.000036
 280	2.7761e+01	2.7750	-6.395685	0.000377	3.767180	0.638178	0.000038
 281	2.7860e+01	2.7831	-6.360247	0.000356	3.562442	0.603494	0.000036
 282	2.7959e+01	2.7930	-6.325215	0.000352	3.521495	0.596557	0.000035
 283	2.8059e+01	2.8012	-6.283259	0.000422	4.217604	0.714481	0.000042
 284	2.8159e+01	2.8127	-6.248227	0.000352	3.521495	0.596557	0.000035
 285	2.8258e+01	2.8218	-6.211974	0.000364	3.644337	0.617367	0.000036
 286	2.8358e+01	2.8316	-6.167981	0.000442	4.422342	0.749165	0.000044
 287	2.8457e+01	2.8412	-6.134986	0.000332	3.316756	0.561874	0.000033
 288	2.8556e+01	2.8516	-6.095474	0.000397	3.971918	0.672861	0.000040
 289	2.8656e+01	2.8642	-6.054740	0.000409	4.094761	0.693671	0.000041
 290	2.8756e+01	2.8732	-6.013191	0.000418	4.176656	0.707545	0.000042
 291	2.8855e+01	2.8834	-5.974901	0.000385	3.849075	0.652051	0.000038
 292	2.8954e+01	2.8889	-5.938240	0.000369	3.685285	0.624304	0.000037
 293	2.9054e+01	2.9028	-5.895061	0.000434	4.340447	0.735292	0.000043
 294	2.9154e+01	2.9128	-5.864511	0.000307	3.071071	0.520253	0.000031
 295	2.9253e+01	2.9217	-5.821740	0.000430	4.299499	0.728355	0.000043
 296	2.9352e+01	2.9304	-5.783857	0.000381	3.808128	0.645114	0.000038
 297	2.9452e+01	2.9423	-5.741901	0.000422	4.217604	0.714481	0.000042
 298	2.9552e+01	2.9520	-5.704425	0.000377	3.767180	0.638178	0.000038
 299	2.9651e+01	2.9615	-5.662876	0.000418	4.176656	0.707545	0.000042
 300	2.9750e+01	2.9706	-5.623771	0.000393	3.930971	0.665924	0.000039
 301	2.9850e+01	2.9817	-5.585481	0.000385	3.849075	0.652051	0.000038
 302	2.9950e+01	2.9887	-5.546376	0.000393	3.930971	0.665924	0.000039
 303	3.0049e+01	3.0005	-5.505642	0.000409	4.094761	0.693671	0.000041
 304	3.0148e+01	3.0104	-5.466944	0.000389	3.890023	0.658988	0.000039
 305	3.0248e+01	3.0225	-5.429469	0.000377	3.767180	0.638178	0.000038
 306	3.0348e+01	3.0323	-5.388735	0.000409	4.094761	0.693671	0.000041
 307	3.0447e+01	3.0409	-5.352481	0.000364	3.644337	0.617367	0.000036
 308	3.0547e+01	3.0505	-5.318672	0.000340	3.398652	0.575747	0.000034
 309	3.0646e+01	3.0614	-5.277530	0.000414	4.135709	0.700608	0.000041
 310	3.0745e+01	3.0680	-5.239240	0.000385	3.849075	0.652051	0.000038
 311	3.0845e+01	3.0809	-5.201764	0.000377	3.767180	0.638178	0.000038
 312	3.0945e+01	3.0883	-5.163474	0.000385	3.849075	0.652051	0.000038
 313	3.1044e+01	3.0993	-5.127221	0.000364	3.644337	0.617367	0.000036
 314	3.1143e+01	3.1126	-5.090153	0.000373	3.726233	0.631241	0.000037
 315	3.1243e+01	3.1222	-5.053899	0.000364	3.644337	0.617367	0.000036
 316	3.1343e+01	3.1332	-5.017646	0.000364	3.644337	0.617367	0.000036
 317	3.1442e+01	3.1378	-4.978948	0.000389	3.890023	0.658988	0.000039
 318	3.1541e+01	3.1483	-4.943917	0.000352	3.521495	0.596557	0.000035
 319	3.1641e+01	3.1603	-4.905219	0.000389	3.890023	0.658988	0.000039
 320	3.1741e+01	3.1689	-4.870595	0.000348	3.480547	0.589621	0.000035
 321	3.1840e+01	3.1791	-4.831083	0.000397	3.971918	0.672861	0.000040
 322	3.1939e+01	3.1889	-4.797273	0.000340	3.398652	0.575747	0.000034
 323	3.2039e+01	3.1988	-4.760612	0.000369	3.685285	0.624304	0.000037
 324	3.2139e+01	3.2091	-4.723544	0.000373	3.726233	0.631241	0.000037
 325	3.2238e+01	3.2211	-4.683217	0.000405	4.053813	0.686735	0.000041
 326	3.2337e+01	3.2294	-4.645742	0.000377	3.767180	0.638178	0.000038
 327	3.2437e+01	3.2417	-4.609081	0.000369	3.685285	0.624304	0.000037
 328	3.2536e+01	3.2502	-4.573642	0.000356	3.562442	0.603494	0.000036
 329	3.2636e+01	3.2590	-4.539425	0.000344	3.439599	0.582684	0.000034
 330	3.2736e+01	3.2732	-4.503987	0.000356	3.562442	0.603494	0.000036
 331	3.2835e+01	3.2792	-4.462438	0.000418	4.176656	0.707545	0.000042
 332	3.2934e+01	3.2899	-4.431887	0.000307	3.071071	0.520253	0.000031
 333	3.3034e+01	3.2985	-4.394004	0.000381	3.808128	0.645114	0.000038
 334	3.3133e+01	3.3113	-4.355714	0.000385	3.849075	0.652051	0.000038
 335	3.3233e+01	3.3225	-4.321497	0.000344	3.439599	0.582684	0.000034
 336	3.3333e+01	3.3292	-4.285244	0.000364	3.644337	0.617367	0.000036
 337	3.3432e+01	3.3391	-4.248175	0.000373	3.726233	0.631241	0.000037
 338	3.3532e+01	3.3490	-4.211515	0.000369	3.685285	0.624304	0.000037
 339	3.3631e+01	3.3587	-4.178520	0.000332	3.316756	0.561874	0.000033
 340	3.3730e+01	3.3707	-4.140637	0.000381	3.808128	0.645114	0.000038
 341	3.3830e+01	3.3791	-4.101939	0.000389	3.890023	0.658988	0.000039
 342	3.3929e+01	3.3894	-4.066093	0.000360	3.603390	0.610431	0.000036
 343	3.4029e+01	3.3977	-4.028210	0.000381	3.808128	0.645114	0.000038
 344	3.4129e+01	3.4080	-3.989920	0.000385	3.849075	0.652051	0.000038
 345	3.4228e+01	3.4177	-3.955296	0.000348	3.480547	0.589621	0.000035
 346	3.4328e+01	3.4286	-3.915377	0.000401	4.012866	0.679798	0.000040
 347	3.4427e+01	3.4384	-3.879123	0.000364	3.644337	0.617367	0.000036
 348	3.4526e+01	3.4509	-3.842055	0.000373	3.726233	0.631241	0.000037
 349	3.4626e+01	3.4591	-3.804987	0.000373	3.726233	0.631241	0.000037
 350	3.4725e+01	3.4684	-3.769548	0.000356	3.562442	0.603494	0.000036
 351	3.4825e+01	3.4800	-3.732480	0.000373	3.726233	0.631241	0.000037
 352	3.4925e+01	3.4919	-3.692560	0.000401	4.012866	0.679798	0.000040
 353	3.5024e+01	3.5061	-3.656714	0.000360	3.603390	0.610431	0.000036
 354	3.5123e+01	3.5087	-3.618424	0.000385	3.849075	0.652051	0.000038
 355	3.5223e+01	3.5204	-3.581356	0.000373	3.726233	0.631241	0.000037
 356	3.5322e+01	3.5284	-3.544288	0.000373	3.726233	0.631241	0.000037
 357	3.5422e+01	3.5363	-3.510071	0.000344	3.439599	0.582684	0.000034
 358	3.5522e+01	3.5504	-3.475039	0.000352	3.521495	0.596557	0.000035
 359	3.5621e+01	3.5583	-3.436749	0.000385	3.849075	0.652051	0.000038
 360	3.5721e+01	3.5667	-3.404976	0.000319	3.193914	0.541064	0.000032
 361	3.5820e+01	3.5783	-3.370352	0.000348	3.480547	0.589621	0.000035
 362	3.5919e+01	3.5869	-3.332877	0.000377	3.767180	0.638178	0.000038
 363	3.6019e+01	3.6012	-3.301104	0.000319	3.193914	0.541064	0.000032
 364	3.6118e+01	3.6076	-3.263221	0.000381	3.808128	0.645114	0.000038
 365	3.6218e+01	3.6196	-3.227782	0.000356	3.562442	0.603494	0.000036
 366	3.6318e+01	3.6287	-3.191936	0.000360	3.603390	0.610431	0.000036
 367	3.6417e+01	3.6384	-3.160978	0.000311	3.112018	0.527190	0.000031
 368	3.6517e+01	3.6480	-3.123910	0.000373	3.726233	0.631241	0.000037
 369	3.6616e+01	3.6566	-3.090101	0.000340	3.398652	0.575747	0.000034
 370	3.6715e+01	3.6687	-3.059550	0.000307	3.071071	0.520253	0.000031
 371	3.6815e+01	3.6806	-3.025740	0.000340	3.398652	0.575747	0.000034
 372	3.6914e+01	3.6879	-2.993153	0.000328	3.275809	0.554937	0.000033
 373	3.7014e+01	3.6976	-2.960158	0.000332	3.316756	0.561874	0.000033
 374	3.7114e+01	3.7078	-2.925942	0.000344	3.439599	0.582684	0.000034
 375	3.7213e+01	3.7183	-2.897428	0.000287	2.866333	0.485570	0.000029
 376	3.7313e+01	3.7270	-2.862803	0.000348	3.480547	0.589621	0.000035
 377	3.7412e+01	3.7363	-2.831438	0.000315	3.152966	0.534127	0.000032
 378	3.7511e+01	3.7477	-2.799665	0.000319	3.193914	0.541064	0.000032
 379	3.7611e+01	3.7592	-2.767893	0.000319	3.193914	0.541064	0.000032
 380	3.7711e+01	3.7666	-2.733676	0.000344	3.439599	0.582684	0.000034
 381	3.7810e+01	3.7761	-2.698237	0.000356	3.562442	0.603494	0.000036
 382	3.7910e+01	3.7876	-2.669316	0.000291	2.907280	0.492507	0.000029
 383	3.8009e+01	3.7979	-2.635914	0.000336	3.357704	0.568810	0.000034
 384	3.8108e+01	3.8085	-2.605770	0.000303	3.030123	0.513317	0.000030
 385	3.8208e+01	3.8174	-2.575220	0.000307	3.071071	0.520253	0.000031
 386	3.8307e+01	3.8265	-2.544262	0.000311	3.112018	0.527190	0.000031
 387	3.8407e+01	3.8375	-2.511674	0.000328	3.275809	0.554937	0.000033
 388	3.8507e+01	3.8473	-2.479494	0.000323	3.234861	0.548000	0.000032
 389	3.8606e+01	3.8575	-2.449351	0.000303	3.030123	0.513317	0.000030
 390	3.8706e+01	3.8682	-2.415134	0.000344	3.439599	0.582684	0.000034
 391	3.8805e+01	3.8793	-2.382954	0.000323	3.234861	0.548000	0.000032
 392	3.8904e+01	3.8871	-2.349144	0.000340	3.398652	0.575747	0.000034
 393	3.9004e+01	3.8943	-2.314113	0.000352	3.521495	0.596557	0.000035
 394	3.9103e+01	3.9056	-2.281526	0.000328	3.275809	0.554937	0.000033
 395	3.9203e+01	3.9175	-2.252197	0.000295	2.948228	0.499443	0.000029
 396	3.9303e+01	3.9262	-2.214314	0.000381	3.808128	0.645114	0.000038
 397	3.9402e+01	3.9373	-2.182134	0.000323	3.234861	0.548000	0.000032
 398	3.9502e+01	3.9455	-2.153213	0.000291	2.907280	0.492507	0.000029
 399	3.9601e+01	3.9573	-2.115737	0.000377	3.767180	0.638178	0.000038
 400	3.9700e+01	3.9660	-2.083557	0.000323	3.234861	0.548000	0.000032
 401	3.9800e+01	3.9745	-2.050970	0.000328	3.275809	0.554937	0.000033
 402	3.9900e+01	3.9860	-2.017160	0.000340	3.398652	0.575747	0.000034
 403	3.9999e+01	3.9959	-1.983351	0.000340	3.398652	0.575747	0.000034
 404	4.0099e+01	4.0069	-1.944653	0.000389	3.890023	0.658988	0.000039
 405	4.0198e+01	4.0127	-1.916547	0.000283	2.825385	0.478633	0.000028
 406	4.0297e+01	4.0231	-1.880293	0.000364	3.644337	0.617367	0.000036
 407	4.0397e+01	4.0350	-1.847298	0.000332	3.316756	0.561874	0.000033
 408	4.0496e+01	4.0466	-1.815118	0.000323	3.234861	0.548000	0.000032
 409	4.0596e+01	4.0537	-1.781716	0.000336	3.357704	0.568810	0.000034
 410	4.0696e+01	4.0675	-1.748722	0.000332	3.316756	0.561874	0.000033
 411	4.0795e+01	4.0741	-1.716134	0.000328	3.275809	0.554937	0.000033
 412	4.0895e+01	4.0875	-1.683139	0.000332	3.316756	0.561874	0.000033
 413	4.0994e+01	4.0958	-1.649330	0.000340	3.398652	0.575747	0.000034
 414	4.1093e+01	4.1058	-1.611854	0.000377	3.767180	0.638178	0.000038
 415	4.1193e+01	4.1127	-1.582526	0.000295	2.948228	0.499443	0.000029
 416	4.1292e+01	4.1237	-1.545458	0.000373	3.726233	0.631241	0.000037
 417	4.1392e+01	4.1351	-1.511648	0.000340	3.398652	0.575747	0.000034
 418	4.1492e+01	4.1434	-1.480283	0.000315	3.152966	0.534127	0.000032
 419	4.1591e+01	4.1604	-1.447695	0.000328	3.275809	0.554937	0.000033
 420	4.1691e+01	4.1645	-1.412664	0.000352	3.521495	0.596557	0.000035
 421	4.1790e+01	4.1741	-1.380077	0.000328	3.275809	0.554937	0.000033
 422	4.1889e+01	4.1836	-1.349119	0.000311	3.112018	0.527190	0.000031
 423	4.1989e+01	4.1960	-1.314494	0.000348	3.480547	0.589621	0.000035
 424	4.2089e+01	4.2052	-1.278648	0.000360	3.603390	0.610431	0.000036
 425	4.2188e+01	4.2168	-1.253393	0.000254	2.538752	0.430076	0.000025
 426	4.2288e+01	4.2281	-1.220806	0.000328	3.275809	0.554937	0.000033
 427	4.2387e+01	4.2345	-1.189033	0.000319	3.193914	0.541064	0.000032
 428	4.2486e+01	4.2442	-1.152779	0.000364	3.644337	0.617367	0.000036
 429	4.2586e+01	4.2554	-1.123451	0.000295	2.948228	0.499443	0.000029
 430	4.2685e+01	4.2654	-1.088419	0.000352	3.521495	0.596557	0.000035
 431	4.2785e+01	4.2739	-1.056647	0.000319	3.193914	0.541064	0.000032
 432	4.2885e+01	4.2847	-1.026503	0.000303	3.030123	0.513317	0.000030
 433	4.2984e+01	4.2935	-0.992694	0.000340	3.398652	0.575747	0.000034
 434	4.3084e+01	4.3035	-0.961736	0.000311	3.112018	0.527190	0.000031
 435	4.3183e+01	4.3131	-0.931592	0.000303	3.030123	0.513317	0.000030
 436	4.3282e+01	4.3212	-0.899820	0.000319	3.193914	0.541064	0.000032
 437	4.3382e+01	4.3362	-0.868454	0.000315	3.152966	0.534127	0.000032
 438	4.3481e+01	4.3452	-0.835867	0.000328	3.275809	0.554937	0.000033
 439	4.3581e+01	4.3523	-0.804909	0.000311	3.112018	0.527190	0.000031
 440	4.3681e+01	4.3635	-0.771914	0.000332	3.316756	0.561874	0.000033
 441	4.3780e+01	4.3759	-0.736475	0.000356	3.562442	0.603494	0.000036
 442	4.3880e+01	4.3845	-0.705925	0.000307	3.071071	0.520253	0.000031
 443	4.3979e+01	4.3960	-0.672523	0.000336	3.357704	0.568810	0.000034
 444	4.4078e+01	4.4050	-0.639120	0.000336	3.357704	0.568810	0.000034
 445	4.4178e+01	4.4160	-0.604089	0.000352	3.521495	0.596557	0.000035
 446	4.4278e+01	4.4250	-0.570280	0.000340	3.398652	0.575747	0.000034
 447	4.4377e+01	4.4363	-0.543395	0.000270	2.702542	0.457823	0.000027
 448	4.4477e+01	4.4439	-0.505105	0.000385	3.849075	0.652051	0.000038
 449	4.4576e+01	4.4540	-0.472110	0.000332	3.316756	0.561874	0.000033
 450	4.4675e+01	4.4617	-0.438301	0.000340	3.398652	0.575747	0.000034
 451	4.4775e+01	4.4737	-0.404084	0.000344	3.439599	0.582684	0.000034
 452	4.4874e+01	4.4833	-0.371496	0.000328	3.275809	0.554937	0.000033
 453	4.4974e+01	4.4928	-0.336465	0.000352	3.521495	0.596557	0.000035
 454	4.5074e+01	4.5040	-0.299397	0.000373	3.726233	0.631241	0.000037
 455	4.5173e+01	4.5149	-0.269253	0.000303	3.030123	0.513317	0.000030
 456	4.5273e+01	4.5219	-0.231371	0.000381	3.808128	0.645114	0.000038
 457	4.5372e+01	4.5357	-0.200005	0.000315	3.152966	0.534127	0.000032
 458	4.5471e+01	4.5435	-0.164159	0.000360	3.603390	0.610431	0.000036
 459	4.5571e+01	4.5544	-0.123832	0.000405	4.053813	0.686735	0.000041
 460	4.5670e+01	4.5640	-0.087986	0.000360	3.603390	0.610431	0.000036
 461	4.5770e+01	4.5715	-0.052140	0.000360	3.603390	0.610431	0.000036
 462	4.5870e+01	4.5834	-0.017108	0.000352	3.521495	0.596557	0.000035
 463	4.5969e+01	4.5935	0.016701	0.000340	3.398652	0.575747	0.000034
 464	4.6069e+01	4.6056	0.053362	0.000369	3.685285	0.624304	0.000037
 465	4.6168e+01	4.6159	0.086764	0.000336	3.357704	0.568810	0.000034
 466	4.6267e+01	4.6214	0.120981	0.000344	3.439599	0.582684	0.000034
 467	4.6367e+01	4.6319	0.155605	0.000348	3.480547	0.589621	0.000035
 468	4.6467e+01	4.6422	0.192673	0.000373	3.726233	0.631241	0.000037
 469	4.6566e+01	4.6523	0.229741	0.000373	3.726233	0.631241	0.000037
 470	4.6666e+01	4.6622	0.265180	0.000356	3.562442	0.603494	0.000036
 471	4.6765e+01	4.6735	0.303470	0.000385	3.849075	0.652051	0.000038
 472	4.6864e+01	4.6819	0.336465	0.000332	3.316756	0.561874	0.000033
 473	4.6964e+01	4.6928	0.371496	0.000352	3.521495	0.596557	0.000035
 474	4.7063e+01	4.7021	0.403269	0.000319	3.193914	0.541064	0.000032
 475	4.7163e+01	4.7131	0.439930	0.000369	3.685285	0.624304	0.000037
 476	4.7263e+01	4.7222	0.474961	0.000352	3.521495	0.596557	0.000035
 477	4.7362e+01	4.7334	0.504290	0.000295	2.948228	0.499443	0.000029
 478	4.7462e+01	4.7425	0.542173	0.000381	3.808128	0.645114	0.000038
 479	4.7561e+01	4.7546	0.577204	0.000352	3.521495	0.596557	0.000035
 480	4.7660e+01	4.7604	0.611014	0.000340	3.398652	0.575747	0.000034
 481	4.7760e+01	4.7729	0.646045	0.000352	3.521495	0.596557	0.000035
 482	4.7859e+01	4.7861	0.677003	0.000311	3.112018	0.527190	0.000031
 483	4.7959e+01	4.7935	0.707147	0.000303	3.030123	0.513317	0.000030
 484	4.8059e+01	4.8041	0.742178	0.000352	3.521495	0.596557	0.000035
 485	4.8158e+01	4.8132	0.775580	0.000336	3.357704	0.568810	0.000034
 486	4.8258e+01	4.8248	0.811834	0.000364	3.644337	0.617367	0.000036
 487	4.8357e+01	4.8341	0.841570	0.000299	2.989176	0.506380	0.000030
 488	4.8456e+01	4.8446	0.873342	0.000319	3.193914	0.541064	0.000032
 489	4.8556e+01	4.8522	0.905522	0.000323	3.234861	0.548000	0.000032
 490	4.8656e+01	4.8634	0.944220	0.000389	3.890023	0.658988	0.000039
 491	4.8755e+01	4.8733	0.972734	0.000287	2.866333	0.485570	0.000029
 492	4.8855e+01	4.8808	1.003285	0.000307	3.071071	0.520253	0.000031
 493	4.8954e+01	4.8913	1.041168	0.000381	3.808128	0.645114	0.000038
 494	4.9053e+01	4.9033	1.074570	0.000336	3.357704	0.568810	0.000034
 495	4.9153e+01	4.9148	1.108379	0.000340	3.398652	0.575747	0.000034
 496	4.9252e+01	4.9226	1.141781	0.000336	3.357704	0.568810	0.000034
 497	4.9352e+01	4.9297	1.170702	0.000291	2.907280	0.492507	0.000029
 498	4.9452e+01	4.9424	1.205734	0.000352	3.521495	0.596557	0.000035
 499	4.9551e+01	4.9538	1.236285	0.000307	3.071071	0.520253	0.000031
 500	4.9651e+01	4.9603	1.267243	0.000311	3.112018	0.527190	0.000031
 501	4.9750e+01	4.9722	1.299015	0.000319	3.193914	0.541064	0.000032
 502	4.9849e+01	4.9826	1.333640	0.000348	3.480547	0.589621	0.000035
 503	4.9949e+01	4.9914	1.364598	0.000311	3.112018	0.527190	0.000031
 504	5.0048e+01	5.0008	1.399629	0.000352	3.521495	0.596557	0.000035
 505	5.0148e+01	5.0123	1.431809	0.000323	3.234861	0.548000	0.000032
 506	5.0248e+01	5.0216	1.466026	0.000344	3.439599	0.582684	0.000034
 507	5.0347e+01	5.0310	1.500243	0.000344	3.439599	0.582684	0.000034
 508	5.0447e+01	5.0393	1.532015	0.000319	3.193914	0.541064	0.000032
 509	5.0546e+01	5.0524	1.565417	0.000336	3.357704	0.568810	0.000034
 510	5.0645e+01	5.0605	1.600856	0.000356	3.562442	0.603494	0.000036
 511	5.0745e+01	5.0723	1.633036	0.000323	3.234861	0.548000	0.000032
 512	5.0844e+01	5.0801	1.666031	0.000332	3.316756	0.561874	0.000033
 513	5.0944e+01	5.0928	1.700248	0.000344	3.439599	0.582684	0.000034
 514	5.1044e+01	5.1018	1.733650	0.000336	3.357704	0.568810	0.000034
 515	5.1143e+01	5.1110	1.762571	0.000291	2.907280	0.492507	0.000029
 516	5.1242e+01	5.1221	1.798417	0.000360	3.603390	0.610431	0.000036
 517	5.1342e+01	5.1307	1.830190	0.000319	3.193914	0.541064	0.000032
 518	5.1441e+01	5.1405	1.864407	0.000344	3.439599	0.582684	0.000034
 519	5.1541e+01	5.1514	1.895772	0.000315	3.152966	0.534127	0.000032
 520	5.1641e+01	5.1621	1.930396	0.000348	3.480547	0.589621	0.000035
 521	5.1740e+01	5.1693	1.965835	0.000356	3.562442	0.603494	0.000036
 522	5.1840e+01	5.1801	1.997608	0.000319	3.193914	0.541064	0.000032
 523	5.1939e+01	5.1887	2.033861	0.000364	3.644337	0.617367	0.000036
 524	5.2038e+01	5.2016	2.067671	0.000340	3.398652	0.575747	0.000034
 525	5.2138e+01	5.2081	2.096999	0.000295	2.948228	0.499443	0.000029
 526	5.2237e+01	5.2206	2.126735	0.000299	2.989176	0.506380	0.000030
 527	5.2337e+01	5.2285	2.161767	0.000352	3.521495	0.596557	0.000035
 528	5.2437e+01	5.2402	2.193132	0.000315	3.152966	0.534127	0.000032
 529	5.2536e+01	5.2490	2.223683	0.000307	3.071071	0.520253	0.000031
 530	5.2636e+01	5.2588	2.255048	0.000315	3.152966	0.534127	0.000032
 531	5.2735e+01	5.2700	2.289672	0.000348	3.480547	0.589621	0.000035
 532	5.2834e+01	5.2780	2.319001	0.000295	2.948228	0.499443	0.000029
 533	5.2934e+01	5.2889	2.351181	0.000323	3.234861	0.548000	0.000032
 534	5.3033e+01	5.2993	2.380510	0.000295	2.948228	0.499443	0.000029
 535	5.3133e+01	5.3092	2.408209	0.000278	2.784438	0.471696	0.000028
 536	5.3233e+01	5.3167	2.441204	0.000332	3.316756	0.561874	0.000033
 537	5.3332e+01	5.3262	2.471755	0.000307	3.071071	0.520253	0.000031
 538	5.3431e+01	5.3391	2.498639	0.000270	2.702542	0.457823	0.000027
 539	5.3531e+01	5.3502	2.531227	0.000328	3.275809	0.554937	0.000033
 540	5.3630e+01	5.3599	2.558519	0.000274	2.743490	0.464760	0.000027
 541	5.3730e+01	5.3648	2.587847	0.000295	2.948228	0.499443	0.000029
 542	5.3830e+01	5.3784	2.613510	0.000258	2.579699	0.437013	0.000026
 543	5.3929e+01	5.3883	2.646912	0.000336	3.357704	0.568810	0.000034
 544	5.4029e+01	5.4005	2.676241	0.000295	2.948228	0.499443	0.000029
 545	5.4128e+01	5.4086	2.708421	0.000323	3.234861	0.548000	0.000032
 546	5.4227e+01	5.4211	2.729602	0.000213	2.129276	0.360709	0.000021
 547	5.4327e+01	5.4285	2.760560	0.000311	3.112018	0.527190	0.000031
 548	5.4426e+01	5.4382	2.792741	0.000323	3.234861	0.548000	0.000032
 549	5.4526e+01	5.4476	2.821255	0.000287	2.866333	0.485570	0.000029
 550	5.4626e+01	5.4592	2.846102	0.000250	2.497804	0.423139	0.000025
 551	5.4725e+01	5.4690	2.873802	0.000278	2.784438	0.471696	0.000028
 552	5.4825e+01	5.4804	2.906389	0.000328	3.275809	0.554937	0.000033
 553	5.4924e+01	5.4899	2.934496	0.000283	2.825385	0.478633	0.000028
 554	5.5023e+01	5.4980	2.960973	0.000266	2.661595	0.450886	0.000027
 555	5.5123e+01	5.5106	2.986228	0.000254	2.538752	0.430076	0.000025
 556	5.5222e+01	5.5190	3.018408	0.000323	3.234861	0.548000	0.000032
 557	5.5322e+01	5.5280	3.044886	0.000266	2.661595	0.450886	0.000027
 558	5.5422e+01	5.5401	3.076251	0.000315	3.152966	0.534127	0.000032
 559	5.5521e+01	5.5474	3.105580	0.000295	2.948228	0.499443	0.000029
 560	5.5620e+01	5.5598	3.134501	0.000291	2.907280	0.492507	0.000029
 561	5.5720e+01	5.5712	3.165052	0.000307	3.071071	0.520253	0.000031
 562	5.5819e+01	5.5783	3.193973	0.000291	2.907280	0.492507	0.000029
 563	5.5919e+01	5.5877	3.222080	0.000283	2.825385	0.478633	0.000028
 564	5.6019e+01	5.5992	3.252223	0.000303	3.030123	0.513317	0.000030
 565	5.6118e+01	5.6077	3.283996	0.000319	3.193914	0.541064	0.000032
 566	5.6218e+01	5.6188	3.312510	0.000287	2.866333	0.485570	0.000029
 567	5.6317e+01	5.6300	3.341838	0.000295	2.948228	0.499443	0.000029
 568	5.6416e+01	5.6387	3.372389	0.000307	3.071071	0.520253	0.000031
 569	5.6516e+01	5.6451	3.402125	0.000299	2.989176	0.506380	0.000030
 570	5.6615e+01	5.6573	3.432676	0.000307	3.071071	0.520253	0.000031
 571	5.6715e+01	5.6685	3.461597	0.000291	2.907280	0.492507	0.000029
 572	5.6815e+01	5.6802	3.492962	0.000315	3.152966	0.534127	0.000032
 573	5.6914e+01	5.6886	3.520254	0.000274	2.743490	0.464760	0.000027
 574	5.7014e+01	5.6973	3.552434	0.000323	3.234861	0.548000	0.000032
 575	5.7113e+01	5.7093	3.581356	0.000291	2.907280	0.492507	0.000029
 576	5.7212e+01	5.7192	3.613943	0.000328	3.275809	0.554937	0.000033
 577	5.7312e+01	5.7291	3.640013	0.000262	2.620647	0.443950	0.000026
 578	5.7411e+01	5.7400	3.672193	0.000323	3.234861	0.548000	0.000032
 579	5.7511e+01	5.7476	3.703558	0.000315	3.152966	0.534127	0.000032
 580	5.7611e+01	5.7579	3.729628	0.000262	2.620647	0.443950	0.000026
 581	5.7710e+01	5.7668	3.759364	0.000299	2.989176	0.506380	0.000030
 582	5.7809e+01	5.7778	3.794396	0.000352	3.521495	0.596557	0.000035
 583	5.7909e+01	5.7887	3.821280	0.000270	2.702542	0.457823	0.000027
 584	5.8008e+01	5.7986	3.853461	0.000323	3.234861	0.548000	0.000032
 585	5.8108e+01	5.8087	3.884826	0.000315	3.152966	0.534127	0.000032
 586	5.8208e+01	5.8166	3.914155	0.000295	2.948228	0.499443	0.000029
 587	5.8307e+01	5.8291	3.945520	0.000315	3.152966	0.534127	0.000032
 588	5.8407e+01	5.8363	3.972812	0.000274	2.743490	0.464760	0.000027
 589	5.8506e+01	5.8464	4.000511	0.000278	2.784438	0.471696	0.000028
 590	5.8605e+01	5.8584	4.028618	0.000283	2.825385	0.478633	0.000028
 591	5.8705e+01	5.8674	4.062020	0.000336	3.357704	0.568810	0.000034
 592	5.8804e+01	5.8767	4.089719	0.000278	2.784438	0.471696	0.000028
 593	5.8904e+01	5.8852	4.122307	0.000328	3.275809	0.554937	0.000033
 594	5.9004e+01	5.8952	4.147969	0.000258	2.579699	0.437013	0.000026
 595	5.9103e+01	5.9069	4.174039	0.000262	2.620647	0.443950	0.000026
 596	5.9203e+01	5.9177	4.205405	0.000315	3.152966	0.534127	0.000032
 597	5.9302e+01	5.9275	4.236363	0.000311	3.112018	0.527190	0.000031
 598	5.9401e+01	5.9374	4.264062	0.000278	2.784438	0.471696	0.000028
 599	5.9501e+01	5.9469	4.292576	0.000287	2.866333	0.485570	0.000029
 600	5.9600e+01	5.9573	4.321497	0.000291	2.907280	0.492507	0.000029
 601	5.9700e+01	5.9632	4.348789	0.000274	2.743490	0.464760	0.000027
 602	5.9800e+01	5.9785	4.377710	0.000291	2.907280	0.492507	0.000029
 603	5.9899e+01	5.9875	4.407039	0.000295	2.948228	0.499443	0.000029
 604	5.9998e+01	5.9966	4.431072	0.000242	2.415909	0.409266	0.000024
 605	6.0098e+01	6.0043	4.460401	0.000295	2.948228	0.499443	0.000029
 606	6.0197e+01	6.0188	4.488508	0.000283	2.825385	0.478633	0.000028
 607	6.0297e+01	6.0269	4.518244	0.000299	2.989176	0.506380	0.000030
 608	6.0397e+01	6.0355	4.547980	0.000299	2.989176	0.506380	0.000030
 609	6.0496e+01	6.0455	4.576494	0.000287	2.866333	0.485570	0.000029
 610	6.0596e+01	6.0564	4.605822	0.000295	2.948228	0.499443	0.000029
 611	6.0695e+01	6.0662	4.634744	0.000291	2.907280	0.492507	0.000029
 612	6.0794e+01	6.0789	4.666516	0.000319	3.193914	0.541064	0.000032
 613	6.0894e+01	6.0863	4.697067	0.000307	3.071071	0.520253	0.000031
 614	6.0993e+01	6.0970	4.728432	0.000315	3.152966	0.534127	0.000032
 615	6.1093e+01	6.1087	4.756946	0.000287	2.866333	0.485570	0.000029
 616	6.1193e+01	6.1131	4.785053	0.000283	2.825385	0.478633	0.000028
 617	6.1292e+01	6.1268	4.815196	0.000303	3.030123	0.513317	0.000030
 618	6.1392e+01	6.1343	4.848191	0.000332	3.316756	0.561874	0.000033
 619	6.1491e+01	6.1459	4.880371	0.000323	3.234861	0.548000	0.000032
 620	6.1590e+01	6.1572	4.907663	0.000274	2.743490	0.464760	0.000027
 621	6.1690e+01	6.1651	4.939028	0.000315	3.152966	0.534127	0.000032
 622	6.1789e+01	6.1773	4.974060	0.000352	3.521495	0.596557	0.000035
 623	6.1889e+01	6.1861	5.003389	0.000295	2.948228	0.499443	0.000029
 624	6.1989e+01	6.1941	5.037605	0.000344	3.439599	0.582684	0.000034
 625	6.2088e+01	6.2089	5.071007	0.000336	3.357704	0.568810	0.000034
 626	6.2188e+01	6.2176	5.101151	0.000303	3.030123	0.513317	0.000030
 627	6.2287e+01	6.2264	5.136590	0.000356	3.562442	0.603494	0.000036
 628	6.2386e+01	6.2364	5.164289	0.000278	2.784438	0.471696	0.000028
 629	6.2486e+01	6.2462	5.199320	0.000352	3.521495	0.596557	0.000035
 630	6.2586e+01	6.2568	5.232315	0.000332	3.316756	0.561874	0.000033
 631	6.2685e+01	6.2638	5.260829	0.000287	2.866333	0.485570	0.000029
 632	6.2785e+01	6.2716	5.290972	0.000303	3.030123	0.513317	0.000030
 633	6.2884e+01	6.2831	5.325597	0.000348	3.480547	0.589621	0.000035
 634	6.2983e+01	6.2938	5.359406	0.000340	3.398652	0.575747	0.000034
 635	6.3083e+01	6.3076	5.390771	0.000315	3.152966	0.534127	0.000032
 636	6.3182e+01	6.3136	5.419693	0.000291	2.907280	0.492507	0.000029
 637	6.3282e+01	6.3238	5.458798	0.000393	3.930971	0.665924	0.000039
 638	6.3382e+01	6.3338	5.485275	0.000266	2.661595	0.450886	0.000027
 639	6.3481e+01	6.3438	5.518270	0.000332	3.316756	0.561874	0.000033
 640	6.3581e+01	6.3548	5.550042	0.000319	3.193914	0.541064	0.000032
 641	6.3680e+01	6.3647	5.581408	0.000315	3.152966	0.534127	0.000032
 642	6.3779e+01	6.3755	5.611958	0.000307	3.071071	0.520253	0.000031
 643	6.3879e+01	6.3854	5.642102	0.000303	3.030123	0.513317	0.000030
 644	6.3978e+01	6.3960	5.674282	0.000323	3.234861	0.548000	0.000032
 645	6.4078e+01	6.4055	5.703610	0.000295	2.948228	0.499443	0.000029
 646	6.4177e+01	6.4148	5.736198	0.000328	3.275809	0.554937	0.000033
 647	6.4277e+01	6.4257	5.771229	0.000352	3.521495	0.596557	0.000035
 648	6.4376e+01	6.4330	5.797707	0.000266	2.661595	0.450886	0.000027
 649	6.4476e+01	6.4436	5.831109	0.000336	3.357704	0.568810	0.000034
 650	6.4576e+01	6.4532	5.856771	0.000258	2.579699	0.437013	0.000026
 651	6.4675e+01	6.4635	5.893025	0.000364	3.644337	0.617367	0.000036
 652	6.4775e+01	6.4716	5.921946	0.000291	2.907280	0.492507	0.000029
 653	6.4874e+01	6.4838	5.947609	0.000258	2.579699	0.437013	0.000026
 654	6.4974e+01	6.4942	5.981418	0.000340	3.398652	0.575747	0.000034
 655	6.5073e+01	6.5051	6.007081	0.000258	2.579699	0.437013	0.000026
 656	6.5172e+01	6.5134	6.037224	0.000303	3.030123	0.513317	0.000030
 657	6.5272e+01	6.5244	6.068589	0.000315	3.152966	0.534127	0.000032
 658	6.5371e+01	6.5350	6.100769	0.000323	3.234861	0.548000	0.000032
 659	6.5471e+01	6.5441	6.128061	0.000274	2.743490	0.464760	0.000027
 660	6.5570e+01	6.5520	6.158205	0.000303	3.030123	0.513317	0.000030
 661	6.5670e+01	6.5606	6.189977	0.000319	3.193914	0.541064	0.000032
 662	6.5769e+01	6.5746	6.218084	0.000283	2.825385	0.478633	0.000028
 663	6.5869e+01	6.5844	6.248635	0.000307	3.071071	0.520253	0.000031
 664	6.5969e+01	6.5948	6.277149	0.000287	2.866333	0.485570	0.000029
 665	6.6068e+01	6.6020	6.308921	0.000319	3.193914	0.541064	0.000032
 666	6.6168e+01	6.6133	6.339065	0.000303	3.030123	0.513317	0.000030
 667	6.6267e+01	6.6219	6.364727	0.000258	2.579699	0.437013	0.000026
 668	6.6367e+01	6.6325	6.395685	0.000311	3.112018	0.527190	0.000031
 669	6.6466e+01	6.6424	6.427458	0.000319	3.193914	0.541064	0.000032
 670	6.6566e+01	6.6516	6.457601	0.000303	3.030123	0.513317	0.000030
 671	6.6665e+01	6.6619	6.488967	0.000315	3.152966	0.534127	0.000032
 672	6.6764e+01	6.6725	6.517073	0.000283	2.825385	0.478633	0.000028
 673	6.6864e+01	6.6817	6.543958	0.000270	2.702542	0.457823	0.000027
 674	6.6963e+01	6.6923	6.578175	0.000344	3.439599	0.582684	0.000034
 675	6.7063e+01	6.7047	6.604245	0.000262	2.620647	0.443950	0.000026
 676	6.7162e+01	6.7129	6.639684	0.000356	3.562442	0.603494	0.000036
 677	6.7262e+01	6.7245	6.665754	0.000262	2.620647	0.443950	0.000026
 678	6.7362e+01	6.7300	6.700378	0.000348	3.480547	0.589621	0.000035
 679	6.7461e+01	6.7419	6.728077	0.000278	2.784438	0.471696	0.000028
 680	6.7561e+01	6.7520	6.760257	0.000323	3.234861	0.548000	0.000032
 681	6.7660e+01	6.7623	6.787142	0.000270	2.702542	0.457823	0.000027
 682	6.7760e+01	6.7748	6.822580	0.000356	3.562442	0.603494	0.000036
 683	6.7859e+01	6.7802	6.850687	0.000283	2.825385	0.478633	0.000028
 684	6.7959e+01	6.7941	6.876350	0.000258	2.579699	0.437013	0.000026
 685	6.8058e+01	6.7999	6.909344	0.000332	3.316756	0.561874	0.000033
 686	6.8157e+01	6.8109	6.944376	0.000352	3.521495	0.596557	0.000035
 687	6.8257e+01	6.8218	6.968816	0.000246	2.456857	0.416203	0.000025
 688	6.8356e+01	6.8343	7.007107	0.000385	3.849075	0.652051	0.000038
 689	6.8456e+01	6.8456	7.031547	0.000246	2.456857	0.416203	0.000025
 690	6.8555e+01	6.8530	7.062505	0.000311	3.112018	0.527190	0.000031
 691	6.8655e+01	6.8630	7.092241	0.000299	2.989176	0.506380	0.000030
 692	6.8754e+01	6.8739	7.122792	0.000307	3.071071	0.520253	0.000031
 693	6.8854e+01	6.8827	7.154157	0.000315	3.152966	0.534127	0.000032
 694	6.8954e+01	6.8893	7.183486	0.000295	2.948228	0.499443	0.000029
 695	6.9053e+01	6.9020	7.209963	0.000266	2.661595	0.450886	0.000027
 696	6.9153e+01	6.9112	7.238070	0.000283	2.825385	0.478633	0.000028
 697	6.9252e+01	6.9222	7.268213	0.000303	3.030123	0.513317	0.000030
 698	6.9352e+01	6.9320	7.296727	0.000287	2.866333	0.485570	0.000029
 699	6.9451e+01	6.9406	7.323204	0.000266	2.661595	0.450886	0.000027
 700	6.9550e+01	6.9518	7.354162	0.000311	3.112018	0.527190	0.000031
 701	6.9650e+01	6.9657	7.381454	0.000274	2.743490	0.464760	0.000027
 702	6.9749e+01	6.9716	7.412005	0.000307	3.071071	0.520253	0.000031
 703	6.9849e+01	6.9824	7.434409	0.000225	2.252119	0.381519	0.000023
 704	6.9948e+01	6.9900	7.462108	0.000278	2.784438	0.471696	0.000028
 705	7.0048e+01	7.0020	7.493474	0.000315	3.152966	0.534127	0.000032
 706	7.0147e+01	7.0132	7.518321	0.000250	2.497804	0.423139	0.000025
 707	7.0247e+01	7.0210	7.543984	0.000258	2.579699	0.437013	0.000026
 708	7.0347e+01	7.0329	7.571276	0.000274	2.743490	0.464760	0.000027
 709	7.0446e+01	7.0435	7.598975	0.000278	2.784438	0.471696	0.000028
 710	7.0546e+01	7.0492	7.620972	0.000221	2.211171	0.374583	0.000022
 711	7.0645e+01	7.0598	7.647856	0.000270	2.702542	0.457823	0.000027
 712	7.0745e+01	7.0705	7.674334	0.000266	2.661595	0.450886	0.000027
 713	7.0844e+01	7.0797	7.700404	0.000262	2.620647	0.443950	0.000026
 714	7.0944e+01	7.0889	7.725251	0.000250	2.497804	0.423139	0.000025
 715	7.1043e+01	7.0981	7.756617	0.000315	3.152966	0.534127	0.000032
 716	7.1142e+01	7.1070	7.783501	0.000270	2.702542	0.457823	0.000027
 717	7.1242e+01	7.1198	7.808349	0.000250	2.497804	0.423139	0.000025
 718	7.1341e+01	7.1319	7.835234	0.000270	2.702542	0.457823	0.000027
 719	7.1441e+01	7.1412	7.858045	0.000229	2.293066	0.388456	0.000023
 720	7.1540e+01	7.1507	7.880856	0.000229	2.293066	0.388456	0.000023
 721	7.1640e+01	7.1609	7.908148	0.000274	2.743490	0.464760	0.000027
 722	7.1740e+01	7.1700	7.935440	0.000274	2.743490	0.464760	0.000027
 723	7.1839e+01	7.1823	7.961103	0.000258	2.579699	0.437013	0.000026
 724	7.1939e+01	7.1918	7.989617	0.000287	2.866333	0.485570	0.000029
 725	7.2038e+01	7.1998	8.014057	0.000246	2.456857	0.416203	0.000025
 726	7.2138e+01	7.2099	8.041757	0.000278	2.784438	0.471696	0.000028
 727	7.2237e+01	7.2221	8.069049	0.000274	2.743490	0.464760	0.000027
 728	7.2337e+01	7.2280	8.095933	0.000270	2.702542	0.457823	0.000027
 729	7.2436e+01	7.2412	8.119966	0.000242	2.415909	0.409266	0.000024
 730	7.2535e+01	7.2483	8.147258	0.000274	2.743490	0.464760	0.000027
 731	7.2635e+01	7.2634	8.174550	0.000274	2.743490	0.464760	0.000027
 732	7.2734e+01	7.2725	8.201435	0.000270	2.702542	0.457823	0.000027
 733	7.2834e+01	7.2794	8.228320	0.000270	2.702542	0.457823	0.000027
 734	7.2933e+01	7.2922	8.258056	0.000299	2.989176	0.506380	0.000030
 735	7.3033e+01	7.2983	8.285347	0.000274	2.743490	0.464760	0.000027
 736	7.3132e+01	7.3098	8.309788	0.000246	2.456857	0.416203	0.000025
 737	7.3232e+01	7.3210	8.340746	0.000311	3.112018	0.527190	0.000031
 738	7.3332e+01	7.3317	8.367223	0.000266	2.661595	0.450886	0.000027
 739	7.3431e+01	7.3406	8.396145	0.000291	2.907280	0.492507	0.000029
 740	7.3531e+01	7.3498	8.420585	0.000246	2.456857	0.416203	0.000025
 741	7.3630e+01	7.3602	8.452765	0.000323	3.234861	0.548000	0.000032
 742	7.3730e+01	7.3672	8.477613	0.000250	2.497804	0.423139	0.000025
 743	7.3829e+01	7.3763	8.503276	0.000258	2.579699	0.437013	0.000026
 744	7.3928e+01	7.3908	8.533012	0.000299	2.989176	0.506380	0.000030
 745	7.4028e+01	7.4010	8.558267	0.000254	2.538752	0.430076	0.000025
 746	7.4127e+01	7.4081	8.584744	0.000266	2.661595	0.450886	0.000027
 747	7.4227e+01	7.4200	8.612036	0.000274	2.743490	0.464760	0.000027
 748	7.4326e+01	7.4285	8.643809	0.000319	3.193914	0.541064	0.000032
 749	7.4426e+01	7.4395	8.669879	0.000262	2.620647	0.443950	0.000026
 750	7.4525e+01	7.4482	8.697578	0.000278	2.784438	0.471696	0.000028
 751	7.4625e+01	7.4596	8.728944	0.000315	3.152966	0.534127	0.000032
 752	7.4725e+01	7.4673	8.755013	0.000262	2.620647	0.443950	0.000026
 753	7.4824e+01	7.4785	8.782713	0.000278	2.784438	0.471696	0.000028
 754	7.4924e+01	7.4915	8.810412	0.000278	2.784438	0.471696	0.000028
 755	7.5023e+01	7.4990	8.835260	0.000250	2.497804	0.423139	0.000025
 756	7.5123e+01	7.5090	8.864589	0.000295	2.948228	0.499443	0.000029
 757	7.5222e+01	7.5193	8.895547	0.000311	3.112018	0.527190	0.000031
 758	7.5322e+01	7.5293	8.922024	0.000266	2.661595	0.450886	0.000027
 759	7.5421e+01	7.5372	8.946872	0.000250	2.497804	0.423139	0.000025
 760	7.5520e+01	7.5475	8.970090	0.000233	2.334014	0.395393	0.000023
 761	7.5620e+01	7.5599	8.998604	0.000287	2.866333	0.485570	0.000029
 762	7.5719e+01	7.5684	9.024674	0.000262	2.620647	0.443950	0.000026
 763	7.5819e+01	7.5783	9.050744	0.000262	2.620647	0.443950	0.000026
 764	7.5918e+01	7.5879	9.079665	0.000291	2.907280	0.492507	0.000029
 765	7.6018e+01	7.5982	9.106957	0.000274	2.743490	0.464760	0.000027
 766	7.6118e+01	7.6090	9.132620	0.000258	2.579699	0.437013	0.000026
 767	7.6217e+01	7.6199	9.159912	0.000274	2.743490	0.464760	0.000027
 768	7.6317e+01	7.6260	9.188019	0.000283	2.825385	0.478633	0.000028
 769	7.6416e+01	7.6350	9.214089	0.000262	2.620647	0.443950	0.000026
 770	7.6516e+01	7.6472	9.238122	0.000242	2.415909	0.409266	0.000024
 771	7.6615e+01	7.6585	9.266228	0.000283	2.825385	0.478633	0.000028
 772	7.6715e+01	7.6685	9.289040	0.000229	2.293066	0.388456	0.000023
 773	7.6814e+01	7.6787	9.315924	0.000270	2.702542	0.457823	0.000027
 774	7.6913e+01	7.6849	9.344845	0.000291	2.907280	0.492507	0.000029
 775	7.7013e+01	7.7007	9.368471	0.000237	2.374961	0.402329	0.000024
 776	7.7112e+01	7.7062	9.399022	0.000307	3.071071	0.520253	0.000031
 777	7.7212e+01	7.7206	9.425499	0.000266	2.661595	0.450886	0.000027
 778	7.7311e+01	7.7258	9.453199	0.000278	2.784438	0.471696	0.000028
 779	7.7411e+01	7.7373	9.479269	0.000262	2.620647	0.443950	0.000026
 780	7.7510e+01	7.7477	9.508597	0.000295	2.948228	0.499443	0.000029
 781	7.7610e+01	7.7588	9.538333	0.000299	2.989176	0.506380	0.000030
 782	7.7710e+01	7.7657	9.566440	0.000283	2.825385	0.478633	0.000028
 783	7.7809e+01	7.7760	9.596583	0.000303	3.030123	0.513317	0.000030
 784	7.7909e+01	7.7859	9.623060	0.000266	2.661595	0.450886	0.000027
 785	7.8008e+01	7.7965	9.651167	0.000283	2.825385	0.478633	0.000028
 786	7.8108e+01	7.8082	9.681310	0.000303	3.030123	0.513317	0.000030
 787	7.8207e+01	7.8161	9.713490	0.000323	3.234861	0.548000	0.000032
 788	7.8306e+01	7.8254	9.737931	0.000246	2.456857	0.416203	0.000025
 789	7.8406e+01	7.8379	9.768889	0.000311	3.112018	0.527190	0.000031
 790	7.8505e+01	7.8461	9.796996	0.000283	2.825385	0.478633	0.000028
 791	7.8605e+01	7.8581	9.831620	0.000348	3.480547	0.589621	0.000035
 792	7.8704e+01	7.8682	9.863393	0.000319	3.193914	0.541064	0.000032
 793	7.8804e+01	7.8765	9.891907	0.000287	2.866333	0.485570	0.000029
 794	7.8903e+01	7.8871	9.922865	0.000311	3.112018	0.527190	0.000031
 795	7.9003e+01	7.8965	9.951379	0.000287	2.866333	0.485570	0.000029
 796	7.9103e+01	7.9065	9.981522	0.000303	3.030123	0.513317	0.000030
 797	7.9202e+01	7.9150	10.010851	0.000295	2.948228	0.499443	0.000029
 798	7.9302e+01	7.9279	10.042623	0.000319	3.193914	0.541064	0.000032
 799	7.9401e+01	7.9375	10.075211	0.000328	3.275809	0.554937	0.000033
 800	7.9501e+01	7.9485	10.102910	0.000278	2.784438	0.471696	0.000028
 801	7.9600e+01	7.9566	10.134275	0.000315	3.152966	0.534127	0.000032
 802	7.9700e+01	7.9662	10.166863	0.000328	3.275809	0.554937	0.000033
 803	7.9799e+01	7.9752	10.196599	0.000299	2.989176	0.506380	0.000030
 804	7.9898e+01	7.9847	10.226335	0.000299	2.989176	0.506380	0.000030
 805	7.9998e+01	7.9958	10.257293	0.000311	3.112018	0.527190	0.000031
 806	8.0097e+01	8.0072	10.292324	0.000352	3.521495	0.596557	0.000035
 807	8.0197e+01	8.0166	10.323690	0.000315	3.152966	0.534127	0.000032
 808	8.0296e+01	8.0276	10.350982	0.000274	2.743490	0.464760	0.000027
 809	8.0396e+01	8.0371	10.383569	0.000328	3.275809	0.554937	0.000033
 810	8.0496e+01	8.0461	10.410046	0.000266	2.661595	0.450886	0.000027
 811	8.0595e+01	8.0574	10.440597	0.000307	3.071071	0.520253	0.000031
 812	8.0695e+01	8.0679	10.470740	0.000303	3.030123	0.513317	0.000030
 813	8.0794e+01	8.0753	10.499662	0.000291	2.907280	0.492507	0.000029
 814	8.0894e+01	8.0840	10.530620	0.000311	3.112018	0.527190	0.000031
 815	8.0993e+01	8.0958	10.557912	0.000274	2.743490	0.464760	0.000027
 816	8.1093e+01	8.1055	10.588462	0.000307	3.071071	0.520253	0.000031
 817	8.1192e+01	8.1129	10.618606	0.000303	3.030123	0.513317	0.000030
 818	8.1291e+01	8.1255	10.646305	0.000278	2.784438	0.471696	0.000028
 819	8.1391e+01	8.1327	10.676448	0.000303	3.030123	0.513317	0.000030
 820	8.1490e+01	8.1435	10.706184	0.000299	2.989176	0.506380	0.000030
 821	8.1590e+01	8.1578	10.731847	0.000258	2.579699	0.437013	0.000026
 822	8.1689e+01	8.1641	10.761583	0.000299	2.989176	0.506380	0.000030
 823	8.1789e+01	8.1749	10.790504	0.000291	2.907280	0.492507	0.000029
 824	8.1888e+01	8.1848	10.818203	0.000278	2.784438	0.471696	0.000028
 825	8.1988e+01	8.1947	10.849162	0.000311	3.112018	0.527190	0.000031
 826	8.2088e+01	8.2053	10.880527	0.000315	3.152966	0.534127	0.000032
 827	8.2187e+01	8.2146	10.911485	0.000311	3.112018	0.527190	0.000031
 828	8.2287e+01	8.2247	10.937148	0.000258	2.579699	0.437013	0.000026
 829	8.2386e+01	8.2342	10.968920	0.000319	3.193914	0.541064	0.000032
 830	8.2486e+01	8.2427	10.999064	0.000303	3.030123	0.513317	0.000030
 831	8.2585e+01	8.2552	11.027578	0.000287	2.866333	0.485570	0.000029
 832	8.2684e+01	8.2653	11.054462	0.000270	2.702542	0.457823	0.000027
 833	8.2784e+01	8.2771	11.081754	0.000274	2.743490	0.464760	0.000027
 834	8.2883e+01	8.2838	11.109046	0.000274	2.743490	0.464760	0.000027
 835	8.2983e+01	8.2980	11.140004	0.000311	3.112018	0.527190	0.000031
 836	8.3082e+01	8.3037	11.168111	0.000283	2.825385	0.478633	0.000028
 837	8.3182e+01	8.3137	11.201513	0.000336	3.357704	0.568810	0.000034
 838	8.3281e+01	8.3261	11.226768	0.000254	2.538752	0.430076	0.000025
 839	8.3381e+01	8.3325	11.260170	0.000336	3.357704	0.568810	0.000034
 840	8.3481e+01	8.3447	11.287869	0.000278	2.784438	0.471696	0.000028
 841	8.3580e+01	8.3560	11.319235	0.000315	3.152966	0.534127	0.000032
 842	8.3680e+01	8.3652	11.346119	0.000270	2.702542	0.457823	0.000027
 843	8.3779e+01	8.3733	11.377077	0.000311	3.112018	0.527190	0.000031
 844	8.3879e+01	8.3843	11.410887	0.000340	3.398652	0.575747	0.000034
 845	8.3978e+01	8.3932	11.435735	0.000250	2.497804	0.423139	0.000025
 846	8.4078e+01	8.4038	11.470359	0.000348	3.480547	0.589621	0.000035
 847	8.4177e+01	8.4131	11.499688	0.000295	2.948228	0.499443	0.000029
 848	8.4276e+01	8.4274	11.524943	0.000254	2.538752	0.430076	0.000025
 849	8.4376e+01	8.4336	11.559974	0.000352	3.521495	0.596557	0.000035
 850	8.4475e+01	8.4441	11.589710	0.000299	2.989176	0.506380	0.000030
 851	8.4575e+01	8.4539	11.617817	0.000283	2.825385	0.478633	0.000028
 852	8.4674e+01	8.4621	11.649182	0.000315	3.152966	0.534127	0.000032
 853	8.4774e+01	8.4730	11.676067	0.000270	2.702542	0.457823	0.000027
 854	8.4874e+01	8.4821	11.712320	0.000364	3.644337	0.617367	0.000036
 855	8.4973e+01	8.4946	11.742464	0.000303	3.030123	0.513317	0.000030
 856	8.5073e+01	8.4992	11.774236	0.000319	3.193914	0.541064	0.000032
 857	8.5172e+01	8.5128	11.805194	0.000311	3.112018	0.527190	0.000031
 858	8.5272e+01	8.5209	11.833301	0.000283	2.825385	0.478633	0.000028
 859	8.5371e+01	8.5339	11.863444	0.000303	3.030123	0.513317	0.000030
 860	8.5471e+01	8.5444	11.892773	0.000295	2.948228	0.499443	0.000029
 861	8.5570e+01	8.5532	11.922916	0.000303	3.030123	0.513317	0.000030
 862	8.5669e+01	8.5632	11.953467	0.000307	3.071071	0.520253	0.000031
 863	8.5769e+01	8.5760	11.981166	0.000278	2.784438	0.471696	0.000028
 864	8.5868e+01	8.5826	12.008458	0.000274	2.743490	0.464760	0.000027
 865	8.5968e+01	8.5947	12.038602	0.000303	3.030123	0.513317	0.000030
 866	8.6067e+01	8.6060	12.066301	0.000278	2.784438	0.471696	0.000028
 867	8.6167e+01	8.6147	12.094815	0.000287	2.866333	0.485570	0.000029
 868	8.6266e+01	8.6236	12.125366	0.000307	3.071071	0.520253	0.000031
 869	8.6366e+01	8.6317	12.156731	0.000315	3.152966	0.534127	0.000032
 870	8.6466e+01	8.6417	12.181986	0.000254	2.538752	0.430076	0.000025
 871	8.6565e+01	8.6520	12.213352	0.000315	3.152966	0.534127	0.000032
 872	8.6665e+01	8.6655	12.244310	0.000311	3.112018	0.527190	0.000031
 873	8.6764e+01	8.6726	12.268343	0.000242	2.415909	0.409266	0.000024
 874	8.6864e+01	8.6850	12.296042	0.000278	2.784438	0.471696	0.000028
 875	8.6963e+01	8.6933	12.323334	0.000274	2.743490	0.464760	0.000027
 876	8.7063e+01	8.7025	12.349404	0.000262	2.620647	0.443950	0.000026
 877	8.7162e+01	8.7143	12.379140	0.000299	2.989176	0.506380	0.000030
 878	8.7261e+01	8.7241	12.401544	0.000225	2.252119	0.381519	0.000023
 879	8.7361e+01	8.7312	12.432095	0.000307	3.071071	0.520253	0.000031
 880	8.7460e+01	8.7428	12.457350	0.000254	2.538752	0.430076	0.000025
 881	8.7560e+01	8.7540	12.489530	0.000323	3.234861	0.548000	0.000032
 882	8.7659e+01	8.7648	12.518451	0.000291	2.907280	0.492507	0.000029
 883	8.7759e+01	8.7702	12.544521	0.000262	2.620647	0.443950	0.000026
 884	8.7859e+01	8.7837	12.572628	0.000283	2.825385	0.478633	0.000028
 885	8.7958e+01	8.7923	12.596661	0.000242	2.415909	0.409266	0.000024
 886	8.8058e+01	8.8020	12.627212	0.000307	3.071071	0.520253	0.000031
 887	8.8157e+01	8.8135	12.654504	0.000274	2.743490	0.464760	0.000027
 888	8.8257e+01	8.8216	12.680574	0.000262	2.620647	0.443950	0.000026
 889	8.8356e+01	8.8316	12.705014	0.000246	2.456857	0.416203	0.000025
 890	8.8456e+01	8.8428	12.732306	0.000274	2.743490	0.464760	0.000027
 891	8.8555e+01	8.8525	12.762857	0.000307	3.071071	0.520253	0.000031
 892	8.8654e+01	8.8615	12.789741	0.000270	2.702542	0.457823	0.000027
 893	8.8754e+01	8.8696	12.819885	0.000303	3.030123	0.513317	0.000030
 894	8.8853e+01	8.8843	12.848399	0.000287	2.866333	0.485570	0.000029
 895	8.8953e+01	8.8923	12.879764	0.000315	3.152966	0.534127	0.000032
 896	8.9052e+01	8.9025	12.905834	0.000262	2.620647	0.443950	0.000026
 897	8.9152e+01	8.9111	12.935163	0.000295	2.948228	0.499443	0.000029
 898	8.9251e+01	8.9209	12.962862	0.000278	2.784438	0.471696	0.000028
 899	8.9351e+01	8.9315	12.991376	0.000287	2.866333	0.485570	0.000029
 900	8.9451e+01	8.9408	13.025185	0.000340	3.398652	0.575747	0.000034
 901	8.9550e+01	8.9508	13.052885	0.000278	2.784438	0.471696	0.000028
 902	8.9650e+01	8.9608	13.085879	0.000332	3.316756	0.561874	0.000033
 903	8.9749e+01	8.9680	13.115208	0.000295	2.948228	0.499443	0.000029
 904	8.9849e+01	8.9819	13.145351	0.000303	3.030123	0.513317	0.000030
 905	8.9948e+01	8.9905	13.176310	0.000311	3.112018	0.527190	0.000031
 906	9.0047e+01	9.0024	13.205231	0.000291	2.907280	0.492507	0.000029
 907	9.0147e+01	9.0108	13.236189	0.000311	3.112018	0.527190	0.000031
 908	9.0246e+01	9.0195	13.266740	0.000307	3.071071	0.520253	0.000031
 909	9.0346e+01	9.0315	13.300142	0.000336	3.357704	0.568810	0.000034
 910	9.0445e+01	9.0390	13.329878	0.000299	2.989176	0.506380	0.000030
 911	9.0545e+01	9.0510	13.362058	0.000323	3.234861	0.548000	0.000032
 912	9.0644e+01	9.0586	13.391386	0.000295	2.948228	0.499443	0.000029
 913	9.0744e+01	9.0704	13.428047	0.000369	3.685285	0.624304	0.000037
 914	9.0844e+01	9.0791	13.457783	0.000299	2.989176	0.506380	0.000030
 915	9.0943e+01	9.0884	13.490371	0.000328	3.275809	0.554937	0.000033
 916	9.1043e+01	9.1004	13.521329	0.000311	3.112018	0.527190	0.000031
 917	9.1142e+01	9.1068	13.547806	0.000266	2.661595	0.450886	0.000027
 918	9.1242e+01	9.1199	13.582430	0.000348	3.480547	0.589621	0.000035
 919	9.1341e+01	9.1309	13.617054	0.000348	3.480547	0.589621	0.000035
 920	9.1441e+01	9.1390	13.648420	0.000315	3.152966	0.534127	0.000032
 921	9.1540e+01	9.1479	13.680192	0.000319	3.193914	0.541064	0.000032
 922	9.1639e+01	9.1603	13.714002	0.000340	3.398652	0.575747	0.000034
 923	9.1739e+01	9.1726	13.742516	0.000287	2.866333	0.485570	0.000029
 924	9.1838e+01	9.1792	13.775918	0.000336	3.357704	0.568810	0.000034
 925	9.1938e+01	9.1911	13.808098	0.000323	3.234861	0.548000	0.000032
 926	9.2037e+01	9.1997	13.841907	0.000340	3.398652	0.575747	0.000034
 927	9.2137e+01	9.2090	13.873680	0.000319	3.193914	0.541064	0.000032
 928	9.2237e+01	9.2202	13.903823	0.000303	3.030123	0.513317	0.000030
 929	9.2336e+01	9.2279	13.939262	0.000356	3.562442	0.603494	0.000036
 930	9.2436e+01	9.2360	13.973886	0.000348	3.480547	0.589621	0.000035
 931	9.2535e+01	9.2496	14.003622	0.000299	2.989176	0.506380	0.000030
 932	9.2635e+01	9.2599	14.035395	0.000319	3.193914	0.541064	0.000032
 933	9.2734e+01	9.2686	14.072056	0.000369	3.685285	0.624304	0.000037
 934	9.2834e+01	9.2781	14.105865	0.000340	3.398652	0.575747	0.000034
 935	9.2933e+01	9.2905	14.139675	0.000340	3.398652	0.575747	0.000034
 936	9.3032e+01	9.2969	14.172669	0.000332	3.316756	0.561874	0.000033
 937	9.3132e+01	9.3075	14.204035	0.000315	3.152966	0.534127	0.000032
 938	9.3231e+01	9.3216	14.239066	0.000352	3.521495	0.596557	0.000035
 939	9.3331e+01	9.3298	14.271246	0.000323	3.234861	0.548000	0.000032
 940	9.3430e+01	9.3374	14.307092	0.000360	3.603390	0.610431	0.000036
 941	9.3530e+01	9.3513	14.342531	0.000356	3.562442	0.603494	0.000036
 942	9.3629e+01	9.3604	14.378377	0.000360	3.603390	0.610431	0.000036
 943	9.3729e+01	9.3690	14.410557	0.000323	3.234861	0.548000	0.000032
 944	9.3829e+01	9.3799	14.447626	0.000373	3.726233	0.631241	0.000037
 945	9.3928e+01	9.3872	14.481842	0.000344	3.439599	0.582684	0.000034
 946	9.4028e+01	9.4000	14.519725	0.000381	3.808128	0.645114	0.000038
 947	9.4127e+01	9.4086	14.553127	0.000336	3.357704	0.568810	0.000034
 948	9.4227e+01	9.4189	14.588566	0.000356	3.562442	0.603494	0.000036
 949	9.4326e+01	9.4287	14.627671	0.000393	3.930971	0.665924	0.000039
 950	9.4425e+01	9.4385	14.662295	0.000348	3.480547	0.589621	0.000035
 951	9.4525e+01	9.4485	14.697327	0.000352	3.521495	0.596557	0.000035
 952	9.4624e+01	9.4609	14.733987	0.000369	3.685285	0.624304	0.000037
 953	9.4724e+01	9.4666	14.766982	0.000332	3.316756	0.561874	0.000033
 954	9.4823e+01	9.4765	14.805680	0.000389	3.890023	0.658988	0.000039
 955	9.4923e+01	9.4873	14.844785	0.000393	3.930971	0.665924	0.000039
 956	9.5022e+01	9.4961	14.885112	0.000405	4.053813	0.686735	0.000041
 957	9.5122e+01	9.5057	14.924216	0.000393	3.930971	0.665924	0.000039
 958	9.5222e+01	9.5184	14.962099	0.000381	3.808128	0.645114	0.000038
 959	9.5321e+01	9.5245	15.004870	0.000430	4.299499	0.728355	0.000043
 960	9.5421e+01	9.5379	15.045604	0.000409	4.094761	0.693671	0.000041
 961	9.5520e+01	9.5453	15.091634	0.000463	4.627080	0.783849	0.000046
 962	9.5620e+01	9.5541	15.130332	0.000389	3.890023	0.658988	0.000039
 963	9.5719e+01	9.5673	15.178398	0.000483	4.831818	0.818532	0.000048
 964	9.5819e+01	9.5776	15.215059	0.000369	3.685285	0.624304	0.000037
 965	9.5918e+01	9.5853	15.262311	0.000475	4.749923	0.804659	0.000047
 966	9.6017e+01	9.5972	15.306304	0.000442	4.422342	0.749165	0.000044
 967	9.6117e+01	9.6058	15.349075	0.000430	4.299499	0.728355	0.000043
 968	9.6216e+01	9.6191	15.394697	0.000459	4.586132	0.776912	0.000046
 969	9.6316e+01	9.6295	15.439097	0.000446	4.463290	0.756102	0.000045
 970	9.6415e+01	9.6375	15.481054	0.000422	4.217604	0.714481	0.000042
 971	9.6515e+01	9.6457	15.525454	0.000446	4.463290	0.756102	0.000045
 972	9.6615e+01	9.6570	15.570669	0.000455	4.545185	0.769975	0.000045
 973	9.6714e+01	9.6648	15.617106	0.000467	4.668028	0.790785	0.000047
 974	9.6814e+01	9.6778	15.659062	0.000422	4.217604	0.714481	0.000042
 975	9.6913e+01	9.6856	15.705499	0.000467	4.668028	0.790785	0.000047
 976	9.7013e+01	9.6986	15.744197	0.000389	3.890023	0.658988	0.000039
 977	9.7112e+01	9.7058	15.790634	0.000467	4.668028	0.790785	0.000047
 978	9.7212e+01	9.7168	15.838293	0.000479	4.790870	0.811595	0.000048
 979	9.7311e+01	9.7273	15.883101	0.000450	4.504237	0.763038	0.000045
 980	9.7410e+01	9.7356	15.930353	0.000475	4.749923	0.804659	0.000047
 981	9.7510e+01	9.7474	15.978012	0.000479	4.790870	0.811595	0.000048
 982	9.7609e+01	9.7574	16.021190	0.000434	4.340447	0.735292	0.000043
 983	9.7709e+01	9.7656	16.069256	0.000483	4.831818	0.818532	0.000048
 984	9.7808e+01	9.7756	16.116508	0.000475	4.749923	0.804659	0.000047
 985	9.7908e+01	9.7846	16.159279	0.000430	4.299499	0.728355	0.000043
 986	9.8007e+01	9.7925	16.204901	0.000459	4.586132	0.776912	0.000046
 987	9.8107e+01	9.8061	16.255412	0.000508	5.077504	0.860152	0.000051
 988	9.8207e+01	9.8147	16.296961	0.000418	4.176656	0.707545	0.000042
 989	9.8306e+01	9.8278	16.347064	0.000504	5.036556	0.853216	0.000050
 990	9.8406e+01	9.8364	16.400833	0.000541	5.405085	0.915646	0.000054
 991	9.8505e+01	9.8462	16.443604	0.000430	4.299499	0.728355	0.000043
 992	9.8605e+01	9.8577	16.494522	0.000512	5.118451	0.867089	0.000051
 993	9.8704e+01	9.8650	16.541774	0.000475	4.749923	0.804659	0.000047
 994	9.8803e+01	9.8736	16.586174	0.000446	4.463290	0.756102	0.000045
 995	9.8903e+01	9.8865	16.634240	0.000483	4.831818	0.818532	0.000048
 996	9.9002e+01	9.8965	16.680270	0.000463	4.627080	0.783849	0.000046
 997	9.9102e+01	9.9050	16.730781	0.000508	5.077504	0.860152	0.000051
 998	9.9201e+01	9.9123	16.776810	0.000463	4.627080	0.783849	0.000046
 999	9.9301e+01	9.9245	16.823247	0.000467	4.668028	0.790785	0.000047
1000	9.9400e+01	9.9354	16.869684	0.000467	4.668028	0.790785	0.000047
1001	9.9500e+01	9.9463	16.918158	0.000487	4.872766	0.825469	0.000049
1002	9.9600e+01	9.9553	16.968669	0.000508	5.077504	0.860152	0.000051
1003	9.9699e+01	9.9660	17.021216	0.000528	5.282242	0.894836	0.000053
1004	9.9799e+01	9.9756	17.074578	0.000536	5.364137	0.908709	0.000054
1005	9.9898e+01	9.9841	17.126718	0.000524	5.241294	0.887899	0.000052
1006	9.9998e+01	9.9939	17.176006	0.000495	4.954661	0.839342	0.000050
1007	1.0010e+02	9.9854	17.190670	-0.000147	-1.474114	-0.249722	0.000015
1008	1.0020e+02	9.9731	17.199632	-0.000090	-0.900847	-0.152608	0.000009
1009	1.0030e+02	9.9647	17.204927	-0.000053	-0.532319	-0.090177	0.000005
1010	1.0040e+02	9.9546	17.211037	-0.000061	-0.614214	-0.104051	0.000006
1011	1.0050e+02	9.9464	17.221628	-0.000106	-1.064638	-0.180355	0.000011
1012	1.0059e+02	9.9378	17.228961	-0.000074	-0.737057	-0.124861	0.000007
1013	1.0069e+02	9.9268	17.230997	-0.000020	-0.204738	-0.034684	0.000002
1014	1.0079e+02	9.9186	17.237922	-0.000070	-0.696109	-0.117924	0.000007
1015	1.0089e+02	9.9097	17.242810	-0.000049	-0.491371	-0.083241	0.000005
1016	1.0099e+02	9.8957	17.251772	-0.000090	-0.900847	-0.152608	0.000009
1017	1.0109e+02	9.8849	17.254216	-0.000025	-0.245686	-0.041620	0.000002
1018	1.0119e+02	9.8749	17.254216	-0.000000	-0.000000	-0.000000	0.000000
1019	1.0129e+02	9.8673	17.258697	-0.000045	-0.450424	-0.076304	0.000005
1020	1.0139e+02	9.8557	17.262770	-0.000041	-0.409476	-0.069367	0.000004
1021	1.0149e+02	9.8452	17.266436	-0.000037	-0.368528	-0.062430	0.000004
1022	1.0159e+02	9.8369	17.269695	-0.000033	-0.327581	-0.055494	0.000003
1023	1.0169e+02	9.8260	17.273768	-0.000041	-0.409476	-0.069367	0.000004
1024	1.0179e+02	9.8169	17.272139	0.000016	0.163790	0.027747	-0.000002
1025	1.0189e+02	9.8080	17.274176	-0.000020	-0.204738	-0.034684	0.000002
1026	1.0199e+02	9.7939	17.276620	-0.000025	-0.245686	-0.041620	0.000002
1027	1.0209e+02	9.7876	17.277027	-0.000004	-0.040948	-0.006937	0.000000
1028	1.0219e+02	9.7748	17.277434	-0.000004	-0.040948	-0.006937	0.000000
1029	1.0229e+02	9.7633	17.271732	0.000057	0.573267	0.097114	-0.000006
1030	1.0239e+02	9.7543	17.271732	-0.000000	-0.000000	-0.000000	0.000000
1031	1.0248e+02	9.7462	17.269287	0.000025	0.245686	0.041620	-0.000002
1032	1.0258e+02	9.7370	17.263585	0.000057	0.573267	0.097114	-0.000006
1033	1.0268e+02	9.7279	17.263585	-0.000000	-0.000000	-0.000000	0.000000
1034	1.0278e+02	9.7172	17.264399	-0.000008	-0.081895	-0.013873	0.000001
1035	1.0288e+02	9.7070	17.255845	0.000086	0.859900	0.145671	-0.000009
1036	1.0298e+02	9.6948	17.253401	0.000025	0.245686	0.041620	-0.000002
1037	1.0308e+02	9.6875	17.246476	0.000070	0.696109	0.117924	-0.000007
1038	1.0318e+02	9.6749	17.243218	0.000033	0.327581	0.055494	-0.000003
1039	1.0328e+02	9.6651	17.238329	0.000049	0.491371	0.083241	-0.000005
1040	1.0338e+02	9.6570	17.232627	0.000057	0.573267	0.097114	-0.000006
1041	1.0348e+02	9.6460	17.225294	0.000074	0.737057	0.124861	-0.000007
1042	1.0358e+02	9.6387	17.217962	0.000074	0.737057	0.124861	-0.000007
1043	1.0368e+02	9.6282	17.212260	0.000057	0.573267	0.097114	-0.000006
1044	1.0378e+02	9.6191	17.200854	0.000115	1.146533	0.194228	-0.000011
1045	1.0388e+02	9.6064	17.194336	0.000066	0.655162	0.110987	-0.000007
1046	1.0398e+02	9.5984	17.185782	0.000086	0.859900	0.145671	-0.000009
1047	1.0408e+02	9.5862	17.178450	0.000074	0.737057	0.124861	-0.000007
1048	1.0418e+02	9.5767	17.169896	0.000086	0.859900	0.145671	-0.000009
1049	1.0428e+02	9.5700	17.161749	0.000082	0.818952	0.138734	-0.000008
1050	1.0438e+02	9.5586	17.151973	0.000098	0.982743	0.166481	-0.000010
1051	1.0447e+02	9.5473	17.143826	0.000082	0.818952	0.138734	-0.000008
1052	1.0457e+02	9.5379	17.133235	0.000106	1.064638	0.180355	-0.000011
1053	1.0467e+02	9.5270	17.123051	0.000102	1.023690	0.173418	-0.000010
1054	1.0477e+02	9.5148	17.111646	0.000115	1.146533	0.194228	-0.000011
1055	1.0487e+02	9.5081	17.103092	0.000086	0.859900	0.145671	-0.000009
1056	1.0497e+02	9.4973	17.093315	0.000098	0.982743	0.166481	-0.000010
1057	1.0507e+02	9.4885	17.080281	0.000131	1.310324	0.221975	-0.000013
1058	1.0517e+02	9.4751	17.070912	0.000094	0.941795	0.159544	-0.000009
1059	1.0527e+02	9.4691	17.058284	0.000127	1.269376	0.215038	-0.000013
1060	1.0537e+02	9.4581	17.048508	0.000098	0.982743	0.166481	-0.000010
1061	1.0547e+02	9.4450	17.036288	0.000123	1.228428	0.208101	-0.000012
1062	1.0557e+02	9.4385	17.027326	0.000090	0.900847	0.152608	-0.000009
1063	1.0567e+02	9.4277	17.014698	0.000127	1.269376	0.215038	-0.000013
1064	1.0577e+02	9.4176	17.001256	0.000135	1.351271	0.228912	-0.000014
1065	1.0587e+02	9.4096	16.987406	0.000139	1.392219	0.235848	-0.000014
1066	1.0597e+02	9.3995	16.975593	0.000119	1.187481	0.201165	-0.000012
1067	1.0607e+02	9.3902	16.963373	0.000123	1.228428	0.208101	-0.000012
1068	1.0617e+02	9.3799	16.947894	0.000156	1.556009	0.263595	-0.000016
1069	1.0627e+02	9.3677	16.937711	0.000102	1.023690	0.173418	-0.000010
1070	1.0637e+02	9.3604	16.919788	0.000180	1.801695	0.305215	-0.000018
1071	1.0647e+02	9.3476	16.910826	0.000090	0.900847	0.152608	-0.000009
1072	1.0656e+02	9.3391	16.898606	0.000123	1.228428	0.208101	-0.000012
1073	1.0666e+02	9.3287	16.883534	0.000152	1.515062	0.256658	-0.000015
1074	1.0676e+02	9.3182	16.867648	0.000160	1.596957	0.270532	-0.000016
1075	1.0686e+02	9.3091	16.856242	0.000115	1.146533	0.194228	-0.000011
1076	1.0696e+02	9.2995	16.840356	0.000160	1.596957	0.270532	-0.000016
1077	1.0706e+02	9.2883	16.824469	0.000160	1.596957	0.270532	-0.000016
1078	1.0716e+02	9.2792	16.811842	0.000127	1.269376	0.215038	-0.000013
1079	1.0726e+02	9.2704	16.794733	0.000172	1.719800	0.291342	-0.000017
1080	1.0736e+02	9.2578	16.784142	0.000106	1.064638	0.180355	-0.000011
1081	1.0746e+02	9.2486	16.762961	0.000213	2.129276	0.360709	-0.000021
1082	1.0756e+02	9.2403	16.751555	0.000115	1.146533	0.194228	-0.000011
1083	1.0766e+02	9.2287	16.735669	0.000160	1.596957	0.270532	-0.000016
1084	1.0776e+02	9.2181	16.719375	0.000164	1.637904	0.277469	-0.000016
1085	1.0786e+02	9.2084	16.703081	0.000164	1.637904	0.277469	-0.000016
1086	1.0796e+02	9.1999	16.693712	0.000094	0.941795	0.159544	-0.000009
1087	1.0806e+02	9.1871	16.673753	0.000201	2.006433	0.339899	-0.000020
1088	1.0816e+02	9.1803	16.659903	0.000139	1.392219	0.235848	-0.000014
1089	1.0826e+02	9.1699	16.645646	0.000143	1.433166	0.242785	-0.000014
1090	1.0836e+02	9.1575	16.628130	0.000176	1.760747	0.298279	-0.000018
1091	1.0845e+02	9.1497	16.613466	0.000147	1.474114	0.249722	-0.000015
1092	1.0855e+02	9.1418	16.600431	0.000131	1.310324	0.221975	-0.000013
1093	1.0865e+02	9.1311	16.579249	0.000213	2.129276	0.360709	-0.000021
1094	1.0875e+02	9.1196	16.557253	0.000221	2.211171	0.374583	-0.000022
1095	1.0885e+02	9.1122	16.544218	0.000131	1.310324	0.221975	-0.000013
1096	1.0895e+02	9.0993	16.524665	0.000197	1.965485	0.332962	-0.000020
1097	1.0905e+02	9.0858	16.507557	0.000172	1.719800	0.291342	-0.000017
1098	1.0915e+02	9.0812	16.491263	0.000164	1.637904	0.277469	-0.000016
1099	1.0925e+02	9.0680	16.473747	0.000176	1.760747	0.298279	-0.000018
1100	1.0935e+02	9.0601	16.457046	0.000168	1.678852	0.284405	-0.000017
1101	1.0945e+02	9.0481	16.436272	0.000209	2.088328	0.353772	-0.000021
1102	1.0955e+02	9.0399	16.423237	0.000131	1.310324	0.221975	-0.000013
1103	1.0965e+02	9.0317	16.400426	0.000229	2.293066	0.388456	-0.000023
1104	1.0975e+02	9.0224	16.382503	0.000180	1.801695	0.305215	-0.000018
1105	1.0985e+02	9.0095	16.366616	0.000160	1.596957	0.270532	-0.000016
1106	1.0995e+02	8.9986	16.347471	0.000192	1.924538	0.326026	-0.000019
1107	1.1005e+02	8.9920	16.326289	0.000213	2.129276	0.360709	-0.000021
1108	1.1015e+02	8.9790	16.309181	0.000172	1.719800	0.291342	-0.000017
1109	1.1025e+02	8.9706	16.290851	0.000184	1.842642	0.312152	-0.000018
1110	1.1035e+02	8.9621	16.270484	0.000205	2.047381	0.346836	-0.000020
1111	1.1044e+02	8.9486	16.257856	0.000127	1.269376	0.215038	-0.000013
1112	1.1054e+02	8.9397	16.238711	0.000192	1.924538	0.326026	-0.000019
1113	1.1064e+02	8.9297	16.221602	0.000172	1.719800	0.291342	-0.000017
1114	1.1074e+02	8.9191	16.200421	0.000213	2.129276	0.360709	-0.000021
1115	1.1084e+02	8.9106	16.185349	0.000152	1.515062	0.256658	-0.000015
1116	1.1094e+02	8.9027	16.166611	0.000188	1.883590	0.319089	-0.000019
1117	1.1104e+02	8.8902	16.149910	0.000168	1.678852	0.284405	-0.000017
1118	1.1114e+02	8.8807	16.129950	0.000201	2.006433	0.339899	-0.000020
1119	1.1124e+02	8.8703	16.110805	0.000192	1.924538	0.326026	-0.000019
1120	1.1134e+02	8.8612	16.096141	0.000147	1.474114	0.249722	-0.000015
1121	1.1144e+02	8.8486	16.077403	0.000188	1.883590	0.319089	-0.000019
1122	1.1154e+02	8.8416	16.057036	0.000205	2.047381	0.346836	-0.000020
1123	1.1164e+02	8.8306	16.042372	0.000147	1.474114	0.249722	-0.000015
1124	1.1174e+02	8.8213	16.024856	0.000176	1.760747	0.298279	-0.000018
1125	1.1184e+02	8.8109	16.009784	0.000152	1.515062	0.256658	-0.000015
1126	1.1194e+02	8.8010	15.996749	0.000131	1.310324	0.221975	-0.000013
1127	1.1204e+02	8.7929	15.980456	0.000164	1.637904	0.277469	-0.000016
1128	1.1214e+02	8.7794	15.961311	0.000192	1.924538	0.326026	-0.000019
1129	1.1224e+02	8.7704	15.947868	0.000135	1.351271	0.228912	-0.000014
1130	1.1234e+02	8.7614	15.930353	0.000176	1.760747	0.298279	-0.000018
1131	1.1244e+02	8.7507	15.914466	0.000160	1.596957	0.270532	-0.000016
1132	1.1253e+02	8.7434	15.897358	0.000172	1.719800	0.291342	-0.000017
1133	1.1263e+02	8.7322	15.882286	0.000152	1.515062	0.256658	-0.000015
1134	1.1273e+02	8.7233	15.862326	0.000201	2.006433	0.339899	-0.000020
1135	1.1283e+02	8.7122	15.845218	0.000172	1.719800	0.291342	-0.000017
1136	1.1293e+02	8.7030	15.826887	0.000184	1.842642	0.312152	-0.000018
1137	1.1303e+02	8.6951	15.813853	0.000131	1.310324	0.221975	-0.000013
1138	1.1313e+02	8.6823	15.796337	0.000176	1.760747	0.298279	-0.000018
1139	1.1323e+02	8.6719	15.781265	0.000152	1.515062	0.256658	-0.000015
1140	1.1333e+02	8.6639	15.763749	0.000176	1.760747	0.298279	-0.000018
1141	1.1343e+02	8.6542	15.743790	0.000201	2.006433	0.339899	-0.000020
1142	1.1353e+02	8.6438	15.730755	0.000131	1.310324	0.221975	-0.000013
1143	1.1363e+02	8.6342	15.708758	0.000221	2.211171	0.374583	-0.000022
1144	1.1373e+02	8.6245	15.693686	0.000152	1.515062	0.256658	-0.000015
1145	1.1383e+02	8.6121	15.674949	0.000188	1.883590	0.319089	-0.000019
1146	1.1393e+02	8.6023	15.657433	0.000176	1.760747	0.298279	-0.000018
1147	1.1403e+02	8.5938	15.639103	0.000184	1.842642	0.312152	-0.000018
1148	1.1413e+02	8.5837	15.620772	0.000184	1.842642	0.312152	-0.000018
1149	1.1423e+02	8.5747	15.602849	0.000180	1.801695	0.305215	-0.000018
1150	1.1433e+02	8.5651	15.584926	0.000180	1.801695	0.305215	-0.000018
1151	1.1442e+02	8.5503	15.564966	0.000201	2.006433	0.339899	-0.000020
1152	1.1452e+02	8.5409	15.549080	0.000160	1.596957	0.270532	-0.000016
1153	1.1462e+02	8.5331	15.529935	0.000192	1.924538	0.326026	-0.000019
1154	1.1472e+02	8.5220	15.503050	0.000270	2.702542	0.457823	-0.000027
1155	1.1482e+02	8.5117	15.487978	0.000152	1.515062	0.256658	-0.000015
1156	1.1492e+02	8.5017	15.465982	0.000221	2.211171	0.374583	-0.000022
1157	1.1502e+02	8.4949	15.450503	0.000156	1.556009	0.263595	-0.000016
1158	1.1512e+02	8.4840	15.431358	0.000192	1.924538	0.326026	-0.000019
1159	1.1522e+02	8.4739	15.409769	0.000217	2.170223	0.367646	-0.000022
1160	1.1532e+02	8.4635	15.389402	0.000205	2.047381	0.346836	-0.000020
1161	1.1542e+02	8.4524	15.366998	0.000225	2.252119	0.381519	-0.000023
1162	1.1552e+02	8.4457	15.351111	0.000160	1.596957	0.270532	-0.000016
1163	1.1562e+02	8.4351	15.329522	0.000217	2.170223	0.367646	-0.000022
1164	1.1572e+02	8.4255	15.311192	0.000184	1.842642	0.312152	-0.000018
1165	1.1582e+02	8.4148	15.288788	0.000225	2.252119	0.381519	-0.000023
1166	1.1592e+02	8.4019	15.269643	0.000192	1.924538	0.326026	-0.000019
1167	1.1602e+02	8.3970	15.246017	0.000237	2.374961	0.402329	-0.000024
1168	1.1612e+02	8.3826	15.228909	0.000172	1.719800	0.291342	-0.000017
1169	1.1622e+02	8.3741	15.206505	0.000225	2.252119	0.381519	-0.000023
1170	1.1632e+02	8.3633	15.185730	0.000209	2.088328	0.353772	-0.000021
1171	1.1642e+02	8.3558	15.167400	0.000184	1.842642	0.312152	-0.000018
1172	1.1651e+02	8.3408	15.147440	0.000201	2.006433	0.339899	-0.000020
1173	1.1661e+02	8.3357	15.123000	0.000246	2.456857	0.416203	-0.000025
1174	1.1671e+02	8.3235	15.102225	0.000209	2.088328	0.353772	-0.000021
1175	1.1681e+02	8.3150	15.083080	0.000192	1.924538	0.326026	-0.000019
1176	1.1691e+02	8.3044	15.059454	0.000237	2.374961	0.402329	-0.000024
1177	1.1701e+02	8.2921	15.041124	0.000184	1.842642	0.312152	-0.000018
1178	1.1711e+02	8.2846	15.019535	0.000217	2.170223	0.367646	-0.000022
1179	1.1721e+02	8.2757	15.004463	0.000152	1.515062	0.256658	-0.000015
1180	1.1731e+02	8.2652	14.982874	0.000217	2.170223	0.367646	-0.000022
1181	1.1741e+02	8.2558	14.959655	0.000233	2.334014	0.395393	-0.000023
1182	1.1751e+02	8.2436	14.937659	0.000221	2.211171	0.374583	-0.000022
1183	1.1761e+02	8.2344	14.920550	0.000172	1.719800	0.291342	-0.000017
1184	1.1771e+02	8.2264	14.900183	0.000205	2.047381	0.346836	-0.000020
1185	1.1781e+02	8.2143	14.875743	0.000246	2.456857	0.416203	-0.000025
1186	1.1791e+02	8.2056	14.856598	0.000192	1.924538	0.326026	-0.000019
1187	1.1801e+02	8.1958	14.835823	0.000209	2.088328	0.353772	-0.000021
1188	1.1811e+02	8.1863	14.814641	0.000213	2.129276	0.360709	-0.000021
1189	1.1821e+02	8.1767	14.792237	0.000225	2.252119	0.381519	-0.000023
1190	1.1831e+02	8.1658	14.777980	0.000143	1.433166	0.242785	-0.000014
1191	1.1841e+02	8.1573	14.757613	0.000205	2.047381	0.346836	-0.000020
1192	1.1850e+02	8.1470	14.733580	0.000242	2.415909	0.409266	-0.000024
1193	1.1860e+02	8.1348	14.715657	0.000180	1.801695	0.305215	-0.000018
1194	1.1870e+02	8.1277	14.691216	0.000246	2.456857	0.416203	-0.000025
1195	1.1880e+02	8.1167	14.673293	0.000180	1.801695	0.305215	-0.000018
1196	1.1890e+02	8.1042	14.648853	0.000246	2.456857	0.416203	-0.000025
1197	1.1900e+02	8.0958	14.621561	0.000274	2.743490	0.464760	-0.000027
1198	1.1910e+02	8.0860	14.602008	0.000197	1.965485	0.332962	-0.000020
1199	1.1920e+02	8.0749	14.579197	0.000229	2.293066	0.388456	-0.000023
1200	1.1930e+02	8.0668	14.555164	0.000242	2.415909	0.409266	-0.000024
1201	1.1940e+02	8.0553	14.533168	0.000221	2.211171	0.374583	-0.000022
1202	1.1950e+02	8.0466	14.509542	0.000237	2.374961	0.402329	-0.000024
1203	1.1960e+02	8.0356	14.485916	0.000237	2.374961	0.402329	-0.000024
1204	1.1970e+02	8.0257	14.461883	0.000242	2.415909	0.409266	-0.000024
1205	1.1980e+02	8.0141	14.440293	0.000217	2.170223	0.367646	-0.000022
1206	1.1990e+02	8.0053	14.414224	0.000262	2.620647	0.443950	-0.000026
1207	1.2000e+02	7.9969	14.389376	0.000250	2.497804	0.423139	-0.000025
1208	1.2010e+02	7.9861	14.364120	0.000254	2.538752	0.430076	-0.000025
1209	1.2020e+02	7.9774	14.338050	0.000262	2.620647	0.443950	-0.000026
1210	1.2030e+02	7.9644	14.313203	0.000250	2.497804	0.423139	-0.000025
1211	1.2039e+02	7.9578	14.285911	0.000274	2.743490	0.464760	-0.000027
1212	1.2049e+02	7.9452	14.258619	0.000274	2.743490	0.464760	-0.000027
1213	1.2059e+02	7.9370	14.235807	0.000229	2.293066	0.388456	-0.000023
1214	1.2069e+02	7.9226	14.207294	0.000287	2.866333	0.485570	-0.000029
1215	1.2079e+02	7.9168	14.184482	0.000229	2.293066	0.388456	-0.000023
1216	1.2089e+02	7.9063	14.158412	0.000262	2.620647	0.443950	-0.000026
1217	1.2099e+02	7.8959	14.131120	0.000274	2.743490	0.464760	-0.000027
1218	1.2109e+02	7.8891	14.107495	0.000237	2.374961	0.402329	-0.000024
1219	1.2119e+02	7.8764	14.081017	0.000266	2.661595	0.450886	-0.000027
1220	1.2129e+02	7.8677	14.050874	0.000303	3.030123	0.513317	-0.000030
1221	1.2139e+02	7.8564	14.025211	0.000258	2.579699	0.437013	-0.000026
1222	1.2149e+02	7.8460	13.995068	0.000303	3.030123	0.513317	-0.000030
1223	1.2159e+02	7.8369	13.968591	0.000266	2.661595	0.450886	-0.000027
1224	1.2169e+02	7.8265	13.942521	0.000262	2.620647	0.443950	-0.000026
1225	1.2179e+02	7.8177	13.917266	0.000254	2.538752	0.430076	-0.000025
1226	1.2189e+02	7.8060	13.892010	0.000254	2.538752	0.430076	-0.000025
1227	1.2199e+02	7.7980	13.867570	0.000246	2.456857	0.416203	-0.000025
1228	1.2209e+02	7.7866	13.839463	0.000283	2.825385	0.478633	-0.000028
1229	1.2219e+02	7.7774	13.816245	0.000233	2.334014	0.395393	-0.000023
1230	1.2229e+02	7.7653	13.788138	0.000283	2.825385	0.478633	-0.000028
1231	1.2239e+02	7.7589	13.762475	0.000258	2.579699	0.437013	-0.000026
1232	1.2248e+02	7.7459	13.737220	0.000254	2.538752	0.430076	-0.000025
1233	1.2258e+02	7.7370	13.712372	0.000250	2.497804	0.423139	-0.000025
1234	1.2268e+02	7.7283	13.686302	0.000262	2.620647	0.443950	-0.000026
1235	1.2278e+02	7.7162	13.660640	0.000258	2.579699	0.437013	-0.000026
1236	1.2288e+02	7.7082	13.637421	0.000233	2.334014	0.395393	-0.000023
1237	1.2298e+02	7.6987	13.611351	0.000262	2.620647	0.443950	-0.000026
1238	1.2308e+02	7.6865	13.586096	0.000254	2.538752	0.430076	-0.000025
1239	1.2318e+02	7.6763	13.558804	0.000274	2.743490	0.464760	-0.000027
1240	1.2328e+02	7.6647	13.534364	0.000246	2.456857	0.416203	-0.000025
1241	1.2338e+02	7.6571	13.509108	0.000254	2.538752	0.430076	-0.000025
1242	1.2348e+02	7.6467	13.485890	0.000233	2.334014	0.395393	-0.000023
1243	1.2358e+02	7.6363	13.459005	0.000270	2.702542	0.457823	-0.000027
1244	1.2368e+02	7.6276	13.435379	0.000237	2.374961	0.402329	-0.000024
1245	1.2378e+02	7.6163	13.406051	0.000295	2.948228	0.499443	-0.000029
1246	1.2388e+02	7.6063	13.384462	0.000217	2.170223	0.367646	-0.000022
1247	1.2398e+02	7.5949	13.355540	0.000291	2.907280	0.492507	-0.000029
1248	1.2408e+02	7.5879	13.329878	0.000258	2.579699	0.437013	-0.000026
1249	1.2418e+02	7.5787	13.308696	0.000213	2.129276	0.360709	-0.000021
1250	1.2428e+02	7.5660	13.282219	0.000266	2.661595	0.450886	-0.000027
1251	1.2438e+02	7.5608	13.253297	0.000291	2.907280	0.492507	-0.000029
1252	1.2447e+02	7.5504	13.231708	0.000217	2.170223	0.367646	-0.000022
1253	1.2457e+02	7.5402	13.206046	0.000258	2.579699	0.437013	-0.000026
1254	1.2467e+02	7.5296	13.177532	0.000287	2.866333	0.485570	-0.000029
1255	1.2477e+02	7.5198	13.153906	0.000237	2.374961	0.402329	-0.000024
1256	1.2487e+02	7.5085	13.129465	0.000246	2.456857	0.416203	-0.000025
1257	1.2497e+02	7.4976	13.104617	0.000250	2.497804	0.423139	-0.000025
1258	1.2507e+02	7.4911	13.078955	0.000258	2.579699	0.437013	-0.000026
1259	1.2517e+02	7.4809	13.052477	0.000266	2.661595	0.450886	-0.000027
1260	1.2527e+02	7.4693	13.024778	0.000278	2.784438	0.471696	-0.000028
1261	1.2537e+02	7.4622	12.999523	0.000254	2.538752	0.430076	-0.000025
1262	1.2547e+02	7.4493	12.975082	0.000246	2.456857	0.416203	-0.000025
1263	1.2557e+02	7.4395	12.945346	0.000299	2.989176	0.506380	-0.000030
1264	1.2567e+02	7.4291	12.921720	0.000237	2.374961	0.402329	-0.000024
1265	1.2577e+02	7.4240	12.893206	0.000287	2.866333	0.485570	-0.000029
1266	1.2587e+02	7.4094	12.870395	0.000229	2.293066	0.388456	-0.000023
1267	1.2597e+02	7.3983	12.837808	0.000328	3.275809	0.554937	-0.000033
1268	1.2607e+02	7.3896	12.812553	0.000254	2.538752	0.430076	-0.000025
1269	1.2617e+02	7.3795	12.787297	0.000254	2.538752	0.430076	-0.000025
1270	1.2627e+02	7.3698	12.757969	0.000295	2.948228	0.499443	-0.000029
1271	1.2636e+02	7.3592	12.735158	0.000229	2.293066	0.388456	-0.000023
1272	1.2646e+02	7.3521	12.704199	0.000311	3.112018	0.527190	-0.000031
1273	1.2656e+02	7.3416	12.679759	0.000246	2.456857	0.416203	-0.000025
1274	1.2666e+02	7.3294	12.651652	0.000283	2.825385	0.478633	-0.000028
1275	1.2676e+02	7.3183	12.626397	0.000254	2.538752	0.430076	-0.000025
1276	1.2686e+02	7.3093	12.597068	0.000295	2.948228	0.499443	-0.000029
1277	1.2696e+02	7.2988	12.566110	0.000311	3.112018	0.527190	-0.000031
1278	1.2706e+02	7.2898	12.544521	0.000217	2.170223	0.367646	-0.000022
1279	1.2716e+02	7.2782	12.518859	0.000258	2.579699	0.437013	-0.000026
1280	1.2726e+02	7.2690	12.492789	0.000262	2.620647	0.443950	-0.000026
1281	1.2736e+02	7.2601	12.464682	0.000283	2.825385	0.478633	-0.000028
1282	1.2746e+02	7.2521	12.441056	0.000237	2.374961	0.402329	-0.000024
1283	1.2756e+02	7.2412	12.414986	0.000262	2.620647	0.443950	-0.000026
1284	1.2766e+02	7.2333	12.388102	0.000270	2.702542	0.457823	-0.000027
1285	1.2776e+02	7.2201	12.363661	0.000246	2.456857	0.416203	-0.000025
1286	1.2786e+02	7.2132	12.339628	0.000242	2.415909	0.409266	-0.000024
1287	1.2796e+02	7.2000	12.313558	0.000262	2.620647	0.443950	-0.000026
1288	1.2806e+02	7.1899	12.289525	0.000242	2.415909	0.409266	-0.000024
1289	1.2816e+02	7.1789	12.265492	0.000242	2.415909	0.409266	-0.000024
1290	1.2826e+02	7.1691	12.240644	0.000250	2.497804	0.423139	-0.000025
1291	1.2835e+02	7.1607	12.214574	0.000262	2.620647	0.443950	-0.000026
1292	1.2845e+02	7.1516	12.192170	0.000225	2.252119	0.381519	-0.000023
1293	1.2855e+02	7.1400	12.166915	0.000254	2.538752	0.430076	-0.000025
1294	1.2865e+02	7.1314	12.143696	0.000233	2.334014	0.395393	-0.000023
1295	1.2875e+02	7.1180	12.122922	0.000209	2.088328	0.353772	-0.000021
1296	1.2885e+02	7.1124	12.096852	0.000262	2.620647	0.443950	-0.000026
1297	1.2895e+02	7.1014	12.071597	0.000254	2.538752	0.430076	-0.000025
1298	1.2905e+02	7.0924	12.049193	0.000225	2.252119	0.381519	-0.000023
1299	1.2915e+02	7.0802	12.028418	0.000209	2.088328	0.353772	-0.000021
1300	1.2925e+02	7.0690	12.000312	0.000283	2.825385	0.478633	-0.000028
1301	1.2935e+02	7.0603	11.975871	0.000246	2.456857	0.416203	-0.000025
1302	1.2945e+02	7.0501	11.954282	0.000217	2.170223	0.367646	-0.000022
1303	1.2955e+02	7.0412	11.931878	0.000225	2.252119	0.381519	-0.000023
1304	1.2965e+02	7.0293	11.907030	0.000250	2.497804	0.423139	-0.000025
1305	1.2975e+02	7.0232	11.886256	0.000209	2.088328	0.353772	-0.000021
1306	1.2985e+02	7.0097	11.862630	0.000237	2.374961	0.402329	-0.000024
1307	1.2995e+02	7.0020	11.840633	0.000221	2.211171	0.374583	-0.000022
1308	1.3005e+02	6.9930	11.814156	0.000266	2.661595	0.450886	-0.000027
1309	1.3015e+02	6.9805	11.788493	0.000258	2.579699	0.437013	-0.000026
1310	1.3025e+02	6.9703	11.766090	0.000225	2.252119	0.381519	-0.000023
1311	1.3034e+02	6.9604	11.741649	0.000246	2.456857	0.416203	-0.000025
1312	1.3044e+02	6.9509	11.720875	0.000209	2.088328	0.353772	-0.000021
1313	1.3054e+02	6.9421	11.697656	0.000233	2.334014	0.395393	-0.000023
1314	1.3064e+02	6.9312	11.669549	0.000283	2.825385	0.478633	-0.000028
1315	1.3074e+02	6.9228	11.646331	0.000233	2.334014	0.395393	-0.000023
1316	1.3084e+02	6.9100	11.623520	0.000229	2.293066	0.388456	-0.000023
1317	1.3094e+02	6.8984	11.594598	0.000291	2.907280	0.492507	-0.000029
1318	1.3104e+02	6.8935	11.567714	0.000270	2.702542	0.457823	-0.000027
1319	1.3114e+02	6.8799	11.544903	0.000229	2.293066	0.388456	-0.000023
1320	1.3124e+02	6.8704	11.523313	0.000217	2.170223	0.367646	-0.000022
1321	1.3134e+02	6.8587	11.492355	0.000311	3.112018	0.527190	-0.000031
1322	1.3144e+02	6.8524	11.465063	0.000274	2.743490	0.464760	-0.000027
1323	1.3154e+02	6.8438	11.443474	0.000217	2.170223	0.367646	-0.000022
1324	1.3164e+02	6.8306	11.419441	0.000242	2.415909	0.409266	-0.000024
1325	1.3174e+02	6.8238	11.390927	0.000287	2.866333	0.485570	-0.000029
1326	1.3184e+02	6.8127	11.364857	0.000262	2.620647	0.443950	-0.000026
1327	1.3194e+02	6.8018	11.338380	0.000266	2.661595	0.450886	-0.000027
1328	1.3204e+02	6.7910	11.311903	0.000266	2.661595	0.450886	-0.000027
1329	1.3214e+02	6.7826	11.284203	0.000278	2.784438	0.471696	-0.000028
1330	1.3224e+02	6.7712	11.261392	0.000229	2.293066	0.388456	-0.000023
1331	1.3234e+02	6.7616	11.235322	0.000262	2.620647	0.443950	-0.000026
1332	1.3243e+02	6.7527	11.208438	0.000270	2.702542	0.457823	-0.000027
1333	1.3253e+02	6.7413	11.185219	0.000233	2.334014	0.395393	-0.000023
1334	1.3263e+02	6.7316	11.153854	0.000315	3.152966	0.534127	-0.000032
1335	1.3273e+02	6.7208	11.131450	0.000225	2.252119	0.381519	-0.000023
1336	1.3283e+02	6.7143	11.102936	0.000287	2.866333	0.485570	-0.000029
1337	1.3293e+02	6.7019	11.078903	0.000242	2.415909	0.409266	-0.000024
1338	1.3303e+02	6.6936	11.051203	0.000278	2.784438	0.471696	-0.000028
1339	1.3313e+02	6.6811	11.024726	0.000266	2.661595	0.450886	-0.000027
1340	1.3323e+02	6.6716	10.992953	0.000319	3.193914	0.541064	-0.000032
1341	1.3333e+02	6.6604	10.973808	0.000192	1.924538	0.326026	-0.000019
1342	1.3343e+02	6.6509	10.945294	0.000287	2.866333	0.485570	-0.000029
1343	1.3353e+02	6.6441	10.922076	0.000233	2.334014	0.395393	-0.000023
1344	1.3363e+02	6.6323	10.893155	0.000291	2.907280	0.492507	-0.000029
1345	1.3373e+02	6.6228	10.867899	0.000254	2.538752	0.430076	-0.000025
1346	1.3383e+02	6.6126	10.843459	0.000246	2.456857	0.416203	-0.000025
1347	1.3393e+02	6.6064	10.817796	0.000258	2.579699	0.437013	-0.000026
1348	1.3403e+02	6.5926	10.794170	0.000237	2.374961	0.402329	-0.000024
1349	1.3413e+02	6.5850	10.765656	0.000287	2.866333	0.485570	-0.000029
1350	1.3423e+02	6.5732	10.741623	0.000242	2.415909	0.409266	-0.000024
1351	1.3432e+02	6.5630	10.713924	0.000278	2.784438	0.471696	-0.000028
1352	1.3442e+02	6.5527	10.690705	0.000233	2.334014	0.395393	-0.000023
1353	1.3452e+02	6.5455	10.664635	0.000262	2.620647	0.443950	-0.000026
1354	1.3462e+02	6.5332	10.638565	0.000262	2.620647	0.443950	-0.000026
1355	1.3472e+02	6.5240	10.614125	0.000246	2.456857	0.416203	-0.000025
1356	1.3482e+02	6.5109	10.589684	0.000246	2.456857	0.416203	-0.000025
1357	1.3492e+02	6.5041	10.563614	0.000262	2.620647	0.443950	-0.000026
1358	1.3502e+02	6.4938	10.539581	0.000242	2.415909	0.409266	-0.000024
1359	1.3512e+02	6.4822	10.512697	0.000270	2.702542	0.457823	-0.000027
1360	1.3522e+02	6.4727	10.484183	0.000287	2.866333	0.485570	-0.000029
1361	1.3532e+02	6.4645	10.458520	0.000258	2.579699	0.437013	-0.000026
1362	1.3542e+02	6.4513	10.430821	0.000278	2.784438	0.471696	-0.000028
1363	1.3552e+02	6.4431	10.404343	0.000266	2.661595	0.450886	-0.000027
1364	1.3562e+02	6.4331	10.377866	0.000266	2.661595	0.450886	-0.000027
1365	1.3572e+02	6.4263	10.349760	0.000283	2.825385	0.478633	-0.000028
1366	1.3582e+02	6.4115	10.326134	0.000237	2.374961	0.402329	-0.000024
1367	1.3592e+02	6.4050	10.295990	0.000303	3.030123	0.513317	-0.000030
1368	1.3602e+02	6.3952	10.268698	0.000274	2.743490	0.464760	-0.000027
1369	1.3612e+02	6.3830	10.243850	0.000250	2.497804	0.423139	-0.000025
1370	1.3622e+02	6.3738	10.212892	0.000311	3.112018	0.527190	-0.000031
1371	1.3631e+02	6.3667	10.186823	0.000262	2.620647	0.443950	-0.000026
1372	1.3641e+02	6.3519	10.154642	0.000323	3.234861	0.548000	-0.000032
1373	1.3651e+02	6.3442	10.128573	0.000262	2.620647	0.443950	-0.000026
1374	1.3661e+02	6.3340	10.100059	0.000287	2.866333	0.485570	-0.000029
1375	1.3671e+02	6.3236	10.070730	0.000295	2.948228	0.499443	-0.000029
1376	1.3681e+02	6.3130	10.045067	0.000258	2.579699	0.437013	-0.000026
1377	1.3691e+02	6.3021	10.008406	0.000369	3.685285	0.624304	-0.000037
1378	1.3701e+02	6.2926	9.981115	0.000274	2.743490	0.464760	-0.000027
1379	1.3711e+02	6.2850	9.952193	0.000291	2.907280	0.492507	-0.000029
1380	1.3721e+02	6.2763	9.920828	0.000315	3.152966	0.534127	-0.000032
1381	1.3731e+02	6.2664	9.893536	0.000274	2.743490	0.464760	-0.000027
1382	1.3741e+02	6.2557	9.856875	0.000369	3.685285	0.624304	-0.000037
1383	1.3751e+02	6.2457	9.832435	0.000246	2.456857	0.416203	-0.000025
1384	1.3761e+02	6.2339	9.800662	0.000319	3.193914	0.541064	-0.000032
1385	1.3771e+02	6.2258	9.774999	0.000258	2.579699	0.437013	-0.000026
1386	1.3781e+02	6.2159	9.744449	0.000307	3.071071	0.520253	-0.000031
1387	1.3791e+02	6.2063	9.712676	0.000319	3.193914	0.541064	-0.000032
1388	1.3801e+02	6.1948	9.682532	0.000303	3.030123	0.513317	-0.000030
1389	1.3811e+02	6.1868	9.650760	0.000319	3.193914	0.541064	-0.000032
1390	1.3821e+02	6.1773	9.619802	0.000311	3.112018	0.527190	-0.000031
1391	1.3831e+02	6.1653	9.588436	0.000315	3.152966	0.534127	-0.000032
1392	1.3840e+02	6.1549	9.557886	0.000307	3.071071	0.520253	-0.000031
1393	1.3850e+02	6.1463	9.529779	0.000283	2.825385	0.478633	-0.000028
1394	1.3860e+02	6.1346	9.498006	0.000319	3.193914	0.541064	-0.000032
1395	1.3870e+02	6.1262	9.467048	0.000311	3.112018	0.527190	-0.000031
1396	1.3880e+02	6.1150	9.438942	0.000283	2.825385	0.478633	-0.000028
1397	1.3890e+02	6.1068	9.409613	0.000295	2.948228	0.499443	-0.000029
1398	1.3900e+02	6.0931	9.377840	0.000319	3.193914	0.541064	-0.000032
1399	1.3910e+02	6.0874	9.350548	0.000274	2.743490	0.464760	-0.000027
1400	1.3920e+02	6.0764	9.319590	0.000311	3.112018	0.527190	-0.000031
1401	1.3930e+02	6.0674	9.288225	0.000315	3.152966	0.534127	-0.000032
1402	1.3940e+02	6.0567	9.262155	0.000262	2.620647	0.443950	-0.000026
1403	1.3950e+02	6.0491	9.229568	0.000328	3.275809	0.554937	-0.000033
1404	1.3960e+02	6.0339	9.201461	0.000283	2.825385	0.478633	-0.000028
1405	1.3970e+02	6.0281	9.172540	0.000291	2.907280	0.492507	-0.000029
1406	1.3980e+02	6.0162	9.144840	0.000278	2.784438	0.471696	-0.000028
1407	1.3990e+02	6.0061	9.112660	0.000323	3.234861	0.548000	-0.000032
1408	1.4000e+02	5.9972	9.087405	0.000254	2.538752	0.430076	-0.000025
1409	1.4010e+02	5.9888	9.060113	0.000274	2.743490	0.464760	-0.000027
1410	1.4020e+02	5.9737	9.029155	0.000311	3.112018	0.527190	-0.000031
1411	1.4029e+02	5.9686	8.996975	0.000323	3.234861	0.548000	-0.000032
1412	1.4039e+02	5.9570	8.969683	0.000274	2.743490	0.464760	-0.000027
1413	1.4049e+02	5.9473	8.941169	0.000287	2.866333	0.485570	-0.000029
1414	1.4059e+02	5.9344	8.910211	0.000311	3.112018	0.527190	-0.000031
1415	1.4069e+02	5.9264	8.884548	0.000258	2.579699	0.437013	-0.000026
1416	1.4079e+02	5.9176	8.853998	0.000307	3.071071	0.520253	-0.000031
1417	1.4089e+02	5.9072	8.826706	0.000274	2.743490	0.464760	-0.000027
1418	1.4099e+02	5.8962	8.794118	0.000328	3.275809	0.554937	-0.000033
1419	1.4109e+02	5.8863	8.768048	0.000262	2.620647	0.443950	-0.000026
1420	1.4119e+02	5.8814	8.734239	0.000340	3.398652	0.575747	-0.000034
1421	1.4129e+02	5.8678	8.709798	0.000246	2.456857	0.416203	-0.000025
1422	1.4139e+02	5.8575	8.678433	0.000315	3.152966	0.534127	-0.000032
1423	1.4149e+02	5.8456	8.650734	0.000278	2.784438	0.471696	-0.000028
1424	1.4159e+02	5.8370	8.623442	0.000274	2.743490	0.464760	-0.000027
1425	1.4169e+02	5.8276	8.592076	0.000315	3.152966	0.534127	-0.000032
1426	1.4179e+02	5.8192	8.560711	0.000315	3.152966	0.534127	-0.000032
1427	1.4189e+02	5.8083	8.532604	0.000283	2.825385	0.478633	-0.000028
1428	1.4199e+02	5.7941	8.504090	0.000287	2.866333	0.485570	-0.000029
1429	1.4209e+02	5.7891	8.469059	0.000352	3.521495	0.596557	-0.000035
1430	1.4219e+02	5.7793	8.442989	0.000262	2.620647	0.443950	-0.000026
1431	1.4228e+02	5.7687	8.409180	0.000340	3.398652	0.575747	-0.000034
1432	1.4238e+02	5.7566	8.379036	0.000303	3.030123	0.513317	-0.000030
1433	1.4248e+02	5.7467	8.350522	0.000287	2.866333	0.485570	-0.000029
1434	1.4258e+02	5.7362	8.318342	0.000323	3.234861	0.548000	-0.000032
1435	1.4268e+02	5.7299	8.290236	0.000283	2.825385	0.478633	-0.000028
1436	1.4278e+02	5.7177	8.258463	0.000319	3.193914	0.541064	-0.000032
1437	1.4288e+02	5.7101	8.230764	0.000278	2.784438	0.471696	-0.000028
1438	1.4298e+02	5.6977	8.198176	0.000328	3.275809	0.554937	-0.000033
1439	1.4308e+02	5.6873	8.167625	0.000307	3.071071	0.520253	-0.000031
1440	1.4318e+02	5.6773	8.137482	0.000303	3.030123	0.513317	-0.000030
1441	1.4328e+02	5.6680	8.105302	0.000323	3.234861	0.548000	-0.000032
1442	1.4338e+02	5.6602	8.074344	0.000311	3.112018	0.527190	-0.000031
1443	1.4348e+02	5.6496	8.047052	0.000274	2.743490	0.464760	-0.000027
1444	1.4358e+02	5.6365	8.013243	0.000340	3.398652	0.575747	-0.000034
1445	1.4368e+02	5.6303	7.985951	0.000274	2.743490	0.464760	-0.000027
1446	1.4378e+02	5.6203	7.955400	0.000307	3.071071	0.520253	-0.000031
1447	1.4388e+02	5.6072	7.927293	0.000283	2.825385	0.478633	-0.000028
1448	1.4398e+02	5.5978	7.896743	0.000307	3.071071	0.520253	-0.000031
1449	1.4408e+02	5.5889	7.864970	0.000319	3.193914	0.541064	-0.000032
1450	1.4418e+02	5.5782	7.833605	0.000315	3.152966	0.534127	-0.000032
1451	1.4428e+02	5.5691	7.807942	0.000258	2.579699	0.437013	-0.000026
1452	1.4437e+02	5.5572	7.778613	0.000295	2.948228	0.499443	-0.000029
1453	1.4447e+02	5.5479	7.748877	0.000299	2.989176	0.506380	-0.000030
1454	1.4457e+02	5.5383	7.719956	0.000291	2.907280	0.492507	-0.000029
1455	1.4467e+02	5.5293	7.691442	0.000287	2.866333	0.485570	-0.000029
1456	1.4477e+02	5.5180	7.665779	0.000258	2.579699	0.437013	-0.000026
1457	1.4487e+02	5.5082	7.631563	0.000344	3.439599	0.582684	-0.000034
1458	1.4497e+02	5.5001	7.607122	0.000246	2.456857	0.416203	-0.000025
1459	1.4507e+02	5.4876	7.577386	0.000299	2.989176	0.506380	-0.000030
1460	1.4517e+02	5.4794	7.551316	0.000262	2.620647	0.443950	-0.000026
1461	1.4527e+02	5.4685	7.523210	0.000283	2.825385	0.478633	-0.000028
1462	1.4537e+02	5.4604	7.493066	0.000303	3.030123	0.513317	-0.000030
1463	1.4547e+02	5.4531	7.471070	0.000221	2.211171	0.374583	-0.000022
1464	1.4557e+02	5.4375	7.443778	0.000274	2.743490	0.464760	-0.000027
1465	1.4567e+02	5.4279	7.418115	0.000258	2.579699	0.437013	-0.000026
1466	1.4577e+02	5.4211	7.390009	0.000283	2.825385	0.478633	-0.000028
1467	1.4587e+02	5.4104	7.362717	0.000274	2.743490	0.464760	-0.000027
1468	1.4597e+02	5.4010	7.332166	0.000307	3.071071	0.520253	-0.000031
1469	1.4607e+02	5.3871	7.308947	0.000233	2.334014	0.395393	-0.000023
1470	1.4617e+02	5.3786	7.280026	0.000291	2.907280	0.492507	-0.000029
1471	1.4626e+02	5.3699	7.253141	0.000270	2.702542	0.457823	-0.000027
1472	1.4636e+02	5.3591	7.222591	0.000307	3.071071	0.520253	-0.000031
1473	1.4646e+02	5.3497	7.201409	0.000213	2.129276	0.360709	-0.000021
1474	1.4656e+02	5.3421	7.173302	0.000283	2.825385	0.478633	-0.000028
1475	1.4666e+02	5.3292	7.145603	0.000278	2.784438	0.471696	-0.000028
1476	1.4676e+02	5.3182	7.115460	0.000303	3.030123	0.513317	-0.000030
1477	1.4686e+02	5.3101	7.089797	0.000258	2.579699	0.437013	-0.000026
1478	1.4696e+02	5.3006	7.062098	0.000278	2.784438	0.471696	-0.000028
1479	1.4706e+02	5.2886	7.032362	0.000299	2.989176	0.506380	-0.000030
1480	1.4716e+02	5.2807	7.004663	0.000278	2.784438	0.471696	-0.000028
1481	1.4726e+02	5.2685	6.975741	0.000291	2.907280	0.492507	-0.000029
1482	1.4736e+02	5.2602	6.949264	0.000266	2.661595	0.450886	-0.000027
1483	1.4746e+02	5.2497	6.919121	0.000303	3.030123	0.513317	-0.000030
1484	1.4756e+02	5.2424	6.892236	0.000270	2.702542	0.457823	-0.000027
1485	1.4766e+02	5.2319	6.861278	0.000311	3.112018	0.527190	-0.000031
1486	1.4776e+02	5.2184	6.836430	0.000250	2.497804	0.423139	-0.000025
1487	1.4786e+02	5.2123	6.804657	0.000319	3.193914	0.541064	-0.000032
1488	1.4796e+02	5.1989	6.776958	0.000278	2.784438	0.471696	-0.000028
1489	1.4806e+02	5.1891	6.751295	0.000258	2.579699	0.437013	-0.000026
1490	1.4816e+02	5.1787	6.714227	0.000373	3.726233	0.631241	-0.000037
1491	1.4825e+02	5.1707	6.684491	0.000299	2.989176	0.506380	-0.000030
1492	1.4835e+02	5.1598	6.655570	0.000291	2.907280	0.492507	-0.000029
1493	1.4845e+02	5.1495	6.627463	0.000283	2.825385	0.478633	-0.000028
1494	1.4855e+02	5.1391	6.599357	0.000283	2.825385	0.478633	-0.000028
1495	1.4865e+02	5.1305	6.567991	0.000315	3.152966	0.534127	-0.000032
1496	1.4875e+02	5.1205	6.539477	0.000287	2.866333	0.485570	-0.000029
1497	1.4885e+02	5.1066	6.510556	0.000291	2.907280	0.492507	-0.000029
1498	1.4895e+02	5.0991	6.481635	0.000291	2.907280	0.492507	-0.000029
1499	1.4905e+02	5.0909	6.453528	0.000283	2.825385	0.478633	-0.000028
1500	1.4915e+02	5.0821	6.419311	0.000344	3.439599	0.582684	-0.000034
1501	1.4925e+02	5.0685	6.392427	0.000270	2.702542	0.457823	-0.000027
1502	1.4935e+02	5.0611	6.361061	0.000315	3.152966	0.534127	-0.000032
1503	1.4945e+02	5.0533	6.331733	0.000295	2.948228	0.499443	-0.000029
1504	1.4955e+02	5.0408	6.305255	0.000266	2.661595	0.450886	-0.000027
1505	1.4965e+02	5.0326	6.272261	0.000332	3.316756	0.561874	-0.000033
1506	1.4975e+02	5.0195	6.244561	0.000278	2.784438	0.471696	-0.000028
1507	1.4985e+02	5.0127	6.212789	0.000319	3.193914	0.541064	-0.000032
1508	1.4995e+02	5.0005	6.180201	0.000328	3.275809	0.554937	-0.000033
1509	1.5005e+02	4.9903	6.155353	0.000250	2.497804	0.423139	-0.000025
1510	1.5015e+02	4.9830	6.122766	0.000328	3.275809	0.554937	-0.000033
1511	1.5025e+02	4.9722	6.096696	0.000262	2.620647	0.443950	-0.000026
1512	1.5034e+02	4.9630	6.068182	0.000287	2.866333	0.485570	-0.000029
1513	1.5044e+02	4.9522	6.038446	0.000299	2.989176	0.506380	-0.000030
1514	1.5054e+02	4.9407	6.007488	0.000311	3.112018	0.527190	-0.000031
1515	1.5064e+02	4.9322	5.976937	0.000307	3.071071	0.520253	-0.000031
1516	1.5074e+02	4.9210	5.945165	0.000319	3.193914	0.541064	-0.000032
1517	1.5084e+02	4.9114	5.917465	0.000278	2.784438	0.471696	-0.000028
1518	1.5094e+02	4.9029	5.890173	0.000274	2.743490	0.464760	-0.000027
1519	1.5104e+02	4.8925	5.862881	0.000274	2.743490	0.464760	-0.000027
1520	1.5114e+02	4.8821	5.833145	0.000299	2.989176	0.506380	-0.000030
1521	1.5124e+02	4.8695	5.802187	0.000311	3.112018	0.527190	-0.000031
1522	1.5134e+02	4.8611	5.772451	0.000299	2.989176	0.506380	-0.000030
1523	1.5144e+02	4.8497	5.745159	0.000274	2.743490	0.464760	-0.000027
1524	1.5154e+02	4.8412	5.713794	0.000315	3.152966	0.534127	-0.000032
1525	1.5164e+02	4.8315	5.684058	0.000299	2.989176	0.506380	-0.000030
1526	1.5174e+02	4.8214	5.656766	0.000274	2.743490	0.464760	-0.000027
1527	1.5184e+02	4.8110	5.629067	0.000278	2.784438	0.471696	-0.000028
1528	1.5194e+02	4.8045	5.598109	0.000311	3.112018	0.527190	-0.000031
1529	1.5204e+02	4.7926	5.566336	0.000319	3.193914	0.541064	-0.000032
1530	1.5214e+02	4.7832	5.535378	0.000311	3.112018	0.527190	-0.000031
1531	1.5224e+02	4.7729	5.508901	0.000266	2.661595	0.450886	-0.000027
1532	1.5233e+02	4.7634	5.475091	0.000340	3.398652	0.575747	-0.000034
1533	1.5243e+02	4.7534	5.443726	0.000315	3.152966	0.534127	-0.000032
1534	1.5253e+02	4.7425	5.412768	0.000311	3.112018	0.527190	-0.000031
1535	1.5263e+02	4.7333	5.378958	0.000340	3.398652	0.575747	-0.000034
1536	1.5273e+02	4.7225	5.350444	0.000287	2.866333	0.485570	-0.000029
1537	1.5283e+02	4.7131	5.320301	0.000303	3.030123	0.513317	-0.000030
1538	1.5293e+02	4.7027	5.285270	0.000352	3.521495	0.596557	-0.000035
1539	1.5303e+02	4.6932	5.253090	0.000323	3.234861	0.548000	-0.000032
1540	1.5313e+02	4.6802	5.222539	0.000307	3.071071	0.520253	-0.000031
1541	1.5323e+02	4.6739	5.193210	0.000295	2.948228	0.499443	-0.000029
1542	1.5333e+02	4.6615	5.159401	0.000340	3.398652	0.575747	-0.000034
1543	1.5343e+02	4.6547	5.127221	0.000323	3.234861	0.548000	-0.000032
1544	1.5353e+02	4.6437	5.095041	0.000323	3.234861	0.548000	-0.000032
1545	1.5363e+02	4.6322	5.059602	0.000356	3.562442	0.603494	-0.000036
1546	1.5373e+02	4.6218	5.025792	0.000340	3.398652	0.575747	-0.000034
1547	1.5383e+02	4.6136	4.994020	0.000319	3.193914	0.541064	-0.000032
1548	1.5393e+02	4.6065	4.956544	0.000377	3.767180	0.638178	-0.000038
1549	1.5403e+02	4.5956	4.921920	0.000348	3.480547	0.589621	-0.000035
1550	1.5413e+02	4.5823	4.887296	0.000348	3.480547	0.589621	-0.000035
1551	1.5422e+02	4.5730	4.854709	0.000328	3.275809	0.554937	-0.000033
1552	1.5432e+02	4.5610	4.820492	0.000344	3.439599	0.582684	-0.000034
1553	1.5442e+02	4.5544	4.791978	0.000287	2.866333	0.485570	-0.000029
1554	1.5452e+02	4.5425	4.755317	0.000369	3.685285	0.624304	-0.000037
1555	1.5462e+02	4.5335	4.719878	0.000356	3.562442	0.603494	-0.000036
1556	1.5472e+02	4.5249	4.686069	0.000340	3.398652	0.575747	-0.000034
1557	1.5482e+02	4.5170	4.651852	0.000344	3.439599	0.582684	-0.000034
1558	1.5492e+02	4.5035	4.620487	0.000315	3.152966	0.534127	-0.000032
1559	1.5502e+02	4.4931	4.583418	0.000373	3.726233	0.631241	-0.000037
1560	1.5512e+02	4.4837	4.548794	0.000348	3.480547	0.589621	-0.000035
1561	1.5522e+02	4.4754	4.514985	0.000340	3.398652	0.575747	-0.000034
1562	1.5532e+02	4.4637	4.479546	0.000356	3.562442	0.603494	-0.000036
1563	1.5542e+02	4.4563	4.444922	0.000348	3.480547	0.589621	-0.000035
1564	1.5552e+02	4.4421	4.412742	0.000323	3.234861	0.548000	-0.000032
1565	1.5562e+02	4.4343	4.379340	0.000336	3.357704	0.568810	-0.000034
1566	1.5572e+02	4.4241	4.348789	0.000307	3.071071	0.520253	-0.000031
1567	1.5582e+02	4.4143	4.314165	0.000348	3.480547	0.589621	-0.000035
1568	1.5592e+02	4.4054	4.280763	0.000336	3.357704	0.568810	-0.000034
1569	1.5602e+02	4.3929	4.248990	0.000319	3.193914	0.541064	-0.000032
1570	1.5612e+02	4.3855	4.213959	0.000352	3.521495	0.596557	-0.000035
1571	1.5622e+02	4.3740	4.181371	0.000328	3.275809	0.554937	-0.000033
1572	1.5631e+02	4.3652	4.147562	0.000340	3.398652	0.575747	-0.000034
1573	1.5641e+02	4.3557	4.111308	0.000364	3.644337	0.617367	-0.000036
1574	1.5651e+02	4.3456	4.084424	0.000270	2.702542	0.457823	-0.000027
1575	1.5661e+02	4.3348	4.047356	0.000373	3.726233	0.631241	-0.000037
1576	1.5671e+02	4.3269	4.013954	0.000336	3.357704	0.568810	-0.000034
1577	1.5681e+02	4.3136	3.981366	0.000328	3.275809	0.554937	-0.000033
1578	1.5691e+02	4.3044	3.952037	0.000295	2.948228	0.499443	-0.000029
1579	1.5701e+02	4.2922	3.915784	0.000364	3.644337	0.617367	-0.000036
1580	1.5711e+02	4.2849	3.886455	0.000295	2.948228	0.499443	-0.000029
1581	1.5721e+02	4.2730	3.851831	0.000348	3.480547	0.589621	-0.000035
1582	1.5731e+02	4.2667	3.817207	0.000348	3.480547	0.589621	-0.000035
1583	1.5741e+02	4.2553	3.786249	0.000311	3.112018	0.527190	-0.000031
1584	1.5751e+02	4.2455	3.754069	0.000323	3.234861	0.548000	-0.000032
1585	1.5761e+02	4.2344	3.717815	0.000364	3.644337	0.617367	-0.000036
1586	1.5771e+02	4.2301	3.688487	0.000295	2.948228	0.499443	-0.000029
1587	1.5781e+02	4.2141	3.654270	0.000344	3.439599	0.582684	-0.000034
1588	1.5791e+02	4.2056	3.619646	0.000348	3.480547	0.589621	-0.000035
1589	1.5801e+02	4.1984	3.589095	0.000307	3.071071	0.520253	-0.000031
1590	1.5811e+02	4.1866	3.556100	0.000332	3.316756	0.561874	-0.000033
1591	1.5821e+02	4.1747	3.525550	0.000307	3.071071	0.520253	-0.000031
1592	1.5830e+02	4.1665	3.491740	0.000340	3.398652	0.575747	-0.000034
1593	1.5840e+02	4.1547	3.459968	0.000319	3.193914	0.541064	-0.000032
1594	1.5850e+02	4.1453	3.422492	0.000377	3.767180	0.638178	-0.000038
1595	1.5860e+02	4.1359	3.391127	0.000315	3.152966	0.534127	-0.000032
1596	1.5870e+02	4.1264	3.354466	0.000369	3.685285	0.624304	-0.000037
1597	1.5880e+02	4.1160	3.319842	0.000348	3.480547	0.589621	-0.000035
1598	1.5890e+02	4.1068	3.288476	0.000315	3.152966	0.534127	-0.000032
1599	1.5900e+02	4.0953	3.254667	0.000340	3.398652	0.575747	-0.000034
1600	1.5910e+02	4.0833	3.216377	0.000385	3.849075	0.652051	-0.000038
1601	1.5920e+02	4.0772	3.185011	0.000315	3.152966	0.534127	-0.000032
1602	1.5930e+02	4.0661	3.149980	0.000352	3.521495	0.596557	-0.000035
1603	1.5940e+02	4.0561	3.116578	0.000336	3.357704	0.568810	-0.000034
1604	1.5950e+02	4.0469	3.084398	0.000323	3.234861	0.548000	-0.000032
1605	1.5960e+02	4.0355	3.046515	0.000381	3.808128	0.645114	-0.000038
1606	1.5970e+02	4.0260	3.014742	0.000319	3.193914	0.541064	-0.000032
1607	1.5980e+02	4.0151	2.978896	0.000360	3.603390	0.610431	-0.000036
1608	1.5990e+02	4.0061	2.943050	0.000360	3.603390	0.610431	-0.000036
1609	1.6000e+02	3.9965	2.910055	0.000332	3.316756	0.561874	-0.000033
1610	1.6010e+02	3.9864	2.874209	0.000360	3.603390	0.610431	-0.000036
1611	1.6019e+02	3.9758	2.839178	0.000352	3.521495	0.596557	-0.000035
1612	1.6029e+02	3.9669	2.806998	0.000323	3.234861	0.548000	-0.000032
1613	1.6039e+02	3.9567	2.774003	0.000332	3.316756	0.561874	-0.000033
1614	1.6049e+02	3.9468	2.739786	0.000344	3.439599	0.582684	-0.000034
1615	1.6059e+02	3.9362	2.703533	0.000364	3.644337	0.617367	-0.000036
1616	1.6069e+02	3.9259	2.672574	0.000311	3.112018	0.527190	-0.000031
1617	1.6079e+02	3.9165	2.640394	0.000323	3.234861	0.548000	-0.000032
1618	1.6089e+02	3.9060	2.603326	0.000373	3.726233	0.631241	-0.000037
1619	1.6099e+02	3.8969	2.570331	0.000332	3.316756	0.561874	-0.000033
1620	1.6109e+02	3.8867	2.539373	0.000311	3.112018	0.527190	-0.000031
1621	1.6119e+02	3.8779	2.505564	0.000340	3.398652	0.575747	-0.000034
1622	1.6129e+02	3.8652	2.475421	0.000303	3.030123	0.513317	-0.000030
1623	1.6139e+02	3.8567	2.440797	0.000348	3.480547	0.589621	-0.000035
1624	1.6149e+02	3.8451	2.407394	0.000336	3.357704	0.568810	-0.000034
1625	1.6159e+02	3.8384	2.376844	0.000307	3.071071	0.520253	-0.000031
1626	1.6169e+02	3.8255	2.342627	0.000344	3.439599	0.582684	-0.000034
1627	1.6179e+02	3.8174	2.312484	0.000303	3.030123	0.513317	-0.000030
1628	1.6189e+02	3.8076	2.278267	0.000344	3.439599	0.582684	-0.000034
1629	1.6199e+02	3.7975	2.250160	0.000283	2.825385	0.478633	-0.000028
1630	1.6209e+02	3.7855	2.219610	0.000307	3.071071	0.520253	-0.000031
1631	1.6219e+02	3.7788	2.190688	0.000291	2.907280	0.492507	-0.000029
1632	1.6228e+02	3.7670	2.160138	0.000307	3.071071	0.520253	-0.000031
1633	1.6238e+02	3.7568	2.126735	0.000336	3.357704	0.568810	-0.000034
1634	1.6248e+02	3.7493	2.100666	0.000262	2.620647	0.443950	-0.000026
1635	1.6258e+02	3.7357	2.064819	0.000360	3.603390	0.610431	-0.000036
1636	1.6268e+02	3.7289	2.034676	0.000303	3.030123	0.513317	-0.000030
1637	1.6278e+02	3.7173	2.001274	0.000336	3.357704	0.568810	-0.000034
1638	1.6288e+02	3.7109	1.971131	0.000303	3.030123	0.513317	-0.000030
1639	1.6298e+02	3.6973	1.942209	0.000291	2.907280	0.492507	-0.000029
1640	1.6308e+02	3.6904	1.913288	0.000291	2.907280	0.492507	-0.000029
1641	1.6318e+02	3.6787	1.879479	0.000340	3.398652	0.575747	-0.000034
1642	1.6328e+02	3.6686	1.845262	0.000344	3.439599	0.582684	-0.000034
1643	1.6338e+02	3.6590	1.817562	0.000278	2.784438	0.471696	-0.000028
1644	1.6348e+02	3.6465	1.788234	0.000295	2.948228	0.499443	-0.000029
1645	1.6358e+02	3.6360	1.751573	0.000369	3.685285	0.624304	-0.000037
1646	1.6368e+02	3.6263	1.720208	0.000315	3.152966	0.534127	-0.000032
1647	1.6378e+02	3.6166	1.688435	0.000319	3.193914	0.541064	-0.000032
1648	1.6388e+02	3.6084	1.657069	0.000315	3.152966	0.534127	-0.000032
1649	1.6398e+02	3.5987	1.621631	0.000356	3.562442	0.603494	-0.000036
1650	1.6408e+02	3.5889	1.592302	0.000295	2.948228	0.499443	-0.000029
1651	1.6418e+02	3.5781	1.559715	0.000328	3.275809	0.554937	-0.000033
1652	1.6427e+02	3.5691	1.529164	0.000307	3.071071	0.520253	-0.000031
1653	1.6437e+02	3.5586	1.497799	0.000315	3.152966	0.534127	-0.000032
1654	1.6447e+02	3.5503	1.463174	0.000348	3.480547	0.589621	-0.000035
1655	1.6457e+02	3.5394	1.426514	0.000369	3.685285	0.624304	-0.000037
1656	1.6467e+02	3.5285	1.393926	0.000328	3.275809	0.554937	-0.000033
1657	1.6477e+02	3.5192	1.361339	0.000328	3.275809	0.554937	-0.000033
1658	1.6487e+02	3.5078	1.328751	0.000328	3.275809	0.554937	-0.000033
1659	1.6497e+02	3.4995	1.292498	0.000364	3.644337	0.617367	-0.000036
1660	1.6507e+02	3.4884	1.262355	0.000303	3.030123	0.513317	-0.000030
1661	1.6517e+02	3.4780	1.227730	0.000348	3.480547	0.589621	-0.000035
1662	1.6527e+02	3.4669	1.192699	0.000352	3.521495	0.596557	-0.000035
1663	1.6537e+02	3.4615	1.158482	0.000344	3.439599	0.582684	-0.000034
1664	1.6547e+02	3.4487	1.129154	0.000295	2.948228	0.499443	-0.000029
1665	1.6557e+02	3.4367	1.094122	0.000352	3.521495	0.596557	-0.000035
1666	1.6567e+02	3.4265	1.063979	0.000303	3.030123	0.513317	-0.000030
1667	1.6577e+02	3.4183	1.028540	0.000356	3.562442	0.603494	-0.000036
1668	1.6587e+02	3.4084	0.991064	0.000377	3.767180	0.638178	-0.000038
1669	1.6597e+02	3.4012	0.960514	0.000307	3.071071	0.520253	-0.000031
1670	1.6607e+02	3.3887	0.922631	0.000381	3.808128	0.645114	-0.000038
1671	1.6616e+02	3.3798	0.887599	0.000352	3.521495	0.596557	-0.000035
1672	1.6626e+02	3.3706	0.852568	0.000352	3.521495	0.596557	-0.000035
1673	1.6636e+02	3.3614	0.821203	0.000315	3.152966	0.534127	-0.000032
1674	1.6646e+02	3.3505	0.789430	0.000319	3.193914	0.541064	-0.000032
1675	1.6656e+02	3.3403	0.753176	0.000364	3.644337	0.617367	-0.000036
1676	1.6666e+02	3.3289	0.717330	0.000360	3.603390	0.610431	-0.000036
1677	1.6676e+02	3.3193	0.686372	0.000311	3.112018	0.527190	-0.000031
1678	1.6686e+02	3.3077	0.650526	0.000360	3.603390	0.610431	-0.000036
1679	1.6696e+02	3.3003	0.618753	0.000319	3.193914	0.541064	-0.000032
1680	1.6706e+02	3.2905	0.583315	0.000356	3.562442	0.603494	-0.000036
1681	1.6716e+02	3.2825	0.551542	0.000319	3.193914	0.541064	-0.000032
1682	1.6726e+02	3.2713	0.518140	0.000336	3.357704	0.568810	-0.000034
1683	1.6736e+02	3.2610	0.486367	0.000319	3.193914	0.541064	-0.000032
1684	1.6746e+02	3.2493	0.451743	0.000348	3.480547	0.589621	-0.000035
1685	1.6756e+02	3.2405	0.414675	0.000373	3.726233	0.631241	-0.000037
1686	1.6766e+02	3.2302	0.384531	0.000303	3.030123	0.513317	-0.000030
1687	1.6776e+02	3.2189	0.347056	0.000377	3.767180	0.638178	-0.000038
1688	1.6786e+02	3.2095	0.317320	0.000299	2.989176	0.506380	-0.000030
1689	1.6796e+02	3.2005	0.285140	0.000323	3.234861	0.548000	-0.000032
1690	1.6806e+02	3.1906	0.246035	0.000393	3.930971	0.665924	-0.000039
1691	1.6816e+02	3.1814	0.215484	0.000307	3.071071	0.520253	-0.000031
1692	1.6825e+02	3.1702	0.182897	0.000328	3.275809	0.554937	-0.000033
1693	1.6835e+02	3.1612	0.152346	0.000307	3.071071	0.520253	-0.000031
1694	1.6845e+02	3.1526	0.116093	0.000364	3.644337	0.617367	-0.000036
1695	1.6855e+02	3.1406	0.082283	0.000340	3.398652	0.575747	-0.000034
1696	1.6865e+02	3.1287	0.052547	0.000299	2.989176	0.506380	-0.000030
1697	1.6875e+02	3.1205	0.017516	0.000352	3.521495	0.596557	-0.000035
1698	1.6885e+02	3.1132	-0.015479	0.000332	3.316756	0.561874	-0.000033
1699	1.6895e+02	3.1013	-0.052547	0.000373	3.726233	0.631241	-0.000037
1700	1.6905e+02	3.0896	-0.090837	0.000385	3.849075	0.652051	-0.000038
1701	1.6915e+02	3.0803	-0.123832	0.000332	3.316756	0.561874	-0.000033
1702	1.6925e+02	3.0711	-0.158049	0.000344	3.439599	0.582684	-0.000034
1703	1.6935e+02	3.0597	-0.195524	0.000377	3.767180	0.638178	-0.000038
1704	1.6945e+02	3.0521	-0.233000	0.000377	3.767180	0.638178	-0.000038
1705	1.6955e+02	3.0433	-0.267624	0.000348	3.480547	0.589621	-0.000035
1706	1.6965e+02	3.0300	-0.302248	0.000348	3.480547	0.589621	-0.000035
1707	1.6975e+02	3.0225	-0.340946	0.000389	3.890023	0.658988	-0.000039
1708	1.6985e+02	3.0120	-0.375162	0.000344	3.439599	0.582684	-0.000034
1709	1.6995e+02	3.0039	-0.413453	0.000385	3.849075	0.652051	-0.000038
1710	1.7005e+02	2.9913	-0.448077	0.000348	3.480547	0.589621	-0.000035
1711	1.7015e+02	2.9820	-0.487182	0.000393	3.930971	0.665924	-0.000039
1712	1.7024e+02	2.9718	-0.522620	0.000356	3.562442	0.603494	-0.000036
1713	1.7034e+02	2.9604	-0.561725	0.000393	3.930971	0.665924	-0.000039
1714	1.7044e+02	2.9534	-0.602052	0.000405	4.053813	0.686735	-0.000041
1715	1.7054e+02	2.9424	-0.636269	0.000344	3.439599	0.582684	-0.000034
1716	1.7064e+02	2.9305	-0.675374	0.000393	3.930971	0.665924	-0.000039
1717	1.7074e+02	2.9214	-0.715701	0.000405	4.053813	0.686735	-0.000041
1718	1.7084e+02	2.9112	-0.753584	0.000381	3.808128	0.645114	-0.000038
1719	1.7094e+02	2.9031	-0.788208	0.000348	3.480547	0.589621	-0.000035
1720	1.7104e+02	2.8907	-0.829757	0.000418	4.176656	0.707545	-0.000042
1721	1.7114e+02	2.8823	-0.863159	0.000336	3.357704	0.568810	-0.000034
1722	1.7124e+02	2.8709	-0.906337	0.000434	4.340447	0.735292	-0.000043
1723	1.7134e+02	2.8603	-0.943405	0.000373	3.726233	0.631241	-0.000037
1724	1.7144e+02	2.8509	-0.986584	0.000434	4.340447	0.735292	-0.000043
1725	1.7154e+02	2.8403	-1.024874	0.000385	3.849075	0.652051	-0.000038
1726	1.7164e+02	2.8326	-1.058683	0.000340	3.398652	0.575747	-0.000034
1727	1.7174e+02	2.8238	-1.098603	0.000401	4.012866	0.679798	-0.000040
1728	1.7184e+02	2.8111	-1.138930	0.000405	4.053813	0.686735	-0.000041
1729	1.7194e+02	2.8033	-1.173554	0.000348	3.480547	0.589621	-0.000035
1730	1.7204e+02	2.7921	-1.215510	0.000422	4.217604	0.714481	-0.000042
1731	1.7213e+02	2.7827	-1.250542	0.000352	3.521495	0.596557	-0.000035
1732	1.7223e+02	2.7728	-1.289647	0.000393	3.930971	0.665924	-0.000039
1733	1.7233e+02	2.7618	-1.325900	0.000364	3.644337	0.617367	-0.000036
1734	1.7243e+02	2.7505	-1.367449	0.000418	4.176656	0.707545	-0.000042
1735	1.7253e+02	2.7422	-1.407776	0.000405	4.053813	0.686735	-0.000041
1736	1.7263e+02	2.7322	-1.437105	0.000295	2.948228	0.499443	-0.000029
1737	1.7273e+02	2.7240	-1.476209	0.000393	3.930971	0.665924	-0.000039
1738	1.7283e+02	2.7093	-1.516944	0.000409	4.094761	0.693671	-0.000041
1739	1.7293e+02	2.7044	-1.552382	0.000356	3.562442	0.603494	-0.000036
1740	1.7303e+02	2.6942	-1.591895	0.000397	3.971918	0.672861	-0.000040
1741	1.7313e+02	2.6836	-1.626926	0.000352	3.521495	0.596557	-0.000035
1742	1.7323e+02	2.6707	-1.665216	0.000385	3.849075	0.652051	-0.000038
1743	1.7333e+02	2.6632	-1.703914	0.000389	3.890023	0.658988	-0.000039
1744	1.7343e+02	2.6530	-1.738945	0.000352	3.521495	0.596557	-0.000035
1745	1.7353e+02	2.6405	-1.778458	0.000397	3.971918	0.672861	-0.000040
1746	1.7363e+02	2.6339	-1.812267	0.000340	3.398652	0.575747	-0.000034
1747	1.7373e+02	2.6217	-1.851372	0.000393	3.930971	0.665924	-0.000039
1748	1.7383e+02	2.6131	-1.887625	0.000364	3.644337	0.617367	-0.000036
1749	1.7393e+02	2.6009	-1.929174	0.000418	4.176656	0.707545	-0.000042
1750	1.7403e+02	2.5932	-1.963798	0.000348	3.480547	0.589621	-0.000035
1751	1.7413e+02	2.5811	-2.000052	0.000364	3.644337	0.617367	-0.000036
1752	1.7422e+02	2.5723	-2.038342	0.000385	3.849075	0.652051	-0.000038
1753	1.7432e+02	2.5637	-2.073374	0.000352	3.521495	0.596557	-0.000035
1754	1.7442e+02	2.5534	-2.113700	0.000405	4.053813	0.686735	-0.000041
1755	1.7452e+02	2.5443	-2.148325	0.000348	3.480547	0.589621	-0.000035
1756	1.7462e+02	2.5320	-2.184578	0.000364	3.644337	0.617367	-0.000036
1757	1.7472e+02	2.5247	-2.222461	0.000381	3.808128	0.645114	-0.000038
1758	1.7482e+02	2.5115	-2.257085	0.000348	3.480547	0.589621	-0.000035
1759	1.7492e+02	2.5029	-2.296190	0.000393	3.930971	0.665924	-0.000039
1760	1.7502e+02	2.4913	-2.332036	0.000360	3.603390	0.610431	-0.000036
1761	1.7512e+02	2.4845	-2.369104	0.000373	3.726233	0.631241	-0.000037
1762	1.7522e+02	2.4735	-2.410653	0.000418	4.176656	0.707545	-0.000042
1763	1.7532e+02	2.4648	-2.448129	0.000377	3.767180	0.638178	-0.000038
1764	1.7542e+02	2.4532	-2.485604	0.000377	3.767180	0.638178	-0.000038
1765	1.7552e+02	2.4425	-2.524709	0.000393	3.930971	0.665924	-0.000039
1766	1.7562e+02	2.4350	-2.563407	0.000389	3.890023	0.658988	-0.000039
1767	1.7572e+02	2.4235	-2.599660	0.000364	3.644337	0.617367	-0.000036
1768	1.7582e+02	2.4150	-2.643246	0.000438	4.381394	0.742228	-0.000044
1769	1.7592e+02	2.4067	-2.679907	0.000369	3.685285	0.624304	-0.000037
1770	1.7602e+02	2.3931	-2.717790	0.000381	3.808128	0.645114	-0.000038
1771	1.7612e+02	2.3870	-2.754043	0.000364	3.644337	0.617367	-0.000036
1772	1.7621e+02	2.3746	-2.795999	0.000422	4.217604	0.714481	-0.000042
1773	1.7631e+02	2.3620	-2.834697	0.000389	3.890023	0.658988	-0.000039
1774	1.7641e+02	2.3557	-2.871358	0.000369	3.685285	0.624304	-0.000037
1775	1.7651e+02	2.3454	-2.914129	0.000430	4.299499	0.728355	-0.000043
1776	1.7661e+02	2.3331	-2.954048	0.000401	4.012866	0.679798	-0.000040
1777	1.7671e+02	2.3275	-2.994782	0.000409	4.094761	0.693671	-0.000041
1778	1.7681e+02	2.3158	-3.029407	0.000348	3.480547	0.589621	-0.000035
1779	1.7691e+02	2.3042	-3.069326	0.000401	4.012866	0.679798	-0.000040
1780	1.7701e+02	2.2936	-3.108431	0.000393	3.930971	0.665924	-0.000039
1781	1.7711e+02	2.2841	-3.144277	0.000360	3.603390	0.610431	-0.000036
1782	1.7721e+02	2.2774	-3.185011	0.000409	4.094761	0.693671	-0.000041
1783	1.7731e+02	2.2640	-3.220858	0.000360	3.603390	0.610431	-0.000036
1784	1.7741e+02	2.2568	-3.255482	0.000348	3.480547	0.589621	-0.000035
1785	1.7751e+02	2.2457	-3.296216	0.000409	4.094761	0.693671	-0.000041
1786	1.7761e+02	2.2408	-3.332062	0.000360	3.603390	0.610431	-0.000036
1787	1.7771e+02	2.2232	-3.371574	0.000397	3.971918	0.672861	-0.000040
1788	1.7781e+02	2.2137	-3.409457	0.000381	3.808128	0.645114	-0.000038
1789	1.7791e+02	2.2035	-3.449784	0.000405	4.053813	0.686735	-0.000041
1790	1.7801e+02	2.1951	-3.486852	0.000373	3.726233	0.631241	-0.000037
1791	1.7810e+02	2.1855	-3.522698	0.000360	3.603390	0.610431	-0.000036
1792	1.7820e+02	2.1757	-3.558952	0.000364	3.644337	0.617367	-0.000036
1793	1.7830e+02	2.1658	-3.597649	0.000389	3.890023	0.658988	-0.000039
1794	1.7840e+02	2.1589	-3.631052	0.000336	3.357704	0.568810	-0.000034
1795	1.7850e+02	2.1454	-3.665676	0.000348	3.480547	0.589621	-0.000035
1796	1.7860e+02	2.1370	-3.706003	0.000405	4.053813	0.686735	-0.000041
1797	1.7870e+02	2.1257	-3.740219	0.000344	3.439599	0.582684	-0.000034
1798	1.7880e+02	2.1147	-3.771992	0.000319	3.193914	0.541064	-0.000032
1799	1.7890e+02	2.1055	-3.808653	0.000369	3.685285	0.624304	-0.000037
1800	1.7900e+02	2.0946	-3.844906	0.000364	3.644337	0.617367	-0.000036
1801	1.7910e+02	2.0852	-3.878308	0.000336	3.357704	0.568810	-0.000034
1802	1.7920e+02	2.0767	-3.914562	0.000364	3.644337	0.617367	-0.000036
1803	1.7930e+02	2.0649	-3.952445	0.000381	3.808128	0.645114	-0.000038
1804	1.7940e+02	2.0560	-3.985847	0.000336	3.357704	0.568810	-0.000034
1805	1.7950e+02	2.0449	-4.023730	0.000381	3.808128	0.645114	-0.000038
1806	1.7960e+02	2.0338	-4.059169	0.000356	3.562442	0.603494	-0.000036
1807	1.7970e+02	2.0285	-4.094607	0.000356	3.562442	0.603494	-0.000036
1808	1.7980e+02	2.0161	-4.130861	0.000364	3.644337	0.617367	-0.000036
1809	1.7990e+02	2.0060	-4.164670	0.000340	3.398652	0.575747	-0.000034
1810	1.8000e+02	1.9961	-4.200924	0.000364	3.644337	0.617367	-0.000036
1811	1.8009e+02	1.9875	-4.235548	0.000348	3.480547	0.589621	-0.000035
1812	1.8019e+02	1.9770	-4.272616	0.000373	3.726233	0.631241	-0.000037
1813	1.8029e+02	1.9639	-4.309684	0.000373	3.726233	0.631241	-0.000037
1814	1.8039e+02	1.9552	-4.345123	0.000356	3.562442	0.603494	-0.000036
1815	1.8049e+02	1.9433	-4.378932	0.000340	3.398652	0.575747	-0.000034
1816	1.8059e+02	1.9345	-4.421296	0.000426	4.258552	0.721418	-0.000043
1817	1.8069e+02	1.9257	-4.457142	0.000360	3.603390	0.610431	-0.000036
1818	1.8079e+02	1.9161	-4.495432	0.000385	3.849075	0.652051	-0.000038
1819	1.8089e+02	1.9076	-4.528020	0.000328	3.275809	0.554937	-0.000033
1820	1.8099e+02	1.8988	-4.565903	0.000381	3.808128	0.645114	-0.000038
1821	1.8109e+02	1.8842	-4.602156	0.000364	3.644337	0.617367	-0.000036
1822	1.8119e+02	1.8780	-4.641261	0.000393	3.930971	0.665924	-0.000039
1823	1.8129e+02	1.8645	-4.681995	0.000409	4.094761	0.693671	-0.000041
1824	1.8139e+02	1.8560	-4.717841	0.000360	3.603390	0.610431	-0.000036
1825	1.8149e+02	1.8445	-4.756946	0.000393	3.930971	0.665924	-0.000039
1826	1.8159e+02	1.8373	-4.795237	0.000385	3.849075	0.652051	-0.000038
1827	1.8169e+02	1.8270	-4.836378	0.000414	4.135709	0.700608	-0.000041
1828	1.8179e+02	1.8186	-4.871410	0.000352	3.521495	0.596557	-0.000035
1829	1.8189e+02	1.8072	-4.908885	0.000377	3.767180	0.638178	-0.000038
1830	1.8199e+02	1.7980	-4.945139	0.000364	3.644337	0.617367	-0.000036
1831	1.8209e+02	1.7873	-4.983836	0.000389	3.890023	0.658988	-0.000039
1832	1.8218e+02	1.7776	-5.024570	0.000409	4.094761	0.693671	-0.000041
1833	1.8228e+02	1.7677	-5.064490	0.000401	4.012866	0.679798	-0.000040
1834	1.8238e+02	1.7569	-5.101558	0.000373	3.726233	0.631241	-0.000037
1835	1.8248e+02	1.7454	-5.138626	0.000373	3.726233	0.631241	-0.000037
1836	1.8258e+02	1.7392	-5.177731	0.000393	3.930971	0.665924	-0.000039
1837	1.8268e+02	1.7264	-5.215207	0.000377	3.767180	0.638178	-0.000038
1838	1.8278e+02	1.7152	-5.255941	0.000409	4.094761	0.693671	-0.000041
1839	1.8288e+02	1.7084	-5.289750	0.000340	3.398652	0.575747	-0.000034
1840	1.8298e+02	1.6972	-5.332114	0.000426	4.258552	0.721418	-0.000043
1841	1.8308e+02	1.6874	-5.371219	0.000393	3.930971	0.665924	-0.000039
1842	1.8318e+02	1.6791	-5.410324	0.000393	3.930971	0.665924	-0.000039
1843	1.8328e+02	1.6666	-5.447799	0.000377	3.767180	0.638178	-0.000038
1844	1.8338e+02	1.6550	-5.484867	0.000373	3.726233	0.631241	-0.000037
1845	1.8348e+02	1.6484	-5.523158	0.000385	3.849075	0.652051	-0.000038
1846	1.8358e+02	1.6380	-5.560226	0.000373	3.726233	0.631241	-0.000037
1847	1.8368e+02	1.6322	-5.600145	0.000401	4.012866	0.679798	-0.000040
1848	1.8378e+02	1.6163	-5.635584	0.000356	3.562442	0.603494	-0.000036
1849	1.8388e+02	1.6089	-5.675096	0.000397	3.971918	0.672861	-0.000040
1850	1.8398e+02	1.5958	-5.714201	0.000393	3.930971	0.665924	-0.000039
1851	1.8407e+02	1.5884	-5.752492	0.000385	3.849075	0.652051	-0.000038
1852	1.8417e+02	1.5793	-5.794855	0.000426	4.258552	0.721418	-0.000043
1853	1.8427e+02	1.5667	-5.829479	0.000348	3.480547	0.589621	-0.000035
1854	1.8437e+02	1.5581	-5.866955	0.000377	3.767180	0.638178	-0.000038
1855	1.8447e+02	1.5479	-5.905245	0.000385	3.849075	0.652051	-0.000038
1856	1.8457e+02	1.5387	-5.943535	0.000385	3.849075	0.652051	-0.000038
1857	1.8467e+02	1.5273	-5.981825	0.000385	3.849075	0.652051	-0.000038
1858	1.8477e+02	1.5178	-6.022560	0.000409	4.094761	0.693671	-0.000041
1859	1.8487e+02	1.5116	-6.060035	0.000377	3.767180	0.638178	-0.000038
1860	1.8497e+02	1.4980	-6.092623	0.000328	3.275809	0.554937	-0.000033
1861	1.8507e+02	1.4887	-6.133764	0.000414	4.135709	0.700608	-0.000041
1862	1.8517e+02	1.4812	-6.169203	0.000356	3.562442	0.603494	-0.000036
1863	1.8527e+02	1.4679	-6.211159	0.000422	4.217604	0.714481	-0.000042
1864	1.8537e+02	1.4600	-6.246598	0.000356	3.562442	0.603494	-0.000036
1865	1.8547e+02	1.4507	-6.288554	0.000422	4.217604	0.714481	-0.000042
1866	1.8557e+02	1.4404	-6.326030	0.000377	3.767180	0.638178	-0.000038
1867	1.8567e+02	1.4291	-6.365135	0.000393	3.930971	0.665924	-0.000039
1868	1.8577e+02	1.4184	-6.409535	0.000446	4.463290	0.756102	-0.000045
1869	1.8587e+02	1.4067	-6.447418	0.000381	3.808128	0.645114	-0.000038
1870	1.8597e+02	1.3998	-6.487745	0.000405	4.053813	0.686735	-0.000041
1871	1.8606e+02	1.3882	-6.528072	0.000405	4.053813	0.686735	-0.000041
1872	1.8616e+02	1.3770	-6.569621	0.000418	4.176656	0.707545	-0.000042
1873	1.8626e+02	1.3710	-6.606689	0.000373	3.726233	0.631241	-0.000037
1874	1.8636e+02	1.3608	-6.649460	0.000430	4.299499	0.728355	-0.000043
1875	1.8646e+02	1.3483	-6.691009	0.000418	4.176656	0.707545	-0.000042
1876	1.8656e+02	1.3411	-6.732150	0.000414	4.135709	0.700608	-0.000041
1877	1.8666e+02	1.3301	-6.772885	0.000409	4.094761	0.693671	-0.000041
1878	1.8676e+02	1.3192	-6.816878	0.000442	4.422342	0.749165	-0.000044
1879	1.8686e+02	1.3096	-6.853946	0.000373	3.726233	0.631241	-0.000037
1880	1.8696e+02	1.2995	-6.902012	0.000483	4.831818	0.818532	-0.000048
1881	1.8706e+02	1.2918	-6.941932	0.000401	4.012866	0.679798	-0.000040
1882	1.8716e+02	1.2773	-6.985110	0.000434	4.340447	0.735292	-0.000043
1883	1.8726e+02	1.2687	-7.031140	0.000463	4.627080	0.783849	-0.000046
1884	1.8736e+02	1.2602	-7.069023	0.000381	3.808128	0.645114	-0.000038
1885	1.8746e+02	1.2504	-7.111386	0.000426	4.258552	0.721418	-0.000043
1886	1.8756e+02	1.2425	-7.155379	0.000442	4.422342	0.749165	-0.000044
1887	1.8766e+02	1.2281	-7.195299	0.000401	4.012866	0.679798	-0.000040
1888	1.8776e+02	1.2212	-7.237662	0.000426	4.258552	0.721418	-0.000043
1889	1.8786e+02	1.2105	-7.280026	0.000426	4.258552	0.721418	-0.000043
1890	1.8796e+02	1.2017	-7.324834	0.000450	4.504237	0.763038	-0.000045
1891	1.8806e+02	1.1944	-7.366790	0.000422	4.217604	0.714481	-0.000042
1892	1.8815e+02	1.1827	-7.412005	0.000455	4.545185	0.769975	-0.000045
1893	1.8825e+02	1.1710	-7.459257	0.000475	4.749923	0.804659	-0.000047
1894	1.8835e+02	1.1597	-7.496732	0.000377	3.767180	0.638178	-0.000038
1895	1.8845e+02	1.1499	-7.543169	0.000467	4.668028	0.790785	-0.000047
1896	1.8855e+02	1.1418	-7.583904	0.000409	4.094761	0.693671	-0.000041
1897	1.8865e+02	1.1291	-7.624638	0.000409	4.094761	0.693671	-0.000041
1898	1.8875e+02	1.1206	-7.668224	0.000438	4.381394	0.742228	-0.000044
1899	1.8885e+02	1.1098	-7.708958	0.000409	4.094761	0.693671	-0.000041
1900	1.8895e+02	1.1016	-7.754987	0.000463	4.627080	0.783849	-0.000046
1901	1.8905e+02	1.0913	-7.798573	0.000438	4.381394	0.742228	-0.000044
1902	1.8915e+02	1.0812	-7.839307	0.000409	4.094761	0.693671	-0.000041
1903	1.8925e+02	1.0709	-7.881671	0.000426	4.258552	0.721418	-0.000043
1904	1.8935e+02	1.0623	-7.924035	0.000426	4.258552	0.721418	-0.000043
1905	1.8945e+02	1.0487	-7.965176	0.000414	4.135709	0.700608	-0.000041
1906	1.8955e+02	1.0410	-8.009577	0.000446	4.463290	0.756102	-0.000045
1907	1.8965e+02	1.0317	-8.048274	0.000389	3.890023	0.658988	-0.000039
1908	1.8975e+02	1.0228	-8.090230	0.000422	4.217604	0.714481	-0.000042
1909	1.8985e+02	1.0104	-8.133409	0.000434	4.340447	0.735292	-0.000043
1910	1.8995e+02	1.0012	-8.177402	0.000442	4.422342	0.749165	-0.000044
1911	1.9004e+02	0.9901	-8.217729	0.000405	4.053813	0.686735	-0.000041
1912	1.9014e+02	0.9841	-8.261314	0.000438	4.381394	0.742228	-0.000044
1913	1.9024e+02	0.9723	-8.300827	0.000397	3.971918	0.672861	-0.000040
1914	1.9034e+02	0.9641	-8.344820	0.000442	4.422342	0.749165	-0.000044
1915	1.9044e+02	0.9525	-8.383110	0.000385	3.849075	0.652051	-0.000038
1916	1.9054e+02	0.9417	-8.424659	0.000418	4.176656	0.707545	-0.000042
1917	1.9064e+02	0.9319	-8.470688	0.000463	4.627080	0.783849	-0.000046
1918	1.9074e+02	0.9229	-8.513867	0.000434	4.340447	0.735292	-0.000043
1919	1.9084e+02	0.9117	-8.552972	0.000393	3.930971	0.665924	-0.000039
1920	1.9094e+02	0.9026	-8.593706	0.000409	4.094761	0.693671	-0.000041
1921	1.9104e+02	0.8951	-8.634847	0.000414	4.135709	0.700608	-0.000041
1922	1.9114e+02	0.8805	-8.680062	0.000455	4.545185	0.769975	-0.000045
1923	1.9124e+02	0.8719	-8.718353	0.000385	3.849075	0.652051	-0.000038
1924	1.9134e+02	0.8614	-8.762346	0.000442	4.422342	0.749165	-0.000044
1925	1.9144e+02	0.8550	-8.804302	0.000422	4.217604	0.714481	-0.000042
1926	1.9154e+02	0.8408	-8.843407	0.000393	3.930971	0.665924	-0.000039
1927	1.9164e+02	0.8347	-8.887400	0.000442	4.422342	0.749165	-0.000044
1928	1.9174e+02	0.8210	-8.930171	0.000430	4.299499	0.728355	-0.000043
1929	1.9184e+02	0.8125	-8.971312	0.000414	4.135709	0.700608	-0.000041
1930	1.9194e+02	0.8022	-9.014898	0.000438	4.381394	0.742228	-0.000044
1931	1.9203e+02	0.7937	-9.058484	0.000438	4.381394	0.742228	-0.000044
1932	1.9213e+02	0.7798	-9.104513	0.000463	4.627080	0.783849	-0.000046
1933	1.9223e+02	0.7746	-9.146877	0.000426	4.258552	0.721418	-0.000043
1934	1.9233e+02	0.7628	-9.190870	0.000442	4.422342	0.749165	-0.000044
1935	1.9243e+02	0.7499	-9.232419	0.000418	4.176656	0.707545	-0.000042
1936	1.9253e+02	0.7420	-9.276005	0.000438	4.381394	0.742228	-0.000044
1937	1.9263e+02	0.7316	-9.318368	0.000426	4.258552	0.721418	-0.000043
1938	1.9273e+02	0.7236	-9.361954	0.000438	4.381394	0.742228	-0.000044
1939	1.9283e+02	0.7132	-9.403910	0.000422	4.217604	0.714481	-0.000042
1940	1.9293e+02	0.7021	-9.446274	0.000426	4.258552	0.721418	-0.000043
1941	1.9303e+02	0.6942	-9.488637	0.000426	4.258552	0.721418	-0.000043
1942	1.9313e+02	0.6816	-9.533445	0.000450	4.504237	0.763038	-0.000045
1943	1.9323e+02	0.6739	-9.578660	0.000455	4.545185	0.769975	-0.000045
1944	1.9333e+02	0.6629	-9.622246	0.000438	4.381394	0.742228	-0.000044
1945	1.9343e+02	0.6545	-9.669905	0.000479	4.790870	0.811595	-0.000048
1946	1.9353e+02	0.6465	-9.710639	0.000409	4.094761	0.693671	-0.000041
1947	1.9363e+02	0.6358	-9.753003	0.000426	4.258552	0.721418	-0.000043
1948	1.9373e+02	0.6238	-9.798625	0.000459	4.586132	0.776912	-0.000046
1949	1.9383e+02	0.6133	-9.840174	0.000418	4.176656	0.707545	-0.000042
1950	1.9393e+02	0.6021	-9.882945	0.000430	4.299499	0.728355	-0.000043
1951	1.9403e+02	0.5915	-9.922457	0.000397	3.971918	0.672861	-0.000040
1952	1.9412e+02	0.5811	-9.968487	0.000463	4.627080	0.783849	-0.000046
1953	1.9422e+02	0.5722	-10.007999	0.000397	3.971918	0.672861	-0.000040
1954	1.9432e+02	0.5628	-10.047104	0.000393	3.930971	0.665924	-0.000039
1955	1.9442e+02	0.5536	-10.090690	0.000438	4.381394	0.742228	-0.000044
1956	1.9452e+02	0.5480	-10.135090	0.000446	4.463290	0.756102	-0.000045
1957	1.9462e+02	0.5345	-10.180712	0.000459	4.586132	0.776912	-0.000046
1958	1.9472e+02	0.5283	-10.216559	0.000360	3.603390	0.610431	-0.000036
1959	1.9482e+02	0.5143	-10.262996	0.000467	4.668028	0.790785	-0.000047
1960	1.9492e+02	0.5032	-10.304545	0.000418	4.176656	0.707545	-0.000042
1961	1.9502e+02	0.4968	-10.341613	0.000373	3.726233	0.631241	-0.000037
1962	1.9512e+02	0.4835	-10.380310	0.000389	3.890023	0.658988	-0.000039
1963	1.9522e+02	0.4719	-10.427969	0.000479	4.790870	0.811595	-0.000048
1964	1.9532e+02	0.4612	-10.464223	0.000364	3.644337	0.617367	-0.000036
1965	1.9542e+02	0.4556	-10.504142	0.000401	4.012866	0.679798	-0.000040
1966	1.9552e+02	0.4461	-10.544469	0.000405	4.053813	0.686735	-0.000041
1967	1.9562e+02	0.4346	-10.581945	0.000377	3.767180	0.638178	-0.000038
1968	1.9572e+02	0.4226	-10.625530	0.000438	4.381394	0.742228	-0.000044
1969	1.9582e+02	0.4144	-10.666265	0.000409	4.094761	0.693671	-0.000041
1970	1.9592e+02	0.4028	-10.705777	0.000397	3.971918	0.672861	-0.000040
1971	1.9601e+02	0.3988	-10.748141	0.000426	4.258552	0.721418	-0.000043
1972	1.9611e+02	0.3844	-10.786431	0.000385	3.849075	0.652051	-0.000038
1973	1.9621e+02	0.3783	-10.830831	0.000446	4.463290	0.756102	-0.000045
1974	1.9631e+02	0.3635	-10.865048	0.000344	3.439599	0.582684	-0.000034
1975	1.9641e+02	0.3569	-10.906597	0.000418	4.176656	0.707545	-0.000042
1976	1.9651e+02	0.3453	-10.944887	0.000385	3.849075	0.652051	-0.000038
1977	1.9661e+02	0.3355	-10.982363	0.000377	3.767180	0.638178	-0.000038
1978	1.9671e+02	0.3255	-11.027578	0.000455	4.545185	0.769975	-0.000045
1979	1.9681e+02	0.3162	-11.068719	0.000414	4.135709	0.700608	-0.000041
1980	1.9691e+02	0.3054	-11.105787	0.000373	3.726233	0.631241	-0.000037
1981	1.9701e+02	0.2934	-11.149780	0.000442	4.422342	0.749165	-0.000044
1982	1.9711e+02	0.2861	-11.188885	0.000393	3.930971	0.665924	-0.000039
1983	1.9721e+02	0.2753	-11.232878	0.000442	4.422342	0.749165	-0.000044
1984	1.9731e+02	0.2649	-11.270354	0.000377	3.767180	0.638178	-0.000038
1985	1.9741e+02	0.2585	-11.313939	0.000438	4.381394	0.742228	-0.000044
1986	1.9751e+02	0.2455	-11.353044	0.000393	3.930971	0.665924	-0.000039
1987	1.9761e+02	0.2389	-11.397852	0.000450	4.504237	0.763038	-0.000045
1988	1.9771e+02	0.2257	-11.441030	0.000434	4.340447	0.735292	-0.000043
1989	1.9781e+02	0.2140	-11.478913	0.000381	3.808128	0.645114	-0.000038
1990	1.9791e+02	0.2037	-11.526980	0.000483	4.831818	0.818532	-0.000048
1991	1.9800e+02	0.1978	-11.567306	0.000405	4.053813	0.686735	-0.000041
1992	1.9810e+02	0.1863	-11.609670	0.000426	4.258552	0.721418	-0.000043
1993	1.9820e+02	0.1723	-11.651626	0.000422	4.217604	0.714481	-0.000042
1994	1.9830e+02	0.1637	-11.690324	0.000389	3.890023	0.658988	-0.000039
1995	1.9840e+02	0.1569	-11.733502	0.000434	4.340447	0.735292	-0.000043
1996	1.9850e+02	0.1450	-11.777903	0.000446	4.463290	0.756102	-0.000045
1997	1.9860e+02	0.1334	-11.821081	0.000434	4.340447	0.735292	-0.000043
1998	1.9870e+02	0.1244	-11.867111	0.000463	4.627080	0.783849	-0.000046
1999	1.9880e+02	0.1148	-11.910289	0.000434	4.340447	0.735292	-0.000043
2000	1.9890e+02	0.1050	-11.948579	0.000385	3.849075	0.652051	-0.000038
2001	1.9900e+02	0.0957	-11.991757	0.000434	4.340447	0.735292	-0.000043
2002	1.9910e+02	0.0851	-12.036158	0.000446	4.463290	0.756102	-0.000045
2003	1.9920e+02	0.0764	-12.083817	0.000479	4.790870	0.811595	-0.000048
2004	1.9930e+02	0.0668	-12.123329	0.000397	3.971918	0.672861	-0.000040
2005	1.9940e+02	0.0515	-12.162841	0.000397	3.971918	0.672861	-0.000040
2006	1.9950e+02	0.0461	-12.208464	0.000459	4.586132	0.776912	-0.000046
2007	1.9960e+02	0.0343	-12.251642	0.000434	4.340447	0.735292	-0.000043
2008	1.9970e+02	0.0263	-12.293598	0.000422	4.217604	0.714481	-0.000042
2009	1.9980e+02	0.0158	-12.335554	0.000422	4.217604	0.714481	-0.000042
2010	1.9990e+02	0.0056	-12.379547	0.000442	4.422342	0.749165	-0.000044
2011	2.0000e+02	-0.0052	-12.420282	0.000442	4.422342	0.749165	-0.000041

PMax (uC/cm2):	3.45e+01
Pr (uC/cm2):	4.86e+00
-Pr (uC/cm2):	0.00e+00
PLoss (uC/cm2):	0.00e+00
C (Max-Eff) (nF):	3.45e-01
K (Eff):	5.84e+02
Vert. (+/-Pr) Shift (uC/cm2):	2.43e+00
Offset (uC/cm2):	1.73e+01

A (Loop Area - uC/cm2·Volts):	-4.59e-02



Hysteresis Version: 5.48.1 - Radiant Technologies, Inc., 1999 - 9/12/24

