»»»»»»»»»»»»»»»»»»»»»»»»»»»»»»»»»»»» Hysteresis ««««««««««««««««««««««««««««««««««««
»»»  Executed Version:	5.48.1
»»»  Vision Version:	5.48.4 (R)
»»»  Vision Compiled:	9/18/24
»»»  Driver Version:	5.47.0
»»»  Windows Version:	Windows 8 or 8.1
»»»  Processor Information:	x86 (AMD or Intel) - 32 Processors
»»»  Tester Name:	PMF21124-494 (100V)
»»»  Tester S/N:	PMF21124-494
»»»  Internal Amp Type:	100V RevK 270k
»»»  Internal Amp S/N:	iAB2-596/K     
»»»  Execution Count:	1
»»»»»»»»»»»»»»»»»»»»»»»»»»»»»»»»»»»»»»»»»»««««««««««««««««««««««««««««««««««««««««««

Stored:	6/30/2025 - 11:30:7
Configured:	06/30/25 10:19:58 AM
Executed:	06/30/25 11:29:39 AM

»»»»»»»»»»»»»»»»»»»»»»»»»»»»»»»»»»» Sample Info ««««««««««««««««««««««««««««««««««««
Sample Name:	
Lot Name:	
Wafer Name:	
Die Row/Column:	0/0
Capacitor Number:	0
Sample Area (cm2):	1.00e-04
Sample Thickness (microns):	1.50e-01

Amplifier:	Internal

»»»»»»»»»»»»»»»»»»»»»»»»»»»»»»»»»»» Tester Info «««««««««««««««««««««««««««««««««««
Tester Name:	PMF21124-494 (100V)
Tester Serial Number:	PMF21124-494
Return Signal Amp. Level:	1.9 [Index: 2]

»»»»»»»»»»»»»»»»»»»»»»»»»»»»»»»» Hysteresis Info ««««««««««««««««««««««««««««««««««
Task Name:	Hyst-1804
Volts:	10.00
Field:	666.67 (kV/cm)
DCBias:	0.00
DCField:	0.00 (kV/cm)
Hysteresis Period (ms):	2.00e+02
Preset:	Enabled
Preset Delay (ms):	1.00e+03
Profile:	Standard Monopolar

»»»»»»»»»»»»»»»»»»»»»»»»»»»»»»»»»»»»»» Data «««««««««««««««««««««««««««««««««««««««
Points:	2011

Valid Data

Point	Time (ms)	Drive Voltage	Measured Polarization (uC/cm2)	Capacitance (uF)	Normalized Capacitance (uF/cm2)	Dielectric Constant	Instantaneous Current (mA)
   1	0.0000e+00	-0.0033	-17.305541	0.000409	4.094824	0.693682	0.000041
   2	9.9500e-02	0.0028	-17.264807	0.000409	4.094824	0.693682	0.000041
   3	1.9900e-01	0.0165	-17.222850	0.000422	4.217668	0.714492	0.000042
   4	2.9850e-01	0.0253	-17.180894	0.000422	4.217668	0.714492	0.000042
   5	3.9800e-01	0.0320	-17.145455	0.000356	3.562497	0.603503	0.000036
   6	4.9750e-01	0.0455	-17.102684	0.000430	4.299565	0.728366	0.000043
   7	5.9700e-01	0.0552	-17.060321	0.000426	4.258617	0.721429	0.000043
   8	6.9650e-01	0.0647	-17.020401	0.000401	4.012927	0.679808	0.000040
   9	7.9600e-01	0.0773	-16.977223	0.000434	4.340513	0.735303	0.000043
  10	8.9550e-01	0.0852	-16.936489	0.000409	4.094824	0.693682	0.000041
  11	9.9500e-01	0.0975	-16.899420	0.000373	3.726289	0.631251	0.000037
  12	1.0945e+00	0.1035	-16.855835	0.000438	4.381461	0.742240	0.000044
  13	1.1940e+00	0.1148	-16.813064	0.000430	4.299565	0.728366	0.000043
  14	1.2935e+00	0.1245	-16.768663	0.000446	4.463358	0.756113	0.000045
  15	1.3930e+00	0.1346	-16.728744	0.000401	4.012927	0.679808	0.000040
  16	1.4925e+00	0.1428	-16.683529	0.000455	4.545254	0.769987	0.000045
  17	1.5920e+00	0.1551	-16.641165	0.000426	4.258617	0.721429	0.000043
  18	1.6915e+00	0.1656	-16.594321	0.000471	4.709047	0.797734	0.000047
  19	1.7910e+00	0.1759	-16.552772	0.000418	4.176720	0.707556	0.000042
  20	1.8905e+00	0.1858	-16.510816	0.000422	4.217668	0.714492	0.000042
  21	1.9900e+00	0.1943	-16.468045	0.000430	4.299565	0.728366	0.000043
  22	2.0895e+00	0.2051	-16.424866	0.000434	4.340513	0.735303	0.000043
  23	2.1890e+00	0.2124	-16.384132	0.000409	4.094824	0.693682	0.000041
  24	2.2885e+00	0.2259	-16.334436	0.000500	4.995685	0.846292	0.000050
  25	2.3880e+00	0.2361	-16.291665	0.000430	4.299565	0.728366	0.000043
  26	2.4875e+00	0.2419	-16.251746	0.000401	4.012927	0.679808	0.000040
  27	2.5870e+00	0.2538	-16.207753	0.000442	4.422409	0.749176	0.000044
  28	2.6865e+00	0.2615	-16.161316	0.000467	4.668099	0.790797	0.000047
  29	2.7860e+00	0.2771	-16.118545	0.000430	4.299565	0.728366	0.000043
  30	2.8855e+00	0.2860	-16.078218	0.000405	4.053875	0.686745	0.000041
  31	2.9850e+00	0.2943	-16.033003	0.000455	4.545254	0.769987	0.000045
  32	3.0845e+00	0.3048	-15.989010	0.000442	4.422409	0.749176	0.000044
  33	3.1840e+00	0.3150	-15.947868	0.000414	4.135772	0.700619	0.000041
  34	3.2835e+00	0.3247	-15.901431	0.000467	4.668099	0.790797	0.000047
  35	3.3830e+00	0.3336	-15.858253	0.000434	4.340513	0.735303	0.000043
  36	3.4825e+00	0.3434	-15.814260	0.000442	4.422409	0.749176	0.000044
  37	3.5820e+00	0.3542	-15.773526	0.000409	4.094824	0.693682	0.000041
  38	3.6815e+00	0.3641	-15.728311	0.000455	4.545254	0.769987	0.000045
  39	3.7810e+00	0.3730	-15.686354	0.000422	4.217668	0.714492	0.000042
  40	3.8805e+00	0.3829	-15.640325	0.000463	4.627151	0.783861	0.000046
  41	3.9800e+00	0.3934	-15.596332	0.000442	4.422409	0.749176	0.000044
  42	4.0795e+00	0.4059	-15.561300	0.000352	3.521548	0.596566	0.000035
  43	4.1790e+00	0.4131	-15.514456	0.000471	4.709047	0.797734	0.000047
  44	4.2785e+00	0.4266	-15.474944	0.000397	3.971979	0.672871	0.000040
  45	4.3780e+00	0.4379	-15.429321	0.000459	4.586202	0.776924	0.000046
  46	4.4775e+00	0.4398	-15.385736	0.000438	4.381461	0.742240	0.000044
  47	4.5770e+00	0.4548	-15.345816	0.000401	4.012927	0.679808	0.000040
  48	4.6765e+00	0.4656	-15.300194	0.000459	4.586202	0.776924	0.000046
  49	4.7760e+00	0.4726	-15.257015	0.000434	4.340513	0.735303	0.000043
  50	4.8755e+00	0.4826	-15.217096	0.000401	4.012927	0.679808	0.000040
  51	4.9750e+00	0.4916	-15.171066	0.000463	4.627151	0.783861	0.000046
  52	5.0745e+00	0.5034	-15.129110	0.000422	4.217668	0.714492	0.000042
  53	5.1740e+00	0.5145	-15.088783	0.000405	4.053875	0.686745	0.000041
  54	5.2735e+00	0.5209	-15.048863	0.000401	4.012927	0.679808	0.000040
  55	5.3730e+00	0.5320	-15.002426	0.000467	4.668099	0.790797	0.000047
  56	5.4725e+00	0.5428	-14.961285	0.000414	4.135772	0.700619	0.000041
  57	5.5720e+00	0.5514	-14.914440	0.000471	4.709047	0.797734	0.000047
  58	5.6715e+00	0.5643	-14.875335	0.000393	3.931031	0.665935	0.000039
  59	5.7710e+00	0.5730	-14.837045	0.000385	3.849134	0.652061	0.000038
  60	5.8705e+00	0.5839	-14.792645	0.000446	4.463358	0.756113	0.000045
  61	5.9700e+00	0.5917	-14.744578	0.000483	4.831892	0.818545	0.000048
  62	6.0695e+00	0.6033	-14.701807	0.000430	4.299565	0.728366	0.000043
  63	6.1690e+00	0.6158	-14.654556	0.000475	4.749995	0.804671	0.000047
  64	6.2685e+00	0.6241	-14.612599	0.000422	4.217668	0.714492	0.000042
  65	6.3680e+00	0.6319	-14.565348	0.000475	4.749995	0.804671	0.000047
  66	6.4675e+00	0.6483	-14.523391	0.000422	4.217668	0.714492	0.000042
  67	6.5670e+00	0.6538	-14.478176	0.000455	4.545254	0.769987	0.000045
  68	6.6665e+00	0.6635	-14.434591	0.000438	4.381461	0.742240	0.000044
  69	6.7660e+00	0.6740	-14.392634	0.000422	4.217668	0.714492	0.000042
  70	6.8655e+00	0.6860	-14.346197	0.000467	4.668099	0.790797	0.000047
  71	6.9650e+00	0.6919	-14.303426	0.000430	4.299565	0.728366	0.000043
  72	7.0645e+00	0.7005	-14.258619	0.000450	4.504306	0.763050	0.000045
  73	7.1640e+00	0.7137	-14.211367	0.000475	4.749995	0.804671	0.000047
  74	7.2635e+00	0.7232	-14.166967	0.000446	4.463358	0.756113	0.000045
  75	7.3630e+00	0.7327	-14.123381	0.000438	4.381461	0.742240	0.000044
  76	7.4625e+00	0.7420	-14.076537	0.000471	4.709047	0.797734	0.000047
  77	7.5620e+00	0.7513	-14.033358	0.000434	4.340513	0.735303	0.000043
  78	7.6615e+00	0.7611	-13.982440	0.000512	5.118529	0.867102	0.000051
  79	7.7610e+00	0.7722	-13.937633	0.000450	4.504306	0.763050	0.000045
  80	7.8605e+00	0.7834	-13.892418	0.000455	4.545254	0.769987	0.000045
  81	7.9600e+00	0.7922	-13.843944	0.000487	4.872840	0.825481	0.000049
  82	8.0595e+00	0.7999	-13.797507	0.000467	4.668099	0.790797	0.000047
  83	8.1590e+00	0.8121	-13.751070	0.000467	4.668099	0.790797	0.000047
  84	8.2585e+00	0.8218	-13.705447	0.000459	4.586202	0.776924	0.000046
  85	8.3580e+00	0.8324	-13.661047	0.000446	4.463358	0.756113	0.000045
  86	8.4575e+00	0.8402	-13.615017	0.000463	4.627151	0.783861	0.000046
  87	8.5570e+00	0.8528	-13.568988	0.000463	4.627151	0.783861	0.000046
  88	8.6565e+00	0.8604	-13.523773	0.000455	4.545254	0.769987	0.000045
  89	8.7560e+00	0.8720	-13.476114	0.000479	4.790944	0.811608	0.000048
  90	8.8555e+00	0.8806	-13.428047	0.000483	4.831892	0.818545	0.000048
  91	8.9550e+00	0.8921	-13.382832	0.000455	4.545254	0.769987	0.000045
  92	9.0545e+00	0.9013	-13.337617	0.000455	4.545254	0.769987	0.000045
  93	9.1540e+00	0.9112	-13.287514	0.000504	5.036633	0.853229	0.000050
  94	9.2535e+00	0.9206	-13.247594	0.000401	4.012927	0.679808	0.000040
  95	9.3530e+00	0.9344	-13.197899	0.000500	4.995685	0.846292	0.000050
  96	9.4525e+00	0.9425	-13.150240	0.000479	4.790944	0.811608	0.000048
  97	9.5520e+00	0.9509	-13.108691	0.000418	4.176720	0.707556	0.000042
  98	9.6515e+00	0.9633	-13.060624	0.000483	4.831892	0.818545	0.000048
  99	9.7510e+00	0.9694	-13.022741	0.000381	3.808186	0.645124	0.000038
 100	9.8505e+00	0.9789	-12.971824	0.000512	5.118529	0.867102	0.000051
 101	9.9500e+00	0.9922	-12.931089	0.000409	4.094824	0.693682	0.000041
 102	1.0050e+01	1.0013	-12.883838	0.000475	4.749995	0.804671	0.000047
 103	1.0149e+01	1.0120	-12.843511	0.000405	4.053875	0.686745	0.000041
 104	1.0248e+01	1.0210	-12.794630	0.000491	4.913788	0.832418	0.000049
 105	1.0348e+01	1.0336	-12.756339	0.000385	3.849134	0.652061	0.000038
 106	1.0447e+01	1.0400	-12.712754	0.000438	4.381461	0.742240	0.000044
 107	1.0547e+01	1.0513	-12.663873	0.000491	4.913788	0.832418	0.000049
 108	1.0646e+01	1.0617	-12.621916	0.000422	4.217668	0.714492	0.000042
 109	1.0746e+01	1.0719	-12.579553	0.000426	4.258617	0.721429	0.000043
 110	1.0845e+01	1.0802	-12.534338	0.000455	4.545254	0.769987	0.000045
 111	1.0945e+01	1.0892	-12.486271	0.000483	4.831892	0.818545	0.000048
 112	1.1044e+01	1.1013	-12.445944	0.000405	4.053875	0.686745	0.000041
 113	1.1144e+01	1.1100	-12.400322	0.000459	4.586202	0.776924	0.000046
 114	1.1243e+01	1.1201	-12.357958	0.000426	4.258617	0.721429	0.000043
 115	1.1343e+01	1.1322	-12.313151	0.000450	4.504306	0.763050	0.000045
 116	1.1443e+01	1.1407	-12.266306	0.000471	4.709047	0.797734	0.000047
 117	1.1542e+01	1.1481	-12.225572	0.000409	4.094824	0.693682	0.000041
 118	1.1642e+01	1.1588	-12.184023	0.000418	4.176720	0.707556	0.000042
 119	1.1741e+01	1.1677	-12.143696	0.000405	4.053875	0.686745	0.000041
 120	1.1841e+01	1.1800	-12.101333	0.000426	4.258617	0.721429	0.000043
 121	1.1940e+01	1.1915	-12.055710	0.000459	4.586202	0.776924	0.000046
 122	1.2040e+01	1.2009	-12.008866	0.000471	4.709047	0.797734	0.000047
 123	1.2139e+01	1.2103	-11.966909	0.000422	4.217668	0.714492	0.000042
 124	1.2239e+01	1.2219	-11.921694	0.000455	4.545254	0.769987	0.000045
 125	1.2338e+01	1.2290	-11.878923	0.000430	4.299565	0.728366	0.000043
 126	1.2438e+01	1.2383	-11.832486	0.000467	4.668099	0.790797	0.000047
 127	1.2537e+01	1.2487	-11.787271	0.000455	4.545254	0.769987	0.000045
 128	1.2636e+01	1.2601	-11.745315	0.000422	4.217668	0.714492	0.000042
 129	1.2736e+01	1.2688	-11.704174	0.000414	4.135772	0.700619	0.000041
 130	1.2835e+01	1.2779	-11.656514	0.000479	4.790944	0.811608	0.000048
 131	1.2935e+01	1.2893	-11.612521	0.000442	4.422409	0.749176	0.000044
 132	1.3034e+01	1.3003	-11.572602	0.000401	4.012927	0.679808	0.000040
 133	1.3134e+01	1.3084	-11.524943	0.000479	4.790944	0.811608	0.000048
 134	1.3233e+01	1.3217	-11.482987	0.000422	4.217668	0.714492	0.000042
 135	1.3333e+01	1.3277	-11.435327	0.000479	4.790944	0.811608	0.000048
 136	1.3432e+01	1.3409	-11.391742	0.000438	4.381461	0.742240	0.000044
 137	1.3532e+01	1.3508	-11.351008	0.000409	4.094824	0.693682	0.000041
 138	1.3632e+01	1.3592	-11.304163	0.000471	4.709047	0.797734	0.000047
 139	1.3731e+01	1.3720	-11.258541	0.000459	4.586202	0.776924	0.000046
 140	1.3831e+01	1.3779	-11.212104	0.000467	4.668099	0.790797	0.000047
 141	1.3930e+01	1.3879	-11.170962	0.000414	4.135772	0.700619	0.000041
 142	1.4030e+01	1.3990	-11.126154	0.000450	4.504306	0.763050	0.000045
 143	1.4129e+01	1.4108	-11.087864	0.000385	3.849134	0.652061	0.000038
 144	1.4229e+01	1.4177	-11.041835	0.000463	4.627151	0.783861	0.000046
 145	1.4328e+01	1.4316	-10.998249	0.000438	4.381461	0.742240	0.000044
 146	1.4428e+01	1.4381	-10.959551	0.000389	3.890082	0.658998	0.000039
 147	1.4527e+01	1.4463	-10.915558	0.000442	4.422409	0.749176	0.000044
 148	1.4627e+01	1.4573	-10.876861	0.000389	3.890082	0.658998	0.000039
 149	1.4726e+01	1.4685	-10.832053	0.000450	4.504306	0.763050	0.000045
 150	1.4825e+01	1.4787	-10.787653	0.000446	4.463358	0.756113	0.000045
 151	1.4925e+01	1.4869	-10.746104	0.000418	4.176720	0.707556	0.000042
 152	1.5024e+01	1.4948	-10.702518	0.000438	4.381461	0.742240	0.000044
 153	1.5124e+01	1.5069	-10.663821	0.000389	3.890082	0.658998	0.000039
 154	1.5223e+01	1.5150	-10.623494	0.000405	4.053875	0.686745	0.000041
 155	1.5323e+01	1.5273	-10.579501	0.000442	4.422409	0.749176	0.000044
 156	1.5422e+01	1.5366	-10.539174	0.000405	4.053875	0.686745	0.000041
 157	1.5522e+01	1.5477	-10.500476	0.000389	3.890082	0.658998	0.000039
 158	1.5621e+01	1.5582	-10.453225	0.000475	4.749995	0.804671	0.000047
 159	1.5721e+01	1.5648	-10.416971	0.000364	3.644393	0.617377	0.000036
 160	1.5820e+01	1.5786	-10.377459	0.000397	3.971979	0.672871	0.000040
 161	1.5920e+01	1.5885	-10.334688	0.000430	4.299565	0.728366	0.000043
 162	1.6020e+01	1.5946	-10.298027	0.000369	3.685341	0.624314	0.000037
 163	1.6119e+01	1.6084	-10.256885	0.000414	4.135772	0.700619	0.000041
 164	1.6218e+01	1.6152	-10.219003	0.000381	3.808186	0.645124	0.000038
 165	1.6318e+01	1.6286	-10.181527	0.000377	3.767238	0.638187	0.000038
 166	1.6418e+01	1.6351	-10.141200	0.000405	4.053875	0.686745	0.000041
 167	1.6517e+01	1.6464	-10.100466	0.000409	4.094824	0.693682	0.000041
 168	1.6616e+01	1.6584	-10.062990	0.000377	3.767238	0.638187	0.000038
 169	1.6716e+01	1.6683	-10.020627	0.000426	4.258617	0.721429	0.000043
 170	1.6816e+01	1.6776	-9.983559	0.000373	3.726289	0.631251	0.000037
 171	1.6915e+01	1.6883	-9.942010	0.000418	4.176720	0.707556	0.000042
 172	1.7015e+01	1.6981	-9.906571	0.000356	3.562497	0.603503	0.000036
 173	1.7114e+01	1.7075	-9.865022	0.000418	4.176720	0.707556	0.000042
 174	1.7213e+01	1.7155	-9.828361	0.000369	3.685341	0.624314	0.000037
 175	1.7313e+01	1.7279	-9.789664	0.000389	3.890082	0.658998	0.000039
 176	1.7413e+01	1.7381	-9.745671	0.000442	4.422409	0.749176	0.000044
 177	1.7512e+01	1.7471	-9.709824	0.000360	3.603445	0.610440	0.000036
 178	1.7611e+01	1.7569	-9.671127	0.000389	3.890082	0.658998	0.000039
 179	1.7711e+01	1.7672	-9.629171	0.000422	4.217668	0.714492	0.000042
 180	1.7811e+01	1.7757	-9.591288	0.000381	3.808186	0.645124	0.000038
 181	1.7910e+01	1.7902	-9.550146	0.000414	4.135772	0.700619	0.000041
 182	1.8009e+01	1.7968	-9.511449	0.000389	3.890082	0.658998	0.000039
 183	1.8109e+01	1.8100	-9.471529	0.000401	4.012927	0.679808	0.000040
 184	1.8209e+01	1.8163	-9.429980	0.000418	4.176720	0.707556	0.000042
 185	1.8308e+01	1.8277	-9.388024	0.000422	4.217668	0.714492	0.000042
 186	1.8407e+01	1.8356	-9.348104	0.000401	4.012927	0.679808	0.000040
 187	1.8507e+01	1.8468	-9.310221	0.000381	3.808186	0.645124	0.000038
 188	1.8607e+01	1.8569	-9.267858	0.000426	4.258617	0.721429	0.000043
 189	1.8706e+01	1.8665	-9.224679	0.000434	4.340513	0.735303	0.000043
 190	1.8805e+01	1.8750	-9.185167	0.000397	3.971979	0.672871	0.000040
 191	1.8905e+01	1.8837	-9.145655	0.000397	3.971979	0.672871	0.000040
 192	1.9005e+01	1.8967	-9.108994	0.000369	3.685341	0.624314	0.000037
 193	1.9104e+01	1.9070	-9.066631	0.000426	4.258617	0.721429	0.000043
 194	1.9203e+01	1.9155	-9.022230	0.000446	4.463358	0.756113	0.000045
 195	1.9303e+01	1.9247	-8.984347	0.000381	3.808186	0.645124	0.000038
 196	1.9402e+01	1.9367	-8.939540	0.000450	4.504306	0.763050	0.000045
 197	1.9502e+01	1.9471	-8.902879	0.000369	3.685341	0.624314	0.000037
 198	1.9602e+01	1.9554	-8.864589	0.000385	3.849134	0.652061	0.000038
 199	1.9701e+01	1.9684	-8.819374	0.000455	4.545254	0.769987	0.000045
 200	1.9800e+01	1.9744	-8.778639	0.000409	4.094824	0.693682	0.000041
 201	1.9900e+01	1.9892	-8.739127	0.000397	3.971979	0.672871	0.000040
 202	2.0000e+01	1.9949	-8.698800	0.000405	4.053875	0.686745	0.000041
 203	2.0099e+01	2.0047	-8.656844	0.000422	4.217668	0.714492	0.000042
 204	2.0198e+01	2.0174	-8.614888	0.000422	4.217668	0.714492	0.000042
 205	2.0298e+01	2.0283	-8.579449	0.000356	3.562497	0.603503	0.000036
 206	2.0398e+01	2.0345	-8.537900	0.000418	4.176720	0.707556	0.000042
 207	2.0497e+01	2.0438	-8.493500	0.000446	4.463358	0.756113	0.000045
 208	2.0596e+01	2.0549	-8.458875	0.000348	3.480600	0.589630	0.000035
 209	2.0696e+01	2.0630	-8.420993	0.000381	3.808186	0.645124	0.000038
 210	2.0796e+01	2.0742	-8.380258	0.000409	4.094824	0.693682	0.000041
 211	2.0895e+01	2.0860	-8.343597	0.000369	3.685341	0.624314	0.000037
 212	2.0994e+01	2.0954	-8.308566	0.000352	3.521548	0.596566	0.000035
 213	2.1094e+01	2.1062	-8.262536	0.000463	4.627151	0.783861	0.000046
 214	2.1194e+01	2.1150	-8.224653	0.000381	3.808186	0.645124	0.000038
 215	2.1293e+01	2.1230	-8.184327	0.000405	4.053875	0.686745	0.000041
 216	2.1392e+01	2.1338	-8.141556	0.000430	4.299565	0.728366	0.000043
 217	2.1492e+01	2.1478	-8.101636	0.000401	4.012927	0.679808	0.000040
 218	2.1591e+01	2.1550	-8.061309	0.000405	4.053875	0.686745	0.000041
 219	2.1691e+01	2.1637	-8.026278	0.000352	3.521548	0.596566	0.000035
 220	2.1791e+01	2.1748	-7.986765	0.000397	3.971979	0.672871	0.000040
 221	2.1890e+01	2.1854	-7.949290	0.000377	3.767238	0.638187	0.000038
 222	2.1989e+01	2.1938	-7.911814	0.000377	3.767238	0.638187	0.000038
 223	2.2089e+01	2.2070	-7.870265	0.000418	4.176720	0.707556	0.000042
 224	2.2189e+01	2.2159	-7.832790	0.000377	3.767238	0.638187	0.000038
 225	2.2288e+01	2.2256	-7.792056	0.000409	4.094824	0.693682	0.000041
 226	2.2387e+01	2.2333	-7.752543	0.000397	3.971979	0.672871	0.000040
 227	2.2487e+01	2.2453	-7.713846	0.000389	3.890082	0.658998	0.000039
 228	2.2587e+01	2.2529	-7.672297	0.000418	4.176720	0.707556	0.000042
 229	2.2686e+01	2.2652	-7.634007	0.000385	3.849134	0.652061	0.000038
 230	2.2785e+01	2.2730	-7.590828	0.000434	4.340513	0.735303	0.000043
 231	2.2885e+01	2.2857	-7.548057	0.000430	4.299565	0.728366	0.000043
 232	2.2985e+01	2.2948	-7.508953	0.000393	3.931031	0.665935	0.000039
 233	2.3084e+01	2.3039	-7.466182	0.000430	4.299565	0.728366	0.000043
 234	2.3183e+01	2.3121	-7.426262	0.000401	4.012927	0.679808	0.000040
 235	2.3283e+01	2.3243	-7.385935	0.000405	4.053875	0.686745	0.000041
 236	2.3383e+01	2.3354	-7.344386	0.000418	4.176720	0.707556	0.000042
 237	2.3482e+01	2.3421	-7.306096	0.000385	3.849134	0.652061	0.000038
 238	2.3581e+01	2.3550	-7.265362	0.000409	4.094824	0.693682	0.000041
 239	2.3681e+01	2.3660	-7.221369	0.000442	4.422409	0.749176	0.000044
 240	2.3780e+01	2.3748	-7.181042	0.000405	4.053875	0.686745	0.000041
 241	2.3880e+01	2.3839	-7.136642	0.000446	4.463358	0.756113	0.000045
 242	2.3980e+01	2.3957	-7.098351	0.000385	3.849134	0.652061	0.000038
 243	2.4079e+01	2.4033	-7.058432	0.000401	4.012927	0.679808	0.000040
 244	2.4178e+01	2.4131	-7.013624	0.000450	4.504306	0.763050	0.000045
 245	2.4278e+01	2.4236	-6.970853	0.000430	4.299565	0.728366	0.000043
 246	2.4378e+01	2.4354	-6.927675	0.000434	4.340513	0.735303	0.000043
 247	2.4477e+01	2.4447	-6.885718	0.000422	4.217668	0.714492	0.000042
 248	2.4576e+01	2.4547	-6.840911	0.000450	4.504306	0.763050	0.000045
 249	2.4676e+01	2.4636	-6.798140	0.000430	4.299565	0.728366	0.000043
 250	2.4776e+01	2.4754	-6.759442	0.000389	3.890082	0.658998	0.000039
 251	2.4875e+01	2.4821	-6.715857	0.000438	4.381461	0.742240	0.000044
 252	2.4974e+01	2.4932	-6.675530	0.000405	4.053875	0.686745	0.000041
 253	2.5074e+01	2.5017	-6.632759	0.000430	4.299565	0.728366	0.000043
 254	2.5174e+01	2.5135	-6.591210	0.000418	4.176720	0.707556	0.000042
 255	2.5273e+01	2.5218	-6.547217	0.000442	4.422409	0.749176	0.000044
 256	2.5372e+01	2.5322	-6.507705	0.000397	3.971979	0.672871	0.000040
 257	2.5472e+01	2.5448	-6.464119	0.000438	4.381461	0.742240	0.000044
 258	2.5572e+01	2.5560	-6.419311	0.000450	4.504306	0.763050	0.000045
 259	2.5671e+01	2.5645	-6.378577	0.000409	4.094824	0.693682	0.000041
 260	2.5770e+01	2.5703	-6.334177	0.000446	4.463358	0.756113	0.000045
 261	2.5870e+01	2.5834	-6.290591	0.000438	4.381461	0.742240	0.000044
 262	2.5970e+01	2.5935	-6.249857	0.000409	4.094824	0.693682	0.000041
 263	2.6069e+01	2.6012	-6.211567	0.000385	3.849134	0.652061	0.000038
 264	2.6169e+01	2.6089	-6.167981	0.000438	4.381461	0.742240	0.000044
 265	2.6268e+01	2.6223	-6.123581	0.000446	4.463358	0.756113	0.000045
 266	2.6367e+01	2.6348	-6.086105	0.000377	3.767238	0.638187	0.000038
 267	2.6467e+01	2.6435	-6.044556	0.000418	4.176720	0.707556	0.000042
 268	2.6567e+01	2.6519	-6.004637	0.000401	4.012927	0.679808	0.000040
 269	2.6666e+01	2.6636	-5.964717	0.000401	4.012927	0.679808	0.000040
 270	2.6765e+01	2.6730	-5.929278	0.000356	3.562497	0.603503	0.000036
 271	2.6865e+01	2.6843	-5.884063	0.000455	4.545254	0.769987	0.000045
 272	2.6965e+01	2.6913	-5.844144	0.000401	4.012927	0.679808	0.000040
 273	2.7064e+01	2.7045	-5.805039	0.000393	3.931031	0.665935	0.000039
 274	2.7163e+01	2.7123	-5.767563	0.000377	3.767238	0.638187	0.000038
 275	2.7263e+01	2.7241	-5.720719	0.000471	4.709047	0.797734	0.000047
 276	2.7363e+01	2.7315	-5.681614	0.000393	3.931031	0.665935	0.000039
 277	2.7462e+01	2.7415	-5.644138	0.000377	3.767238	0.638187	0.000038
 278	2.7561e+01	2.7538	-5.597701	0.000467	4.668099	0.790797	0.000047
 279	2.7661e+01	2.7660	-5.561041	0.000369	3.685341	0.624314	0.000037
 280	2.7761e+01	2.7705	-5.523972	0.000373	3.726289	0.631251	0.000037
 281	2.7860e+01	2.7800	-5.479979	0.000442	4.422409	0.749176	0.000044
 282	2.7959e+01	2.7897	-5.444541	0.000356	3.562497	0.603503	0.000036
 283	2.8059e+01	2.8028	-5.402177	0.000426	4.258617	0.721429	0.000043
 284	2.8159e+01	2.8094	-5.362257	0.000401	4.012927	0.679808	0.000040
 285	2.8258e+01	2.8226	-5.320301	0.000422	4.217668	0.714492	0.000042
 286	2.8358e+01	2.8327	-5.286492	0.000340	3.398704	0.575756	0.000034
 287	2.8457e+01	2.8419	-5.246979	0.000397	3.971979	0.672871	0.000040
 288	2.8556e+01	2.8528	-5.207467	0.000397	3.971979	0.672871	0.000040
 289	2.8656e+01	2.8632	-5.169992	0.000377	3.767238	0.638187	0.000038
 290	2.8756e+01	2.8712	-5.130072	0.000401	4.012927	0.679808	0.000040
 291	2.8855e+01	2.8796	-5.089338	0.000409	4.094824	0.693682	0.000041
 292	2.8954e+01	2.8923	-5.048604	0.000409	4.094824	0.693682	0.000041
 293	2.9054e+01	2.9022	-5.007055	0.000418	4.176720	0.707556	0.000042
 294	2.9154e+01	2.9113	-4.965913	0.000414	4.135772	0.700619	0.000041
 295	2.9253e+01	2.9224	-4.925179	0.000409	4.094824	0.693682	0.000041
 296	2.9352e+01	2.9317	-4.881186	0.000442	4.422409	0.749176	0.000044
 297	2.9452e+01	2.9426	-4.842081	0.000393	3.931031	0.665935	0.000039
 298	2.9552e+01	2.9546	-4.801347	0.000409	4.094824	0.693682	0.000041
 299	2.9651e+01	2.9583	-4.763056	0.000385	3.849134	0.652061	0.000038
 300	2.9750e+01	2.9715	-4.726803	0.000364	3.644393	0.617377	0.000036
 301	2.9850e+01	2.9800	-4.686476	0.000405	4.053875	0.686745	0.000041
 302	2.9950e+01	2.9941	-4.649001	0.000377	3.767238	0.638187	0.000038
 303	3.0049e+01	3.0010	-4.606637	0.000426	4.258617	0.721429	0.000043
 304	3.0148e+01	3.0118	-4.563051	0.000438	4.381461	0.742240	0.000044
 305	3.0248e+01	3.0200	-4.525168	0.000381	3.808186	0.645124	0.000038
 306	3.0348e+01	3.0309	-4.484027	0.000414	4.135772	0.700619	0.000041
 307	3.0447e+01	3.0422	-4.442885	0.000414	4.135772	0.700619	0.000041
 308	3.0547e+01	3.0515	-4.402558	0.000405	4.053875	0.686745	0.000041
 309	3.0646e+01	3.0608	-4.362639	0.000401	4.012927	0.679808	0.000040
 310	3.0745e+01	3.0688	-4.327200	0.000356	3.562497	0.603503	0.000036
 311	3.0845e+01	3.0795	-4.286058	0.000414	4.135772	0.700619	0.000041
 312	3.0945e+01	3.0931	-4.246953	0.000393	3.931031	0.665935	0.000039
 313	3.1044e+01	3.1017	-4.207849	0.000393	3.931031	0.665935	0.000039
 314	3.1143e+01	3.1129	-4.173224	0.000348	3.480600	0.589630	0.000035
 315	3.1243e+01	3.1197	-4.133305	0.000401	4.012927	0.679808	0.000040
 316	3.1343e+01	3.1310	-4.094200	0.000393	3.931031	0.665935	0.000039
 317	3.1442e+01	3.1390	-4.057946	0.000364	3.644393	0.617377	0.000036
 318	3.1541e+01	3.1501	-4.023322	0.000348	3.480600	0.589630	0.000035
 319	3.1641e+01	3.1596	-3.983403	0.000401	4.012927	0.679808	0.000040
 320	3.1741e+01	3.1701	-3.945113	0.000385	3.849134	0.652061	0.000038
 321	3.1840e+01	3.1811	-3.909266	0.000360	3.603445	0.610440	0.000036
 322	3.1939e+01	3.1903	-3.873420	0.000360	3.603445	0.610440	0.000036
 323	3.2039e+01	3.2003	-3.832686	0.000409	4.094824	0.693682	0.000041
 324	3.2139e+01	3.2085	-3.796433	0.000364	3.644393	0.617377	0.000036
 325	3.2238e+01	3.2189	-3.762216	0.000344	3.439652	0.582693	0.000034
 326	3.2337e+01	3.2295	-3.724740	0.000377	3.767238	0.638187	0.000038
 327	3.2437e+01	3.2389	-3.688894	0.000360	3.603445	0.610440	0.000036
 328	3.2536e+01	3.2513	-3.651011	0.000381	3.808186	0.645124	0.000038
 329	3.2636e+01	3.2615	-3.616795	0.000344	3.439652	0.582693	0.000034
 330	3.2736e+01	3.2697	-3.583800	0.000332	3.316807	0.561882	0.000033
 331	3.2835e+01	3.2783	-3.544288	0.000397	3.971979	0.672871	0.000040
 332	3.2934e+01	3.2891	-3.508441	0.000360	3.603445	0.610440	0.000036
 333	3.3034e+01	3.2967	-3.477483	0.000311	3.112066	0.527198	0.000031
 334	3.3133e+01	3.3105	-3.442045	0.000356	3.562497	0.603503	0.000036
 335	3.3233e+01	3.3209	-3.404569	0.000377	3.767238	0.638187	0.000038
 336	3.3333e+01	3.3299	-3.368316	0.000364	3.644393	0.617377	0.000036
 337	3.3432e+01	3.3401	-3.335321	0.000332	3.316807	0.561882	0.000033
 338	3.3532e+01	3.3494	-3.297845	0.000377	3.767238	0.638187	0.000038
 339	3.3631e+01	3.3619	-3.267702	0.000303	3.030169	0.513325	0.000030
 340	3.3730e+01	3.3693	-3.227782	0.000401	4.012927	0.679808	0.000040
 341	3.3830e+01	3.3796	-3.196010	0.000319	3.193962	0.541072	0.000032
 342	3.3929e+01	3.3887	-3.163015	0.000332	3.316807	0.561882	0.000033
 343	3.4029e+01	3.4003	-3.127983	0.000352	3.521548	0.596566	0.000035
 344	3.4129e+01	3.4079	-3.094174	0.000340	3.398704	0.575756	0.000034
 345	3.4228e+01	3.4206	-3.057513	0.000369	3.685341	0.624314	0.000037
 346	3.4328e+01	3.4309	-3.021667	0.000360	3.603445	0.610440	0.000036
 347	3.4427e+01	3.4405	-2.988265	0.000336	3.357755	0.568819	0.000034
 348	3.4526e+01	3.4498	-2.951604	0.000369	3.685341	0.624314	0.000037
 349	3.4626e+01	3.4583	-2.916165	0.000356	3.562497	0.603503	0.000036
 350	3.4725e+01	3.4681	-2.881134	0.000352	3.521548	0.596566	0.000035
 351	3.4825e+01	3.4821	-2.842436	0.000389	3.890082	0.658998	0.000039
 352	3.4925e+01	3.4882	-2.807405	0.000352	3.521548	0.596566	0.000035
 353	3.5024e+01	3.5024	-2.769929	0.000377	3.767238	0.638187	0.000038
 354	3.5123e+01	3.5064	-2.735305	0.000348	3.480600	0.589630	0.000035
 355	3.5223e+01	3.5189	-2.696200	0.000393	3.931031	0.665935	0.000039
 356	3.5322e+01	3.5284	-2.662798	0.000336	3.357755	0.568819	0.000034
 357	3.5422e+01	3.5371	-2.624508	0.000385	3.849134	0.652061	0.000038
 358	3.5522e+01	3.5531	-2.588662	0.000360	3.603445	0.610440	0.000036
 359	3.5621e+01	3.5567	-2.552816	0.000360	3.603445	0.610440	0.000036
 360	3.5721e+01	3.5703	-2.514933	0.000381	3.808186	0.645124	0.000038
 361	3.5820e+01	3.5786	-2.481531	0.000336	3.357755	0.568819	0.000034
 362	3.5919e+01	3.5880	-2.449351	0.000323	3.234911	0.548009	0.000032
 363	3.6019e+01	3.5956	-2.409431	0.000401	4.012927	0.679808	0.000040
 364	3.6118e+01	3.6094	-2.370326	0.000393	3.931031	0.665935	0.000039
 365	3.6218e+01	3.6196	-2.336110	0.000344	3.439652	0.582693	0.000034
 366	3.6318e+01	3.6266	-2.301485	0.000348	3.480600	0.589630	0.000035
 367	3.6417e+01	3.6384	-2.262788	0.000389	3.890082	0.658998	0.000039
 368	3.6517e+01	3.6486	-2.228164	0.000348	3.480600	0.589630	0.000035
 369	3.6616e+01	3.6573	-2.189874	0.000385	3.849134	0.652061	0.000038
 370	3.6715e+01	3.6713	-2.154842	0.000352	3.521548	0.596566	0.000035
 371	3.6815e+01	3.6777	-2.115330	0.000397	3.971979	0.672871	0.000040
 372	3.6914e+01	3.6890	-2.081113	0.000344	3.439652	0.582693	0.000034
 373	3.7014e+01	3.6983	-2.047711	0.000336	3.357755	0.568819	0.000034
 374	3.7114e+01	3.7103	-2.009013	0.000389	3.890082	0.658998	0.000039
 375	3.7213e+01	3.7186	-1.974389	0.000348	3.480600	0.589630	0.000035
 376	3.7313e+01	3.7258	-1.943024	0.000315	3.153014	0.534135	0.000032
 377	3.7412e+01	3.7383	-1.909215	0.000340	3.398704	0.575756	0.000034
 378	3.7511e+01	3.7469	-1.873368	0.000360	3.603445	0.610440	0.000036
 379	3.7611e+01	3.7589	-1.837930	0.000356	3.562497	0.603503	0.000036
 380	3.7711e+01	3.7691	-1.806157	0.000319	3.193962	0.541072	0.000032
 381	3.7810e+01	3.7747	-1.769089	0.000373	3.726289	0.631251	0.000037
 382	3.7910e+01	3.7865	-1.734057	0.000352	3.521548	0.596566	0.000035
 383	3.8009e+01	3.7981	-1.697804	0.000364	3.644393	0.617377	0.000036
 384	3.8108e+01	3.8046	-1.663587	0.000344	3.439652	0.582693	0.000034
 385	3.8208e+01	3.8174	-1.628963	0.000348	3.480600	0.589630	0.000035
 386	3.8307e+01	3.8287	-1.591080	0.000381	3.808186	0.645124	0.000038
 387	3.8407e+01	3.8412	-1.562566	0.000287	2.866377	0.485577	0.000029
 388	3.8507e+01	3.8469	-1.525498	0.000373	3.726289	0.631251	0.000037
 389	3.8606e+01	3.8589	-1.487615	0.000381	3.808186	0.645124	0.000038
 390	3.8706e+01	3.8683	-1.454213	0.000336	3.357755	0.568819	0.000034
 391	3.8805e+01	3.8791	-1.422033	0.000323	3.234911	0.548009	0.000032
 392	3.8904e+01	3.8862	-1.387409	0.000348	3.480600	0.589630	0.000035
 393	3.9004e+01	3.8963	-1.349933	0.000377	3.767238	0.638187	0.000038
 394	3.9103e+01	3.9024	-1.316124	0.000340	3.398704	0.575756	0.000034
 395	3.9203e+01	3.9156	-1.281500	0.000348	3.480600	0.589630	0.000035
 396	3.9303e+01	3.9270	-1.242395	0.000393	3.931031	0.665935	0.000039
 397	3.9402e+01	3.9375	-1.208178	0.000344	3.439652	0.582693	0.000034
 398	3.9502e+01	3.9481	-1.167444	0.000409	4.094824	0.693682	0.000041
 399	3.9601e+01	3.9555	-1.133634	0.000340	3.398704	0.575756	0.000034
 400	3.9700e+01	3.9671	-1.096566	0.000373	3.726289	0.631251	0.000037
 401	3.9800e+01	3.9759	-1.061535	0.000352	3.521548	0.596566	0.000035
 402	3.9900e+01	3.9845	-1.023244	0.000385	3.849134	0.652061	0.000038
 403	3.9999e+01	3.9971	-0.987398	0.000360	3.603445	0.610440	0.000036
 404	4.0099e+01	4.0047	-0.951960	0.000356	3.562497	0.603503	0.000036
 405	4.0198e+01	4.0141	-0.915299	0.000369	3.685341	0.624314	0.000037
 406	4.0297e+01	4.0260	-0.880675	0.000348	3.480600	0.589630	0.000035
 407	4.0397e+01	4.0373	-0.843606	0.000373	3.726289	0.631251	0.000037
 408	4.0496e+01	4.0441	-0.807353	0.000364	3.644393	0.617377	0.000036
 409	4.0596e+01	4.0559	-0.768655	0.000389	3.890082	0.658998	0.000039
 410	4.0696e+01	4.0652	-0.729551	0.000393	3.931031	0.665935	0.000039
 411	4.0795e+01	4.0757	-0.694519	0.000352	3.521548	0.596566	0.000035
 412	4.0895e+01	4.0852	-0.658673	0.000360	3.603445	0.610440	0.000036
 413	4.0994e+01	4.0966	-0.617531	0.000414	4.135772	0.700619	0.000041
 414	4.1093e+01	4.1044	-0.580056	0.000377	3.767238	0.638187	0.000038
 415	4.1193e+01	4.1155	-0.538100	0.000422	4.217668	0.714492	0.000042
 416	4.1292e+01	4.1238	-0.506734	0.000315	3.153014	0.534135	0.000032
 417	4.1392e+01	4.1338	-0.462334	0.000446	4.463358	0.756113	0.000045
 418	4.1492e+01	4.1480	-0.427302	0.000352	3.521548	0.596566	0.000035
 419	4.1591e+01	4.1553	-0.389012	0.000385	3.849134	0.652061	0.000038
 420	4.1691e+01	4.1640	-0.351537	0.000377	3.767238	0.638187	0.000038
 421	4.1790e+01	4.1762	-0.312024	0.000397	3.971979	0.672871	0.000040
 422	4.1889e+01	4.1851	-0.278215	0.000340	3.398704	0.575756	0.000034
 423	4.1989e+01	4.1946	-0.239925	0.000385	3.849134	0.652061	0.000038
 424	4.2089e+01	4.2049	-0.197154	0.000430	4.299565	0.728366	0.000043
 425	4.2188e+01	4.2166	-0.162937	0.000344	3.439652	0.582693	0.000034
 426	4.2288e+01	4.2266	-0.119351	0.000438	4.381461	0.742240	0.000044
 427	4.2387e+01	4.2352	-0.081876	0.000377	3.767238	0.638187	0.000038
 428	4.2486e+01	4.2457	-0.045215	0.000369	3.685341	0.624314	0.000037
 429	4.2586e+01	4.2541	-0.009776	0.000356	3.562497	0.603503	0.000036
 430	4.2685e+01	4.2657	0.029329	0.000393	3.931031	0.665935	0.000039
 431	4.2785e+01	4.2753	0.067619	0.000385	3.849134	0.652061	0.000038
 432	4.2885e+01	4.2825	0.104280	0.000369	3.685341	0.624314	0.000037
 433	4.2984e+01	4.2947	0.142977	0.000389	3.890082	0.658998	0.000039
 434	4.3084e+01	4.3046	0.173528	0.000307	3.071118	0.520261	0.000031
 435	4.3183e+01	4.3130	0.212633	0.000393	3.931031	0.665935	0.000039
 436	4.3282e+01	4.3229	0.245628	0.000332	3.316807	0.561882	0.000033
 437	4.3382e+01	4.3324	0.284732	0.000393	3.931031	0.665935	0.000039
 438	4.3481e+01	4.3444	0.320171	0.000356	3.562497	0.603503	0.000036
 439	4.3581e+01	4.3537	0.351537	0.000315	3.153014	0.534135	0.000032
 440	4.3681e+01	4.3638	0.390642	0.000393	3.931031	0.665935	0.000039
 441	4.3780e+01	4.3728	0.428117	0.000377	3.767238	0.638187	0.000038
 442	4.3880e+01	4.3851	0.461519	0.000336	3.357755	0.568819	0.000034
 443	4.3979e+01	4.3941	0.496551	0.000352	3.521548	0.596566	0.000035
 444	4.4078e+01	4.4039	0.533619	0.000373	3.726289	0.631251	0.000037
 445	4.4178e+01	4.4135	0.568650	0.000352	3.521548	0.596566	0.000035
 446	4.4278e+01	4.4190	0.604089	0.000356	3.562497	0.603503	0.000036
 447	4.4377e+01	4.4378	0.641972	0.000381	3.808186	0.645124	0.000038
 448	4.4477e+01	4.4439	0.675781	0.000340	3.398704	0.575756	0.000034
 449	4.4576e+01	4.4524	0.708369	0.000328	3.275859	0.554946	0.000033
 450	4.4675e+01	4.4642	0.742993	0.000348	3.480600	0.589630	0.000035
 451	4.4775e+01	4.4750	0.782098	0.000393	3.931031	0.665935	0.000039
 452	4.4874e+01	4.4849	0.816722	0.000348	3.480600	0.589630	0.000035
 453	4.4974e+01	4.4942	0.850531	0.000340	3.398704	0.575756	0.000034
 454	4.5074e+01	4.5023	0.885970	0.000356	3.562497	0.603503	0.000036
 455	4.5173e+01	4.5147	0.921002	0.000352	3.521548	0.596566	0.000035
 456	4.5273e+01	4.5222	0.955218	0.000344	3.439652	0.582693	0.000034
 457	4.5372e+01	4.5364	0.992286	0.000373	3.726289	0.631251	0.000037
 458	4.5471e+01	4.5441	1.026503	0.000344	3.439652	0.582693	0.000034
 459	4.5571e+01	4.5554	1.066830	0.000405	4.053875	0.686745	0.000041
 460	4.5670e+01	4.5589	1.099418	0.000328	3.275859	0.554946	0.000033
 461	4.5770e+01	4.5738	1.136893	0.000377	3.767238	0.638187	0.000038
 462	4.5870e+01	4.5846	1.171517	0.000348	3.480600	0.589630	0.000035
 463	4.5969e+01	4.5932	1.207771	0.000364	3.644393	0.617377	0.000036
 464	4.6069e+01	4.6053	1.243617	0.000360	3.603445	0.610440	0.000036
 465	4.6168e+01	4.6140	1.282314	0.000389	3.890082	0.658998	0.000039
 466	4.6267e+01	4.6230	1.314494	0.000323	3.234911	0.548009	0.000032
 467	4.6367e+01	4.6337	1.348711	0.000344	3.439652	0.582693	0.000034
 468	4.6467e+01	4.6418	1.387001	0.000385	3.849134	0.652061	0.000038
 469	4.6566e+01	4.6519	1.419996	0.000332	3.316807	0.561882	0.000033
 470	4.6666e+01	4.6653	1.460323	0.000405	4.053875	0.686745	0.000041
 471	4.6765e+01	4.6725	1.491688	0.000315	3.153014	0.534135	0.000032
 472	4.6864e+01	4.6826	1.529571	0.000381	3.808186	0.645124	0.000038
 473	4.6964e+01	4.6928	1.563788	0.000344	3.439652	0.582693	0.000034
 474	4.7063e+01	4.7012	1.602486	0.000389	3.890082	0.658998	0.000039
 475	4.7163e+01	4.7131	1.639554	0.000373	3.726289	0.631251	0.000037
 476	4.7263e+01	4.7218	1.675807	0.000364	3.644393	0.617377	0.000036
 477	4.7362e+01	4.7336	1.707173	0.000315	3.153014	0.534135	0.000032
 478	4.7462e+01	4.7406	1.744648	0.000377	3.767238	0.638187	0.000038
 479	4.7561e+01	4.7568	1.775606	0.000311	3.112066	0.527198	0.000031
 480	4.7660e+01	4.7612	1.809823	0.000344	3.439652	0.582693	0.000034
 481	4.7760e+01	4.7744	1.842410	0.000328	3.275859	0.554946	0.000033
 482	4.7859e+01	4.7818	1.874183	0.000319	3.193962	0.541072	0.000032
 483	4.7959e+01	4.7948	1.912066	0.000381	3.808186	0.645124	0.000038
 484	4.8059e+01	4.8029	1.944246	0.000323	3.234911	0.548009	0.000032
 485	4.8158e+01	4.8101	1.976426	0.000323	3.234911	0.548009	0.000032
 486	4.8258e+01	4.8206	2.012272	0.000360	3.603445	0.610440	0.000036
 487	4.8357e+01	4.8302	2.043638	0.000315	3.153014	0.534135	0.000032
 488	4.8456e+01	4.8403	2.074188	0.000307	3.071118	0.520261	0.000031
 489	4.8556e+01	4.8508	2.112478	0.000385	3.849134	0.652061	0.000038
 490	4.8656e+01	4.8628	2.143844	0.000315	3.153014	0.534135	0.000032
 491	4.8755e+01	4.8717	2.179283	0.000356	3.562497	0.603503	0.000036
 492	4.8855e+01	4.8797	2.209426	0.000303	3.030169	0.513325	0.000030
 493	4.8954e+01	4.8911	2.242828	0.000336	3.357755	0.568819	0.000034
 494	4.9053e+01	4.9019	2.271749	0.000291	2.907325	0.492514	0.000029
 495	4.9153e+01	4.9145	2.306374	0.000348	3.480600	0.589630	0.000035
 496	4.9252e+01	4.9227	2.337739	0.000315	3.153014	0.534135	0.000032
 497	4.9352e+01	4.9328	2.366660	0.000291	2.907325	0.492514	0.000029
 498	4.9452e+01	4.9418	2.397618	0.000311	3.112066	0.527198	0.000031
 499	4.9551e+01	4.9511	2.431428	0.000340	3.398704	0.575756	0.000034
 500	4.9651e+01	4.9625	2.462793	0.000315	3.153014	0.534135	0.000032
 501	4.9750e+01	4.9726	2.492122	0.000295	2.948273	0.499451	0.000029
 502	4.9849e+01	4.9796	2.521450	0.000295	2.948273	0.499451	0.000029
 503	4.9949e+01	4.9924	2.553630	0.000323	3.234911	0.548009	0.000032
 504	5.0048e+01	5.0020	2.586625	0.000332	3.316807	0.561882	0.000033
 505	5.0148e+01	5.0098	2.614324	0.000278	2.784480	0.471704	0.000028
 506	5.0248e+01	5.0216	2.643246	0.000291	2.907325	0.492514	0.000029
 507	5.0347e+01	5.0309	2.678685	0.000356	3.562497	0.603503	0.000036
 508	5.0447e+01	5.0422	2.708013	0.000295	2.948273	0.499451	0.000029
 509	5.0546e+01	5.0509	2.735713	0.000278	2.784480	0.471704	0.000028
 510	5.0645e+01	5.0582	2.767078	0.000315	3.153014	0.534135	0.000032
 511	5.0745e+01	5.0713	2.796407	0.000295	2.948273	0.499451	0.000029
 512	5.0844e+01	5.0784	2.826550	0.000303	3.030169	0.513325	0.000030
 513	5.0944e+01	5.0930	2.858730	0.000323	3.234911	0.548009	0.000032
 514	5.1044e+01	5.0985	2.890095	0.000315	3.153014	0.534135	0.000032
 515	5.1143e+01	5.1098	2.921053	0.000311	3.112066	0.527198	0.000031
 516	5.1242e+01	5.1210	2.952419	0.000315	3.153014	0.534135	0.000032
 517	5.1342e+01	5.1325	2.982155	0.000299	2.989221	0.506388	0.000030
 518	5.1441e+01	5.1424	3.013520	0.000315	3.153014	0.534135	0.000032
 519	5.1541e+01	5.1498	3.047737	0.000344	3.439652	0.582693	0.000034
 520	5.1641e+01	5.1623	3.077066	0.000295	2.948273	0.499451	0.000029
 521	5.1740e+01	5.1714	3.109246	0.000323	3.234911	0.548009	0.000032
 522	5.1840e+01	5.1792	3.142648	0.000336	3.357755	0.568819	0.000034
 523	5.1939e+01	5.1888	3.177272	0.000348	3.480600	0.589630	0.000035
 524	5.2038e+01	5.1974	3.209452	0.000323	3.234911	0.548009	0.000032
 525	5.2138e+01	5.2103	3.238373	0.000291	2.907325	0.492514	0.000029
 526	5.2237e+01	5.2193	3.271775	0.000336	3.357755	0.568819	0.000034
 527	5.2337e+01	5.2288	3.303955	0.000323	3.234911	0.548009	0.000032
 528	5.2437e+01	5.2390	3.335321	0.000315	3.153014	0.534135	0.000032
 529	5.2536e+01	5.2473	3.368316	0.000332	3.316807	0.561882	0.000033
 530	5.2636e+01	5.2586	3.398866	0.000307	3.071118	0.520261	0.000031
 531	5.2735e+01	5.2689	3.432268	0.000336	3.357755	0.568819	0.000034
 532	5.2834e+01	5.2776	3.462004	0.000299	2.989221	0.506388	0.000030
 533	5.2934e+01	5.2895	3.497443	0.000356	3.562497	0.603503	0.000036
 534	5.3033e+01	5.2993	3.528401	0.000311	3.112066	0.527198	0.000031
 535	5.3133e+01	5.3088	3.560989	0.000328	3.275859	0.554946	0.000033
 536	5.3233e+01	5.3209	3.591132	0.000303	3.030169	0.513325	0.000030
 537	5.3332e+01	5.3288	3.628200	0.000373	3.726289	0.631251	0.000037
 538	5.3431e+01	5.3406	3.656714	0.000287	2.866377	0.485577	0.000029
 539	5.3531e+01	5.3501	3.687672	0.000311	3.112066	0.527198	0.000031
 540	5.3630e+01	5.3599	3.722296	0.000348	3.480600	0.589630	0.000035
 541	5.3730e+01	5.3681	3.751625	0.000295	2.948273	0.499451	0.000029
 542	5.3830e+01	5.3786	3.780954	0.000295	2.948273	0.499451	0.000029
 543	5.3929e+01	5.3905	3.814763	0.000340	3.398704	0.575756	0.000034
 544	5.4029e+01	5.3985	3.844092	0.000295	2.948273	0.499451	0.000029
 545	5.4128e+01	5.4122	3.873420	0.000295	2.948273	0.499451	0.000029
 546	5.4227e+01	5.4203	3.903156	0.000299	2.989221	0.506388	0.000030
 547	5.4327e+01	5.4314	3.934522	0.000315	3.153014	0.534135	0.000032
 548	5.4426e+01	5.4416	3.963850	0.000295	2.948273	0.499451	0.000029
 549	5.4526e+01	5.4490	3.997660	0.000340	3.398704	0.575756	0.000034
 550	5.4626e+01	5.4595	4.028618	0.000311	3.112066	0.527198	0.000031
 551	5.4725e+01	5.4685	4.062427	0.000340	3.398704	0.575756	0.000034
 552	5.4825e+01	5.4794	4.089312	0.000270	2.702584	0.457830	0.000027
 553	5.4924e+01	5.4903	4.122714	0.000336	3.357755	0.568819	0.000034
 554	5.5023e+01	5.4998	4.153265	0.000307	3.071118	0.520261	0.000031
 555	5.5123e+01	5.5079	4.181779	0.000287	2.866377	0.485577	0.000029
 556	5.5222e+01	5.5206	4.211922	0.000303	3.030169	0.513325	0.000030
 557	5.5322e+01	5.5289	4.245324	0.000336	3.357755	0.568819	0.000034
 558	5.5422e+01	5.5373	4.277504	0.000323	3.234911	0.548009	0.000032
 559	5.5521e+01	5.5472	4.306018	0.000287	2.866377	0.485577	0.000029
 560	5.5620e+01	5.5578	4.337791	0.000319	3.193962	0.541072	0.000032
 561	5.5720e+01	5.5678	4.369156	0.000315	3.153014	0.534135	0.000032
 562	5.5819e+01	5.5781	4.398078	0.000291	2.907325	0.492514	0.000029
 563	5.5919e+01	5.5885	4.430258	0.000323	3.234911	0.548009	0.000032
 564	5.6019e+01	5.5996	4.463252	0.000332	3.316807	0.561882	0.000033
 565	5.6118e+01	5.6097	4.494618	0.000315	3.153014	0.534135	0.000032
 566	5.6218e+01	5.6161	4.527612	0.000332	3.316807	0.561882	0.000033
 567	5.6317e+01	5.6277	4.562237	0.000348	3.480600	0.589630	0.000035
 568	5.6416e+01	5.6368	4.591565	0.000295	2.948273	0.499451	0.000029
 569	5.6516e+01	5.6472	4.628226	0.000369	3.685341	0.624314	0.000037
 570	5.6615e+01	5.6599	4.659999	0.000319	3.193962	0.541072	0.000032
 571	5.6715e+01	5.6686	4.694623	0.000348	3.480600	0.589630	0.000035
 572	5.6815e+01	5.6783	4.721100	0.000266	2.661635	0.450893	0.000027
 573	5.6914e+01	5.6885	4.754095	0.000332	3.316807	0.561882	0.000033
 574	5.7014e+01	5.6992	4.785868	0.000319	3.193962	0.541072	0.000032
 575	5.7113e+01	5.7080	4.820492	0.000348	3.480600	0.589630	0.000035
 576	5.7212e+01	5.7159	4.853487	0.000332	3.316807	0.561882	0.000033
 577	5.7312e+01	5.7269	4.886074	0.000328	3.275859	0.554946	0.000033
 578	5.7411e+01	5.7351	4.919883	0.000340	3.398704	0.575756	0.000034
 579	5.7511e+01	5.7495	4.953285	0.000336	3.357755	0.568819	0.000034
 580	5.7611e+01	5.7579	4.988724	0.000356	3.562497	0.603503	0.000036
 581	5.7710e+01	5.7693	5.020904	0.000323	3.234911	0.548009	0.000032
 582	5.7809e+01	5.7760	5.056750	0.000360	3.603445	0.610440	0.000036
 583	5.7909e+01	5.7876	5.090560	0.000340	3.398704	0.575756	0.000034
 584	5.8008e+01	5.7995	5.124369	0.000340	3.398704	0.575756	0.000034
 585	5.8108e+01	5.8102	5.157364	0.000332	3.316807	0.561882	0.000033
 586	5.8208e+01	5.8182	5.194432	0.000373	3.726289	0.631251	0.000037
 587	5.8307e+01	5.8273	5.226612	0.000323	3.234911	0.548009	0.000032
 588	5.8407e+01	5.8373	5.260014	0.000336	3.357755	0.568819	0.000034
 589	5.8506e+01	5.8489	5.295046	0.000352	3.521548	0.596566	0.000035
 590	5.8605e+01	5.8569	5.327633	0.000328	3.275859	0.554946	0.000033
 591	5.8705e+01	5.8639	5.361035	0.000336	3.357755	0.568819	0.000034
 592	5.8804e+01	5.8778	5.400955	0.000401	4.012927	0.679808	0.000040
 593	5.8904e+01	5.8871	5.431506	0.000307	3.071118	0.520261	0.000031
 594	5.9004e+01	5.9002	5.466537	0.000352	3.521548	0.596566	0.000035
 595	5.9103e+01	5.9074	5.500346	0.000340	3.398704	0.575756	0.000034
 596	5.9203e+01	5.9166	5.530490	0.000303	3.030169	0.513325	0.000030
 597	5.9302e+01	5.9286	5.568373	0.000381	3.808186	0.645124	0.000038
 598	5.9401e+01	5.9362	5.602182	0.000340	3.398704	0.575756	0.000034
 599	5.9501e+01	5.9484	5.635992	0.000340	3.398704	0.575756	0.000034
 600	5.9600e+01	5.9539	5.666542	0.000307	3.071118	0.520261	0.000031
 601	5.9700e+01	5.9696	5.699537	0.000332	3.316807	0.561882	0.000033
 602	5.9800e+01	5.9794	5.732532	0.000332	3.316807	0.561882	0.000033
 603	5.9899e+01	5.9853	5.765526	0.000332	3.316807	0.561882	0.000033
 604	5.9998e+01	5.9943	5.797299	0.000319	3.193962	0.541072	0.000032
 605	6.0098e+01	6.0070	5.830701	0.000336	3.357755	0.568819	0.000034
 606	6.0197e+01	6.0159	5.862474	0.000319	3.193962	0.541072	0.000032
 607	6.0297e+01	6.0258	5.892617	0.000303	3.030169	0.513325	0.000030
 608	6.0397e+01	6.0369	5.921946	0.000295	2.948273	0.499451	0.000029
 609	6.0496e+01	6.0468	5.953719	0.000319	3.193962	0.541072	0.000032
 610	6.0596e+01	6.0590	5.986713	0.000332	3.316807	0.561882	0.000033
 611	6.0695e+01	6.0651	6.019301	0.000328	3.275859	0.554946	0.000033
 612	6.0794e+01	6.0767	6.052703	0.000336	3.357755	0.568819	0.000034
 613	6.0894e+01	6.0865	6.084068	0.000315	3.153014	0.534135	0.000032
 614	6.0993e+01	6.0938	6.113804	0.000299	2.989221	0.506388	0.000030
 615	6.1093e+01	6.1053	6.145577	0.000319	3.193962	0.541072	0.000032
 616	6.1193e+01	6.1163	6.178164	0.000328	3.275859	0.554946	0.000033
 617	6.1292e+01	6.1269	6.209123	0.000311	3.112066	0.527198	0.000031
 618	6.1392e+01	6.1363	6.242117	0.000332	3.316807	0.561882	0.000033
 619	6.1491e+01	6.1469	6.270224	0.000283	2.825428	0.478641	0.000028
 620	6.1590e+01	6.1578	6.302811	0.000328	3.275859	0.554946	0.000033
 621	6.1690e+01	6.1643	6.333362	0.000307	3.071118	0.520261	0.000031
 622	6.1789e+01	6.1759	6.365949	0.000328	3.275859	0.554946	0.000033
 623	6.1889e+01	6.1822	6.397722	0.000319	3.193962	0.541072	0.000032
 624	6.1989e+01	6.1958	6.429495	0.000319	3.193962	0.541072	0.000032
 625	6.2088e+01	6.2058	6.459231	0.000299	2.989221	0.506388	0.000030
 626	6.2188e+01	6.2160	6.491411	0.000323	3.234911	0.548009	0.000032
 627	6.2287e+01	6.2249	6.524813	0.000336	3.357755	0.568819	0.000034
 628	6.2386e+01	6.2360	6.561066	0.000364	3.644393	0.617377	0.000036
 629	6.2486e+01	6.2442	6.593654	0.000328	3.275859	0.554946	0.000033
 630	6.2586e+01	6.2574	6.620131	0.000266	2.661635	0.450893	0.000027
 631	6.2685e+01	6.2676	6.655570	0.000356	3.562497	0.603503	0.000036
 632	6.2785e+01	6.2734	6.688565	0.000332	3.316807	0.561882	0.000033
 633	6.2884e+01	6.2875	6.719930	0.000315	3.153014	0.534135	0.000032
 634	6.2983e+01	6.2926	6.749666	0.000299	2.989221	0.506388	0.000030
 635	6.3083e+01	6.3056	6.774921	0.000254	2.538791	0.430083	0.000025
 636	6.3182e+01	6.3158	6.811582	0.000369	3.685341	0.624314	0.000037
 637	6.3282e+01	6.3243	6.842540	0.000311	3.112066	0.527198	0.000031
 638	6.3382e+01	6.3329	6.875128	0.000328	3.275859	0.554946	0.000033
 639	6.3481e+01	6.3425	6.910159	0.000352	3.521548	0.596566	0.000035
 640	6.3581e+01	6.3549	6.943154	0.000332	3.316807	0.561882	0.000033
 641	6.3680e+01	6.3659	6.973297	0.000303	3.030169	0.513325	0.000030
 642	6.3779e+01	6.3754	7.005477	0.000323	3.234911	0.548009	0.000032
 643	6.3879e+01	6.3854	7.039694	0.000344	3.439652	0.582693	0.000034
 644	6.3978e+01	6.3944	7.068208	0.000287	2.866377	0.485577	0.000029
 645	6.4078e+01	6.4063	7.100795	0.000328	3.275859	0.554946	0.000033
 646	6.4177e+01	6.4120	7.126865	0.000262	2.620687	0.443956	0.000026
 647	6.4277e+01	6.4283	7.159453	0.000328	3.275859	0.554946	0.000033
 648	6.4376e+01	6.4318	7.191633	0.000323	3.234911	0.548009	0.000032
 649	6.4476e+01	6.4445	7.219739	0.000283	2.825428	0.478641	0.000028
 650	6.4576e+01	6.4551	7.251512	0.000319	3.193962	0.541072	0.000032
 651	6.4675e+01	6.4654	7.280433	0.000291	2.907325	0.492514	0.000029
 652	6.4775e+01	6.4732	7.309762	0.000295	2.948273	0.499451	0.000029
 653	6.4874e+01	6.4844	7.336239	0.000266	2.661635	0.450893	0.000027
 654	6.4974e+01	6.4914	7.367605	0.000315	3.153014	0.534135	0.000032
 655	6.5073e+01	6.5044	7.402229	0.000348	3.480600	0.589630	0.000035
 656	6.5172e+01	6.5133	7.428299	0.000262	2.620687	0.443956	0.000026
 657	6.5272e+01	6.5228	7.459664	0.000315	3.153014	0.534135	0.000032
 658	6.5371e+01	6.5321	7.490215	0.000307	3.071118	0.520261	0.000031
 659	6.5471e+01	6.5426	7.517099	0.000270	2.702584	0.457830	0.000027
 660	6.5570e+01	6.5527	7.546021	0.000291	2.907325	0.492514	0.000029
 661	6.5670e+01	6.5645	7.575757	0.000299	2.989221	0.506388	0.000030
 662	6.5769e+01	6.5733	7.604678	0.000291	2.907325	0.492514	0.000029
 663	6.5869e+01	6.5841	7.629933	0.000254	2.538791	0.430083	0.000025
 664	6.5969e+01	6.5930	7.655189	0.000254	2.538791	0.430083	0.000025
 665	6.6068e+01	6.6018	7.685332	0.000303	3.030169	0.513325	0.000030
 666	6.6168e+01	6.6115	7.710994	0.000258	2.579739	0.437020	0.000026
 667	6.6267e+01	6.6228	7.740323	0.000295	2.948273	0.499451	0.000029
 668	6.6367e+01	6.6302	7.768430	0.000283	2.825428	0.478641	0.000028
 669	6.6466e+01	6.6460	7.794907	0.000266	2.661635	0.450893	0.000027
 670	6.6566e+01	6.6545	7.823828	0.000291	2.907325	0.492514	0.000029
 671	6.6665e+01	6.6628	7.847862	0.000242	2.415946	0.409272	0.000024
 672	6.6764e+01	6.6741	7.877190	0.000295	2.948273	0.499451	0.000029
 673	6.6864e+01	6.6827	7.904075	0.000270	2.702584	0.457830	0.000027
 674	6.6963e+01	6.6924	7.930552	0.000266	2.661635	0.450893	0.000027
 675	6.7063e+01	6.7062	7.958251	0.000278	2.784480	0.471704	0.000028
 676	6.7162e+01	6.7116	7.983507	0.000254	2.538791	0.430083	0.000025
 677	6.7262e+01	6.7203	8.013650	0.000303	3.030169	0.513325	0.000030
 678	6.7362e+01	6.7358	8.036869	0.000233	2.334049	0.395399	0.000023
 679	6.7461e+01	6.7407	8.065790	0.000291	2.907325	0.492514	0.000029
 680	6.7561e+01	6.7501	8.091045	0.000254	2.538791	0.430083	0.000025
 681	6.7660e+01	6.7660	8.118744	0.000278	2.784480	0.471704	0.000028
 682	6.7760e+01	6.7715	8.146444	0.000278	2.784480	0.471704	0.000028
 683	6.7859e+01	6.7785	8.174958	0.000287	2.866377	0.485577	0.000029
 684	6.7959e+01	6.7903	8.203064	0.000283	2.825428	0.478641	0.000028
 685	6.8058e+01	6.8027	8.229134	0.000262	2.620687	0.443956	0.000026
 686	6.8157e+01	6.8105	8.260092	0.000311	3.112066	0.527198	0.000031
 687	6.8257e+01	6.8234	8.286977	0.000270	2.702584	0.457830	0.000027
 688	6.8356e+01	6.8328	8.314676	0.000278	2.784480	0.471704	0.000028
 689	6.8456e+01	6.8432	8.344005	0.000295	2.948273	0.499451	0.000029
 690	6.8555e+01	6.8511	8.373333	0.000295	2.948273	0.499451	0.000029
 691	6.8655e+01	6.8629	8.405514	0.000323	3.234911	0.548009	0.000032
 692	6.8754e+01	6.8729	8.432398	0.000270	2.702584	0.457830	0.000027
 693	6.8854e+01	6.8812	8.464578	0.000323	3.234911	0.548009	0.000032
 694	6.8954e+01	6.8901	8.492278	0.000278	2.784480	0.471704	0.000028
 695	6.9053e+01	6.9008	8.520384	0.000283	2.825428	0.478641	0.000028
 696	6.9153e+01	6.9096	8.548491	0.000283	2.825428	0.478641	0.000028
 697	6.9252e+01	6.9201	8.573746	0.000254	2.538791	0.430083	0.000025
 698	6.9352e+01	6.9318	8.601038	0.000274	2.743532	0.464767	0.000027
 699	6.9451e+01	6.9417	8.630774	0.000299	2.989221	0.506388	0.000030
 700	6.9550e+01	6.9480	8.660917	0.000303	3.030169	0.513325	0.000030
 701	6.9650e+01	6.9620	8.691468	0.000307	3.071118	0.520261	0.000031
 702	6.9749e+01	6.9714	8.719575	0.000283	2.825428	0.478641	0.000028
 703	6.9849e+01	6.9792	8.746052	0.000266	2.661635	0.450893	0.000027
 704	6.9948e+01	6.9892	8.773751	0.000278	2.784480	0.471704	0.000028
 705	7.0048e+01	7.0000	8.802673	0.000291	2.907325	0.492514	0.000029
 706	7.0147e+01	7.0107	8.834853	0.000323	3.234911	0.548009	0.000032
 707	7.0247e+01	7.0215	8.864181	0.000295	2.948273	0.499451	0.000029
 708	7.0347e+01	7.0303	8.889437	0.000254	2.538791	0.430083	0.000025
 709	7.0446e+01	7.0418	8.917543	0.000283	2.825428	0.478641	0.000028
 710	7.0546e+01	7.0490	8.942798	0.000254	2.538791	0.430083	0.000025
 711	7.0645e+01	7.0596	8.970905	0.000283	2.825428	0.478641	0.000028
 712	7.0745e+01	7.0705	8.997382	0.000266	2.661635	0.450893	0.000027
 713	7.0844e+01	7.0795	9.025489	0.000283	2.825428	0.478641	0.000028
 714	7.0944e+01	7.0911	9.057262	0.000319	3.193962	0.541072	0.000032
 715	7.1043e+01	7.0996	9.078443	0.000213	2.129308	0.360715	0.000021
 716	7.1142e+01	7.1094	9.109401	0.000311	3.112066	0.527198	0.000031
 717	7.1242e+01	7.1217	9.139952	0.000307	3.071118	0.520261	0.000031
 718	7.1341e+01	7.1304	9.165207	0.000254	2.538791	0.430083	0.000025
 719	7.1441e+01	7.1411	9.196165	0.000311	3.112066	0.527198	0.000031
 720	7.1540e+01	7.1496	9.220199	0.000242	2.415946	0.409272	0.000024
 721	7.1640e+01	7.1603	9.245861	0.000258	2.579739	0.437020	0.000026
 722	7.1740e+01	7.1709	9.276005	0.000303	3.030169	0.513325	0.000030
 723	7.1839e+01	7.1837	9.303704	0.000278	2.784480	0.471704	0.000028
 724	7.1939e+01	7.1890	9.330588	0.000270	2.702584	0.457830	0.000027
 725	7.2038e+01	7.1990	9.352992	0.000225	2.252153	0.381525	0.000023
 726	7.2138e+01	7.2083	9.383543	0.000307	3.071118	0.520261	0.000031
 727	7.2237e+01	7.2192	9.410428	0.000270	2.702584	0.457830	0.000027
 728	7.2337e+01	7.2293	9.437720	0.000274	2.743532	0.464767	0.000027
 729	7.2436e+01	7.2419	9.465419	0.000278	2.784480	0.471704	0.000028
 730	7.2535e+01	7.2484	9.493933	0.000287	2.866377	0.485577	0.000029
 731	7.2635e+01	7.2616	9.528150	0.000344	3.439652	0.582693	0.000034
 732	7.2734e+01	7.2656	9.554627	0.000266	2.661635	0.450893	0.000027
 733	7.2834e+01	7.2805	9.581511	0.000270	2.702584	0.457830	0.000027
 734	7.2933e+01	7.2879	9.612470	0.000311	3.112066	0.527198	0.000031
 735	7.3033e+01	7.2979	9.643428	0.000311	3.112066	0.527198	0.000031
 736	7.3132e+01	7.3083	9.669497	0.000262	2.620687	0.443956	0.000026
 737	7.3232e+01	7.3190	9.697604	0.000283	2.825428	0.478641	0.000028
 738	7.3332e+01	7.3288	9.728562	0.000311	3.112066	0.527198	0.000031
 739	7.3431e+01	7.3406	9.759928	0.000315	3.153014	0.534135	0.000032
 740	7.3531e+01	7.3483	9.785183	0.000254	2.538791	0.430083	0.000025
 741	7.3630e+01	7.3573	9.818992	0.000340	3.398704	0.575756	0.000034
 742	7.3730e+01	7.3672	9.843025	0.000242	2.415946	0.409272	0.000024
 743	7.3829e+01	7.3772	9.874798	0.000319	3.193962	0.541072	0.000032
 744	7.3928e+01	7.3918	9.906571	0.000319	3.193962	0.541072	0.000032
 745	7.4028e+01	7.3994	9.936307	0.000299	2.989221	0.506388	0.000030
 746	7.4127e+01	7.4078	9.967672	0.000315	3.153014	0.534135	0.000032
 747	7.4227e+01	7.4198	9.997408	0.000299	2.989221	0.506388	0.000030
 748	7.4326e+01	7.4284	10.029588	0.000323	3.234911	0.548009	0.000032
 749	7.4426e+01	7.4377	10.058917	0.000295	2.948273	0.499451	0.000029
 750	7.4525e+01	7.4479	10.093541	0.000348	3.480600	0.589630	0.000035
 751	7.4625e+01	7.4609	10.119611	0.000262	2.620687	0.443956	0.000026
 752	7.4725e+01	7.4683	10.153013	0.000336	3.357755	0.568819	0.000034
 753	7.4824e+01	7.4756	10.186823	0.000340	3.398704	0.575756	0.000034
 754	7.4924e+01	7.4889	10.216151	0.000295	2.948273	0.499451	0.000029
 755	7.5023e+01	7.4984	10.247924	0.000319	3.193962	0.541072	0.000032
 756	7.5123e+01	7.5080	10.278475	0.000307	3.071118	0.520261	0.000031
 757	7.5222e+01	7.5186	10.306989	0.000287	2.866377	0.485577	0.000029
 758	7.5322e+01	7.5263	10.338761	0.000319	3.193962	0.541072	0.000032
 759	7.5421e+01	7.5416	10.371756	0.000332	3.316807	0.561882	0.000033
 760	7.5520e+01	7.5509	10.401085	0.000295	2.948273	0.499451	0.000029
 761	7.5620e+01	7.5586	10.432450	0.000315	3.153014	0.534135	0.000032
 762	7.5719e+01	7.5681	10.463001	0.000307	3.071118	0.520261	0.000031
 763	7.5819e+01	7.5784	10.491515	0.000287	2.866377	0.485577	0.000029
 764	7.5918e+01	7.5890	10.526954	0.000356	3.562497	0.603503	0.000036
 765	7.6018e+01	7.5954	10.555060	0.000283	2.825428	0.478641	0.000028
 766	7.6118e+01	7.6070	10.587648	0.000328	3.275859	0.554946	0.000033
 767	7.6217e+01	7.6180	10.618198	0.000307	3.071118	0.520261	0.000031
 768	7.6317e+01	7.6299	10.645490	0.000274	2.743532	0.464767	0.000027
 769	7.6416e+01	7.6399	10.676856	0.000315	3.153014	0.534135	0.000032
 770	7.6516e+01	7.6494	10.704555	0.000278	2.784480	0.471704	0.000028
 771	7.6615e+01	7.6611	10.733476	0.000291	2.907325	0.492514	0.000029
 772	7.6715e+01	7.6690	10.761583	0.000283	2.825428	0.478641	0.000028
 773	7.6814e+01	7.6764	10.789690	0.000283	2.825428	0.478641	0.000028
 774	7.6913e+01	7.6875	10.819018	0.000295	2.948273	0.499451	0.000029
 775	7.7013e+01	7.6981	10.850384	0.000315	3.153014	0.534135	0.000032
 776	7.7112e+01	7.7068	10.874824	0.000246	2.456894	0.416209	0.000025
 777	7.7212e+01	7.7181	10.905782	0.000311	3.112066	0.527198	0.000031
 778	7.7311e+01	7.7271	10.937962	0.000323	3.234911	0.548009	0.000032
 779	7.7411e+01	7.7380	10.964847	0.000270	2.702584	0.457830	0.000027
 780	7.7510e+01	7.7464	10.994583	0.000299	2.989221	0.506388	0.000030
 781	7.7610e+01	7.7567	11.025948	0.000315	3.153014	0.534135	0.000032
 782	7.7710e+01	7.7637	11.054462	0.000287	2.866377	0.485577	0.000029
 783	7.7809e+01	7.7775	11.087050	0.000328	3.275859	0.554946	0.000033
 784	7.7909e+01	7.7892	11.109453	0.000225	2.252153	0.381525	0.000023
 785	7.8008e+01	7.7964	11.135931	0.000266	2.661635	0.450893	0.000027
 786	7.8108e+01	7.8057	11.168111	0.000323	3.234911	0.548009	0.000032
 787	7.8207e+01	7.8174	11.195810	0.000278	2.784480	0.471704	0.000028
 788	7.8306e+01	7.8263	11.223917	0.000283	2.825428	0.478641	0.000028
 789	7.8406e+01	7.8353	11.252431	0.000287	2.866377	0.485577	0.000029
 790	7.8505e+01	7.8448	11.280945	0.000287	2.866377	0.485577	0.000029
 791	7.8605e+01	7.8564	11.308237	0.000274	2.743532	0.464767	0.000027
 792	7.8704e+01	7.8653	11.337565	0.000295	2.948273	0.499451	0.000029
 793	7.8804e+01	7.8768	11.368116	0.000307	3.071118	0.520261	0.000031
 794	7.8903e+01	7.8878	11.394186	0.000262	2.620687	0.443956	0.000026
 795	7.9003e+01	7.8964	11.426773	0.000328	3.275859	0.554946	0.000033
 796	7.9103e+01	7.9058	11.455695	0.000291	2.907325	0.492514	0.000029
 797	7.9202e+01	7.9162	11.483394	0.000278	2.784480	0.471704	0.000028
 798	7.9302e+01	7.9276	11.516389	0.000332	3.316807	0.561882	0.000033
 799	7.9401e+01	7.9379	11.546939	0.000307	3.071118	0.520261	0.000031
 800	7.9501e+01	7.9459	11.573417	0.000266	2.661635	0.450893	0.000027
 801	7.9600e+01	7.9562	11.606411	0.000332	3.316807	0.561882	0.000033
 802	7.9700e+01	7.9725	11.633296	0.000270	2.702584	0.457830	0.000027
 803	7.9799e+01	7.9771	11.663032	0.000299	2.989221	0.506388	0.000030
 804	7.9898e+01	7.9870	11.691139	0.000283	2.825428	0.478641	0.000028
 805	7.9998e+01	7.9959	11.718023	0.000270	2.702584	0.457830	0.000027
 806	8.0097e+01	8.0071	11.751425	0.000336	3.357755	0.568819	0.000034
 807	8.0197e+01	8.0164	11.779532	0.000283	2.825428	0.478641	0.000028
 808	8.0296e+01	8.0235	11.806417	0.000270	2.702584	0.457830	0.000027
 809	8.0396e+01	8.0353	11.839819	0.000336	3.357755	0.568819	0.000034
 810	8.0496e+01	8.0447	11.865074	0.000254	2.538791	0.430083	0.000025
 811	8.0595e+01	8.0568	11.896847	0.000319	3.193962	0.541072	0.000032
 812	8.0695e+01	8.0670	11.929841	0.000332	3.316807	0.561882	0.000033
 813	8.0794e+01	8.0740	11.953875	0.000242	2.415946	0.409272	0.000024
 814	8.0894e+01	8.0850	11.981166	0.000274	2.743532	0.464767	0.000027
 815	8.0993e+01	8.0952	12.008866	0.000278	2.784480	0.471704	0.000028
 816	8.1093e+01	8.1075	12.039009	0.000303	3.030169	0.513325	0.000030
 817	8.1192e+01	8.1118	12.065894	0.000270	2.702584	0.457830	0.000027
 818	8.1291e+01	8.1274	12.092778	0.000270	2.702584	0.457830	0.000027
 819	8.1391e+01	8.1350	12.118034	0.000254	2.538791	0.430083	0.000025
 820	8.1490e+01	8.1435	12.142881	0.000250	2.497842	0.423146	0.000025
 821	8.1590e+01	8.1540	12.173839	0.000311	3.112066	0.527198	0.000031
 822	8.1689e+01	8.1646	12.202761	0.000291	2.907325	0.492514	0.000029
 823	8.1789e+01	8.1763	12.227609	0.000250	2.497842	0.423146	0.000025
 824	8.1888e+01	8.1858	12.256937	0.000295	2.948273	0.499451	0.000029
 825	8.1988e+01	8.1946	12.278119	0.000213	2.129308	0.360715	0.000021
 826	8.2088e+01	8.2038	12.306226	0.000283	2.825428	0.478641	0.000028
 827	8.2187e+01	8.2142	12.333925	0.000278	2.784480	0.471704	0.000028
 828	8.2287e+01	8.2243	12.359588	0.000258	2.579739	0.437020	0.000026
 829	8.2386e+01	8.2340	12.386065	0.000266	2.661635	0.450893	0.000027
 830	8.2486e+01	8.2447	12.411320	0.000254	2.538791	0.430083	0.000025
 831	8.2585e+01	8.2537	12.438612	0.000274	2.743532	0.464767	0.000027
 832	8.2684e+01	8.2617	12.461831	0.000233	2.334049	0.395399	0.000023
 833	8.2784e+01	8.2724	12.489937	0.000283	2.825428	0.478641	0.000028
 834	8.2883e+01	8.2831	12.511934	0.000221	2.211205	0.374588	0.000022
 835	8.2983e+01	8.2951	12.538818	0.000270	2.702584	0.457830	0.000027
 836	8.3082e+01	8.3057	12.562852	0.000242	2.415946	0.409272	0.000024
 837	8.3182e+01	8.3155	12.588922	0.000262	2.620687	0.443956	0.000026
 838	8.3281e+01	8.3231	12.612140	0.000233	2.334049	0.395399	0.000023
 839	8.3381e+01	8.3334	12.640247	0.000283	2.825428	0.478641	0.000028
 840	8.3481e+01	8.3458	12.661429	0.000213	2.129308	0.360715	0.000021
 841	8.3580e+01	8.3538	12.690350	0.000291	2.907325	0.492514	0.000029
 842	8.3680e+01	8.3617	12.714383	0.000242	2.415946	0.409272	0.000024
 843	8.3779e+01	8.3748	12.736787	0.000225	2.252153	0.381525	0.000023
 844	8.3879e+01	8.3833	12.760820	0.000242	2.415946	0.409272	0.000024
 845	8.3978e+01	8.3936	12.787297	0.000266	2.661635	0.450893	0.000027
 846	8.4078e+01	8.4055	12.814997	0.000278	2.784480	0.471704	0.000028
 847	8.4177e+01	8.4146	12.835364	0.000205	2.047412	0.346841	0.000020
 848	8.4276e+01	8.4213	12.861434	0.000262	2.620687	0.443956	0.000026
 849	8.4376e+01	8.4332	12.888318	0.000270	2.702584	0.457830	0.000027
 850	8.4475e+01	8.4412	12.914796	0.000266	2.661635	0.450893	0.000027
 851	8.4575e+01	8.4554	12.939643	0.000250	2.497842	0.423146	0.000025
 852	8.4674e+01	8.4641	12.963677	0.000242	2.415946	0.409272	0.000024
 853	8.4774e+01	8.4743	12.992598	0.000291	2.907325	0.492514	0.000029
 854	8.4874e+01	8.4843	13.019483	0.000270	2.702584	0.457830	0.000027
 855	8.4973e+01	8.4942	13.042294	0.000229	2.293101	0.388462	0.000023
 856	8.5073e+01	8.5010	13.069993	0.000278	2.784480	0.471704	0.000028
 857	8.5172e+01	8.5126	13.096470	0.000266	2.661635	0.450893	0.000027
 858	8.5272e+01	8.5205	13.122948	0.000266	2.661635	0.450893	0.000027
 859	8.5371e+01	8.5324	13.148610	0.000258	2.579739	0.437020	0.000026
 860	8.5471e+01	8.5445	13.173865	0.000254	2.538791	0.430083	0.000025
 861	8.5570e+01	8.5531	13.203601	0.000299	2.989221	0.506388	0.000030
 862	8.5669e+01	8.5610	13.230486	0.000270	2.702584	0.457830	0.000027
 863	8.5769e+01	8.5719	13.254519	0.000242	2.415946	0.409272	0.000024
 864	8.5868e+01	8.5815	13.283848	0.000295	2.948273	0.499451	0.000029
 865	8.5968e+01	8.5956	13.311955	0.000283	2.825428	0.478641	0.000028
 866	8.6067e+01	8.6060	13.337210	0.000254	2.538791	0.430083	0.000025
 867	8.6167e+01	8.6149	13.364502	0.000274	2.743532	0.464767	0.000027
 868	8.6266e+01	8.6234	13.386498	0.000221	2.211205	0.374588	0.000022
 869	8.6366e+01	8.6304	13.417049	0.000307	3.071118	0.520261	0.000031
 870	8.6466e+01	8.6426	13.444341	0.000274	2.743532	0.464767	0.000027
 871	8.6565e+01	8.6510	13.473670	0.000295	2.948273	0.499451	0.000029
 872	8.6665e+01	8.6612	13.500962	0.000274	2.743532	0.464767	0.000027
 873	8.6764e+01	8.6734	13.526624	0.000258	2.579739	0.437020	0.000026
 874	8.6864e+01	8.6816	13.553916	0.000274	2.743532	0.464767	0.000027
 875	8.6963e+01	8.6926	13.578764	0.000250	2.497842	0.423146	0.000025
 876	8.7063e+01	8.7031	13.606056	0.000274	2.743532	0.464767	0.000027
 877	8.7162e+01	8.7138	13.630496	0.000246	2.456894	0.416209	0.000025
 878	8.7261e+01	8.7244	13.661454	0.000311	3.112066	0.527198	0.000031
 879	8.7361e+01	8.7325	13.681822	0.000205	2.047412	0.346841	0.000020
 880	8.7460e+01	8.7427	13.707484	0.000258	2.579739	0.437020	0.000026
 881	8.7560e+01	8.7549	13.731517	0.000242	2.415946	0.409272	0.000024
 882	8.7659e+01	8.7592	13.757995	0.000266	2.661635	0.450893	0.000027
 883	8.7759e+01	8.7726	13.784879	0.000270	2.702584	0.457830	0.000027
 884	8.7859e+01	8.7801	13.810949	0.000262	2.620687	0.443956	0.000026
 885	8.7958e+01	8.7930	13.839056	0.000283	2.825428	0.478641	0.000028
 886	8.8058e+01	8.8030	13.864718	0.000258	2.579739	0.437020	0.000026
 887	8.8157e+01	8.8117	13.892418	0.000278	2.784480	0.471704	0.000028
 888	8.8257e+01	8.8220	13.915229	0.000229	2.293101	0.388462	0.000023
 889	8.8356e+01	8.8323	13.942114	0.000270	2.702584	0.457830	0.000027
 890	8.8456e+01	8.8386	13.967776	0.000258	2.579739	0.437020	0.000026
 891	8.8555e+01	8.8525	13.992624	0.000250	2.497842	0.423146	0.000025
 892	8.8654e+01	8.8601	14.020731	0.000283	2.825428	0.478641	0.000028
 893	8.8754e+01	8.8697	14.042727	0.000221	2.211205	0.374588	0.000022
 894	8.8853e+01	8.8795	14.073278	0.000307	3.071118	0.520261	0.000031
 895	8.8953e+01	8.8924	14.099348	0.000262	2.620687	0.443956	0.000026
 896	8.9052e+01	8.9016	14.120937	0.000217	2.170257	0.367651	0.000022
 897	8.9152e+01	8.9106	14.149858	0.000291	2.907325	0.492514	0.000029
 898	8.9251e+01	8.9238	14.178372	0.000287	2.866377	0.485577	0.000029
 899	8.9351e+01	8.9314	14.204442	0.000262	2.620687	0.443956	0.000026
 900	8.9451e+01	8.9368	14.234993	0.000307	3.071118	0.520261	0.000031
 901	8.9550e+01	8.9519	14.262692	0.000278	2.784480	0.471704	0.000028
 902	8.9650e+01	8.9637	14.291206	0.000287	2.866377	0.485577	0.000029
 903	8.9749e+01	8.9722	14.316461	0.000254	2.538791	0.430083	0.000025
 904	8.9849e+01	8.9804	14.345383	0.000291	2.907325	0.492514	0.000029
 905	8.9948e+01	8.9877	14.376748	0.000315	3.153014	0.534135	0.000032
 906	9.0047e+01	9.0003	14.402411	0.000258	2.579739	0.437020	0.000026
 907	9.0147e+01	9.0098	14.430110	0.000278	2.784480	0.471704	0.000028
 908	9.0246e+01	9.0207	14.458217	0.000283	2.825428	0.478641	0.000028
 909	9.0346e+01	9.0296	14.484286	0.000262	2.620687	0.443956	0.000026
 910	9.0445e+01	9.0400	14.515244	0.000311	3.112066	0.527198	0.000031
 911	9.0545e+01	9.0497	14.543351	0.000283	2.825428	0.478641	0.000028
 912	9.0644e+01	9.0591	14.570236	0.000270	2.702584	0.457830	0.000027
 913	9.0744e+01	9.0700	14.599564	0.000295	2.948273	0.499451	0.000029
 914	9.0844e+01	9.0791	14.629300	0.000299	2.989221	0.506388	0.000030
 915	9.0943e+01	9.0876	14.665554	0.000364	3.644393	0.617377	0.000036
 916	9.1043e+01	9.0983	14.694883	0.000295	2.948273	0.499451	0.000029
 917	9.1142e+01	9.1099	14.722582	0.000278	2.784480	0.471704	0.000028
 918	9.1242e+01	9.1193	14.753540	0.000311	3.112066	0.527198	0.000031
 919	9.1341e+01	9.1290	14.785313	0.000319	3.193962	0.541072	0.000032
 920	9.1441e+01	9.1369	14.810975	0.000258	2.579739	0.437020	0.000026
 921	9.1540e+01	9.1489	14.842341	0.000315	3.153014	0.534135	0.000032
 922	9.1639e+01	9.1602	14.870855	0.000287	2.866377	0.485577	0.000029
 923	9.1739e+01	9.1677	14.900591	0.000299	2.989221	0.506388	0.000030
 924	9.1838e+01	9.1803	14.932363	0.000319	3.193962	0.541072	0.000032
 925	9.1938e+01	9.1878	14.966173	0.000340	3.398704	0.575756	0.000034
 926	9.2037e+01	9.2017	14.994687	0.000287	2.866377	0.485577	0.000029
 927	9.2137e+01	9.2104	15.024830	0.000303	3.030169	0.513325	0.000030
 928	9.2237e+01	9.2173	15.053344	0.000287	2.866377	0.485577	0.000029
 929	9.2336e+01	9.2295	15.088783	0.000356	3.562497	0.603503	0.000036
 930	9.2436e+01	9.2408	15.116482	0.000278	2.784480	0.471704	0.000028
 931	9.2535e+01	9.2507	15.147033	0.000307	3.071118	0.520261	0.000031
 932	9.2635e+01	9.2580	15.176769	0.000299	2.989221	0.506388	0.000030
 933	9.2734e+01	9.2660	15.211800	0.000352	3.521548	0.596566	0.000035
 934	9.2834e+01	9.2791	15.239500	0.000278	2.784480	0.471704	0.000028
 935	9.2933e+01	9.2883	15.266791	0.000274	2.743532	0.464767	0.000027
 936	9.3032e+01	9.2970	15.298972	0.000323	3.234911	0.548009	0.000032
 937	9.3132e+01	9.3096	15.327078	0.000283	2.825428	0.478641	0.000028
 938	9.3231e+01	9.3164	15.351926	0.000250	2.497842	0.423146	0.000025
 939	9.3331e+01	9.3273	15.382884	0.000311	3.112066	0.527198	0.000031
 940	9.3430e+01	9.3408	15.411398	0.000287	2.866377	0.485577	0.000029
 941	9.3530e+01	9.3481	15.442763	0.000315	3.153014	0.534135	0.000032
 942	9.3629e+01	9.3585	15.469241	0.000266	2.661635	0.450893	0.000027
 943	9.3729e+01	9.3691	15.494496	0.000254	2.538791	0.430083	0.000025
 944	9.3829e+01	9.3793	15.525861	0.000315	3.153014	0.534135	0.000032
 945	9.3928e+01	9.3872	15.554783	0.000291	2.907325	0.492514	0.000029
 946	9.4028e+01	9.3995	15.584519	0.000299	2.989221	0.506388	0.000030
 947	9.4127e+01	9.4080	15.614255	0.000299	2.989221	0.506388	0.000030
 948	9.4227e+01	9.4166	15.641547	0.000274	2.743532	0.464767	0.000027
 949	9.4326e+01	9.4276	15.670875	0.000295	2.948273	0.499451	0.000029
 950	9.4425e+01	9.4393	15.697760	0.000270	2.702584	0.457830	0.000027
 951	9.4525e+01	9.4511	15.726274	0.000287	2.866377	0.485577	0.000029
 952	9.4624e+01	9.4582	15.756010	0.000299	2.989221	0.506388	0.000030
 953	9.4724e+01	9.4660	15.785339	0.000295	2.948273	0.499451	0.000029
 954	9.4823e+01	9.4779	15.814260	0.000291	2.907325	0.492514	0.000029
 955	9.4923e+01	9.4873	15.842367	0.000283	2.825428	0.478641	0.000028
 956	9.5022e+01	9.4959	15.869251	0.000270	2.702584	0.457830	0.000027
 957	9.5122e+01	9.5074	15.898987	0.000299	2.989221	0.506388	0.000030
 958	9.5222e+01	9.5159	15.923835	0.000250	2.497842	0.423146	0.000025
 959	9.5321e+01	9.5277	15.956015	0.000323	3.234911	0.548009	0.000032
 960	9.5421e+01	9.5382	15.985751	0.000299	2.989221	0.506388	0.000030
 961	9.5520e+01	9.5447	16.013043	0.000274	2.743532	0.464767	0.000027
 962	9.5620e+01	9.5557	16.041964	0.000291	2.907325	0.492514	0.000029
 963	9.5719e+01	9.5667	16.071293	0.000295	2.948273	0.499451	0.000029
 964	9.5819e+01	9.5766	16.107547	0.000364	3.644393	0.617377	0.000036
 965	9.5918e+01	9.5877	16.138505	0.000311	3.112066	0.527198	0.000031
 966	9.6017e+01	9.5975	16.165796	0.000274	2.743532	0.464767	0.000027
 967	9.6117e+01	9.6069	16.198384	0.000328	3.275859	0.554946	0.000033
 968	9.6216e+01	9.6183	16.226898	0.000287	2.866377	0.485577	0.000029
 969	9.6316e+01	9.6244	16.253375	0.000266	2.661635	0.450893	0.000027
 970	9.6415e+01	9.6352	16.279038	0.000258	2.579739	0.437020	0.000026
 971	9.6515e+01	9.6456	16.309588	0.000307	3.071118	0.520261	0.000031
 972	9.6615e+01	9.6548	16.342583	0.000332	3.316807	0.561882	0.000033
 973	9.6714e+01	9.6670	16.369875	0.000274	2.743532	0.464767	0.000027
 974	9.6814e+01	9.6767	16.403277	0.000336	3.357755	0.568819	0.000034
 975	9.6913e+01	9.6845	16.432606	0.000295	2.948273	0.499451	0.000029
 976	9.7013e+01	9.6949	16.463971	0.000315	3.153014	0.534135	0.000032
 977	9.7112e+01	9.7059	16.495744	0.000319	3.193962	0.541072	0.000032
 978	9.7212e+01	9.7162	16.525887	0.000303	3.030169	0.513325	0.000030
 979	9.7311e+01	9.7266	16.552772	0.000270	2.702584	0.457830	0.000027
 980	9.7410e+01	9.7363	16.582508	0.000299	2.989221	0.506388	0.000030
 981	9.7510e+01	9.7461	16.609800	0.000274	2.743532	0.464767	0.000027
 982	9.7609e+01	9.7550	16.639536	0.000299	2.989221	0.506388	0.000030
 983	9.7709e+01	9.7649	16.669272	0.000299	2.989221	0.506388	0.000030
 984	9.7808e+01	9.7782	16.696564	0.000274	2.743532	0.464767	0.000027
 985	9.7908e+01	9.7901	16.725078	0.000287	2.866377	0.485577	0.000029
 986	9.8007e+01	9.7982	16.752370	0.000274	2.743532	0.464767	0.000027
 987	9.8107e+01	9.8059	16.782106	0.000299	2.989221	0.506388	0.000030
 988	9.8207e+01	9.8150	16.809398	0.000274	2.743532	0.464767	0.000027
 989	9.8306e+01	9.8262	16.837097	0.000278	2.784480	0.471704	0.000028
 990	9.8406e+01	9.8340	16.866426	0.000295	2.948273	0.499451	0.000029
 991	9.8505e+01	9.8486	16.892088	0.000258	2.579739	0.437020	0.000026
 992	9.8605e+01	9.8573	16.922639	0.000307	3.071118	0.520261	0.000031
 993	9.8704e+01	9.8647	16.949116	0.000266	2.661635	0.450893	0.000027
 994	9.8803e+01	9.8756	16.978852	0.000299	2.989221	0.506388	0.000030
 995	9.8903e+01	9.8866	17.009403	0.000307	3.071118	0.520261	0.000031
 996	9.9002e+01	9.8957	17.034251	0.000250	2.497842	0.423146	0.000025
 997	9.9102e+01	9.9050	17.062765	0.000287	2.866377	0.485577	0.000029
 998	9.9201e+01	9.9139	17.088835	0.000262	2.620687	0.443956	0.000026
 999	9.9301e+01	9.9229	17.115312	0.000266	2.661635	0.450893	0.000027
1000	9.9400e+01	9.9344	17.140160	0.000250	2.497842	0.423146	0.000025
1001	9.9500e+01	9.9464	17.168674	0.000287	2.866377	0.485577	0.000029
1002	9.9600e+01	9.9551	17.195966	0.000274	2.743532	0.464767	0.000027
1003	9.9699e+01	9.9670	17.220814	0.000250	2.497842	0.423146	0.000025
1004	9.9799e+01	9.9756	17.249735	0.000291	2.907325	0.492514	0.000029
1005	9.9898e+01	9.9857	17.278656	0.000291	2.907325	0.492514	0.000029
1006	9.9998e+01	9.9939	17.305541	0.000270	2.702584	0.457830	0.000027
1007	1.0010e+02	9.9866	17.284359	0.000213	2.129308	0.360715	-0.000021
1008	1.0020e+02	9.9756	17.268065	0.000164	1.637929	0.277473	-0.000016
1009	1.0030e+02	9.9683	17.248106	0.000201	2.006464	0.339904	-0.000020
1010	1.0040e+02	9.9534	17.231812	0.000164	1.637929	0.277473	-0.000016
1011	1.0050e+02	9.9471	17.209001	0.000229	2.293101	0.388462	-0.000023
1012	1.0059e+02	9.9365	17.190670	0.000184	1.842671	0.312157	-0.000018
1013	1.0069e+02	9.9245	17.173969	0.000168	1.678878	0.284410	-0.000017
1014	1.0079e+02	9.9142	17.149121	0.000250	2.497842	0.423146	-0.000025
1015	1.0089e+02	9.9061	17.132420	0.000168	1.678878	0.284410	-0.000017
1016	1.0099e+02	9.8952	17.116941	0.000156	1.556033	0.263599	-0.000016
1017	1.0109e+02	9.8853	17.093723	0.000233	2.334049	0.395399	-0.000023
1018	1.0119e+02	9.8746	17.076614	0.000172	1.719826	0.291346	-0.000017
1019	1.0129e+02	9.8657	17.058691	0.000180	1.801722	0.305220	-0.000018
1020	1.0139e+02	9.8564	17.039954	0.000188	1.883619	0.319094	-0.000019
1021	1.0149e+02	9.8457	17.022845	0.000172	1.719826	0.291346	-0.000017
1022	1.0159e+02	9.8389	17.002071	0.000209	2.088360	0.353778	-0.000021
1023	1.0169e+02	9.8273	16.983740	0.000184	1.842671	0.312157	-0.000018
1024	1.0179e+02	9.8157	16.967039	0.000168	1.678878	0.284410	-0.000017
1025	1.0189e+02	9.8067	16.948709	0.000184	1.842671	0.312157	-0.000018
1026	1.0199e+02	9.7949	16.925490	0.000233	2.334049	0.395399	-0.000023
1027	1.0209e+02	9.7884	16.912455	0.000131	1.310344	0.221978	-0.000013
1028	1.0219e+02	9.7735	16.889644	0.000229	2.293101	0.388462	-0.000023
1029	1.0229e+02	9.7669	16.872943	0.000168	1.678878	0.284410	-0.000017
1030	1.0239e+02	9.7565	16.851354	0.000217	2.170257	0.367651	-0.000022
1031	1.0248e+02	9.7471	16.829765	0.000217	2.170257	0.367651	-0.000022
1032	1.0258e+02	9.7353	16.813878	0.000160	1.596981	0.270536	-0.000016
1033	1.0268e+02	9.7279	16.792289	0.000217	2.170257	0.367651	-0.000022
1034	1.0278e+02	9.7144	16.773959	0.000184	1.842671	0.312157	-0.000018
1035	1.0288e+02	9.7063	16.753999	0.000201	2.006464	0.339904	-0.000020
1036	1.0298e+02	9.6973	16.730781	0.000233	2.334049	0.395399	-0.000023
1037	1.0308e+02	9.6894	16.713672	0.000172	1.719826	0.291346	-0.000017
1038	1.0318e+02	9.6796	16.693305	0.000205	2.047412	0.346841	-0.000020
1039	1.0328e+02	9.6661	16.672123	0.000213	2.129308	0.360715	-0.000021
1040	1.0338e+02	9.6600	16.656644	0.000156	1.556033	0.263599	-0.000016
1041	1.0348e+02	9.6449	16.636684	0.000201	2.006464	0.339904	-0.000020
1042	1.0358e+02	9.6362	16.614688	0.000221	2.211205	0.374588	-0.000022
1043	1.0368e+02	9.6289	16.586989	0.000278	2.784480	0.471704	-0.000028
1044	1.0378e+02	9.6181	16.570288	0.000168	1.678878	0.284410	-0.000017
1045	1.0388e+02	9.6070	16.551143	0.000192	1.924567	0.326030	-0.000019
1046	1.0398e+02	9.5972	16.527517	0.000237	2.374998	0.402335	-0.000024
1047	1.0408e+02	9.5864	16.506335	0.000213	2.129308	0.360715	-0.000021
1048	1.0418e+02	9.5779	16.481894	0.000246	2.456894	0.416209	-0.000025
1049	1.0428e+02	9.5669	16.461527	0.000205	2.047412	0.346841	-0.000020
1050	1.0438e+02	9.5593	16.441975	0.000197	1.965515	0.332967	-0.000020
1051	1.0447e+02	9.5448	16.417534	0.000246	2.456894	0.416209	-0.000025
1052	1.0457e+02	9.5382	16.396760	0.000209	2.088360	0.353778	-0.000021
1053	1.0467e+02	9.5288	16.378837	0.000180	1.801722	0.305220	-0.000018
1054	1.0477e+02	9.5156	16.358062	0.000209	2.088360	0.353778	-0.000021
1055	1.0487e+02	9.5044	16.339324	0.000188	1.883619	0.319094	-0.000019
1056	1.0497e+02	9.4986	16.313662	0.000258	2.579739	0.437020	-0.000026
1057	1.0507e+02	9.4873	16.296146	0.000176	1.760774	0.298283	-0.000018
1058	1.0517e+02	9.4783	16.271706	0.000246	2.456894	0.416209	-0.000025
1059	1.0527e+02	9.4662	16.248894	0.000229	2.293101	0.388462	-0.000023
1060	1.0537e+02	9.4588	16.226491	0.000225	2.252153	0.381525	-0.000023
1061	1.0547e+02	9.4485	16.203679	0.000229	2.293101	0.388462	-0.000023
1062	1.0557e+02	9.4385	16.181276	0.000225	2.252153	0.381525	-0.000023
1063	1.0567e+02	9.4277	16.158057	0.000233	2.334049	0.395399	-0.000023
1064	1.0577e+02	9.4193	16.137283	0.000209	2.088360	0.353778	-0.000021
1065	1.0587e+02	9.4099	16.114879	0.000225	2.252153	0.381525	-0.000023
1066	1.0597e+02	9.3994	16.096956	0.000180	1.801722	0.305220	-0.000018
1067	1.0607e+02	9.3913	16.075774	0.000213	2.129308	0.360715	-0.000021
1068	1.0617e+02	9.3787	16.058258	0.000176	1.760774	0.298283	-0.000018
1069	1.0627e+02	9.3677	16.035040	0.000233	2.334049	0.395399	-0.000023
1070	1.0637e+02	9.3579	16.017524	0.000176	1.760774	0.298283	-0.000018
1071	1.0647e+02	9.3475	15.994305	0.000233	2.334049	0.395399	-0.000023
1072	1.0656e+02	9.3385	15.972716	0.000217	2.170257	0.367651	-0.000022
1073	1.0666e+02	9.3286	15.952756	0.000201	2.006464	0.339904	-0.000020
1074	1.0676e+02	9.3201	15.930353	0.000225	2.252153	0.381525	-0.000023
1075	1.0686e+02	9.3118	15.909985	0.000205	2.047412	0.346841	-0.000020
1076	1.0696e+02	9.2983	15.890026	0.000201	2.006464	0.339904	-0.000020
1077	1.0706e+02	9.2896	15.865992	0.000242	2.415946	0.409272	-0.000024
1078	1.0716e+02	9.2783	15.848069	0.000180	1.801722	0.305220	-0.000018
1079	1.0726e+02	9.2685	15.821999	0.000262	2.620687	0.443956	-0.000026
1080	1.0736e+02	9.2579	15.803262	0.000188	1.883619	0.319094	-0.000019
1081	1.0746e+02	9.2487	15.786153	0.000172	1.719826	0.291346	-0.000017
1082	1.0756e+02	9.2392	15.767008	0.000192	1.924567	0.326030	-0.000019
1083	1.0766e+02	9.2296	15.749085	0.000180	1.801722	0.305220	-0.000018
1084	1.0776e+02	9.2188	15.727089	0.000221	2.211205	0.374588	-0.000022
1085	1.0786e+02	9.2100	15.706314	0.000209	2.088360	0.353778	-0.000021
1086	1.0796e+02	9.1971	15.688391	0.000180	1.801722	0.305220	-0.000018
1087	1.0806e+02	9.1879	15.672097	0.000164	1.637929	0.277473	-0.000016
1088	1.0816e+02	9.1797	15.648879	0.000233	2.334049	0.395399	-0.000023
1089	1.0826e+02	9.1704	15.628919	0.000201	2.006464	0.339904	-0.000020
1090	1.0836e+02	9.1579	15.610181	0.000188	1.883619	0.319094	-0.000019
1091	1.0845e+02	9.1510	15.588999	0.000213	2.129308	0.360715	-0.000021
1092	1.0855e+02	9.1383	15.573520	0.000156	1.556033	0.263599	-0.000016
1093	1.0865e+02	9.1293	15.551117	0.000225	2.252153	0.381525	-0.000023
1094	1.0875e+02	9.1187	15.527898	0.000233	2.334049	0.395399	-0.000023
1095	1.0885e+02	9.1107	15.513234	0.000147	1.474136	0.249725	-0.000015
1096	1.0895e+02	9.1001	15.491237	0.000221	2.211205	0.374588	-0.000022
1097	1.0905e+02	9.0881	15.473314	0.000180	1.801722	0.305220	-0.000018
1098	1.0915e+02	9.0827	15.451725	0.000217	2.170257	0.367651	-0.000022
1099	1.0925e+02	9.0704	15.430136	0.000217	2.170257	0.367651	-0.000022
1100	1.0935e+02	9.0610	15.410176	0.000201	2.006464	0.339904	-0.000020
1101	1.0945e+02	9.0491	15.391031	0.000192	1.924567	0.326030	-0.000019
1102	1.0955e+02	9.0387	15.371071	0.000201	2.006464	0.339904	-0.000020
1103	1.0965e+02	9.0290	15.349075	0.000221	2.211205	0.374588	-0.000022
1104	1.0975e+02	9.0171	15.327078	0.000221	2.211205	0.374588	-0.000022
1105	1.0985e+02	9.0115	15.307526	0.000197	1.965515	0.332967	-0.000020
1106	1.0995e+02	8.9999	15.284307	0.000233	2.334049	0.395399	-0.000023
1107	1.1005e+02	8.9889	15.263533	0.000209	2.088360	0.353778	-0.000021
1108	1.1015e+02	8.9811	15.238685	0.000250	2.497842	0.423146	-0.000025
1109	1.1025e+02	8.9729	15.215466	0.000233	2.334049	0.395399	-0.000023
1110	1.1035e+02	8.9582	15.196321	0.000192	1.924567	0.326030	-0.000019
1111	1.1044e+02	8.9502	15.171881	0.000246	2.456894	0.416209	-0.000025
1112	1.1054e+02	8.9383	15.151106	0.000209	2.088360	0.353778	-0.000021
1113	1.1064e+02	8.9295	15.129110	0.000221	2.211205	0.374588	-0.000022
1114	1.1074e+02	8.9209	15.105076	0.000242	2.415946	0.409272	-0.000024
1115	1.1084e+02	8.9111	15.085931	0.000192	1.924567	0.326030	-0.000019
1116	1.1094e+02	8.8977	15.064342	0.000217	2.170257	0.367651	-0.000022
1117	1.1104e+02	8.8943	15.041531	0.000229	2.293101	0.388462	-0.000023
1118	1.1114e+02	8.8785	15.017498	0.000242	2.415946	0.409272	-0.000024
1119	1.1124e+02	8.8699	14.995909	0.000217	2.170257	0.367651	-0.000022
1120	1.1134e+02	8.8604	14.973505	0.000225	2.252153	0.381525	-0.000023
1121	1.1144e+02	8.8510	14.951508	0.000221	2.211205	0.374588	-0.000022
1122	1.1154e+02	8.8435	14.924624	0.000270	2.702584	0.457830	-0.000027
1123	1.1164e+02	8.8306	14.901405	0.000233	2.334049	0.395399	-0.000023
1124	1.1174e+02	8.8206	14.882667	0.000188	1.883619	0.319094	-0.000019
1125	1.1184e+02	8.8139	14.859449	0.000233	2.334049	0.395399	-0.000023
1126	1.1194e+02	8.8037	14.835008	0.000246	2.456894	0.416209	-0.000025
1127	1.1204e+02	8.7904	14.814641	0.000205	2.047412	0.346841	-0.000020
1128	1.1214e+02	8.7832	14.790608	0.000242	2.415946	0.409272	-0.000024
1129	1.1224e+02	8.7714	14.769834	0.000209	2.088360	0.353778	-0.000021
1130	1.1234e+02	8.7622	14.749059	0.000209	2.088360	0.353778	-0.000021
1131	1.1244e+02	8.7518	14.728285	0.000209	2.088360	0.353778	-0.000021
1132	1.1253e+02	8.7415	14.706695	0.000217	2.170257	0.367651	-0.000022
1133	1.1263e+02	8.7354	14.684292	0.000225	2.252153	0.381525	-0.000023
1134	1.1273e+02	8.7231	14.662702	0.000217	2.170257	0.367651	-0.000022
1135	1.1283e+02	8.7124	14.643557	0.000192	1.924567	0.326030	-0.000019
1136	1.1293e+02	8.7029	14.615451	0.000283	2.825428	0.478641	-0.000028
1137	1.1303e+02	8.6929	14.595084	0.000205	2.047412	0.346841	-0.000020
1138	1.1313e+02	8.6802	14.570643	0.000246	2.456894	0.416209	-0.000025
1139	1.1323e+02	8.6727	14.545388	0.000254	2.538791	0.430083	-0.000025
1140	1.1333e+02	8.6642	14.527465	0.000180	1.801722	0.305220	-0.000018
1141	1.1343e+02	8.6534	14.503024	0.000246	2.456894	0.416209	-0.000025
1142	1.1353e+02	8.6423	14.482657	0.000205	2.047412	0.346841	-0.000020
1143	1.1363e+02	8.6356	14.461068	0.000217	2.170257	0.367651	-0.000022
1144	1.1373e+02	8.6223	14.438664	0.000225	2.252153	0.381525	-0.000023
1145	1.1383e+02	8.6134	14.414631	0.000242	2.415946	0.409272	-0.000024
1146	1.1393e+02	8.6016	14.395893	0.000188	1.883619	0.319094	-0.000019
1147	1.1403e+02	8.5925	14.371860	0.000242	2.415946	0.409272	-0.000024
1148	1.1413e+02	8.5831	14.349863	0.000221	2.211205	0.374588	-0.000022
1149	1.1423e+02	8.5719	14.331126	0.000188	1.883619	0.319094	-0.000019
1150	1.1433e+02	8.5625	14.303426	0.000278	2.784480	0.471704	-0.000028
1151	1.1442e+02	8.5526	14.276542	0.000270	2.702584	0.457830	-0.000027
1152	1.1452e+02	8.5435	14.252509	0.000242	2.415946	0.409272	-0.000024
1153	1.1462e+02	8.5346	14.229290	0.000233	2.334049	0.395399	-0.000023
1154	1.1472e+02	8.5226	14.202813	0.000266	2.661635	0.450893	-0.000027
1155	1.1482e+02	8.5142	14.175928	0.000270	2.702584	0.457830	-0.000027
1156	1.1492e+02	8.5025	14.154339	0.000217	2.170257	0.367651	-0.000022
1157	1.1502e+02	8.4937	14.129084	0.000254	2.538791	0.430083	-0.000025
1158	1.1512e+02	8.4814	14.103421	0.000258	2.579739	0.437020	-0.000026
1159	1.1522e+02	8.4717	14.081017	0.000225	2.252153	0.381525	-0.000023
1160	1.1532e+02	8.4645	14.052096	0.000291	2.907325	0.492514	-0.000029
1161	1.1542e+02	8.4505	14.029285	0.000229	2.293101	0.388462	-0.000023
1162	1.1552e+02	8.4430	14.001178	0.000283	2.825428	0.478641	-0.000028
1163	1.1562e+02	8.4344	13.975923	0.000254	2.538791	0.430083	-0.000025
1164	1.1572e+02	8.4245	13.951075	0.000250	2.497842	0.423146	-0.000025
1165	1.1582e+02	8.4157	13.927042	0.000242	2.415946	0.409272	-0.000024
1166	1.1592e+02	8.4037	13.898935	0.000283	2.825428	0.478641	-0.000028
1167	1.1602e+02	8.3960	13.869607	0.000295	2.948273	0.499451	-0.000029
1168	1.1612e+02	8.3844	13.843944	0.000258	2.579739	0.437020	-0.000026
1169	1.1622e+02	8.3733	13.816245	0.000278	2.784480	0.471704	-0.000028
1170	1.1632e+02	8.3636	13.789360	0.000270	2.702584	0.457830	-0.000027
1171	1.1642e+02	8.3556	13.766549	0.000229	2.293101	0.388462	-0.000023
1172	1.1651e+02	8.3442	13.737220	0.000295	2.948273	0.499451	-0.000029
1173	1.1661e+02	8.3327	13.707892	0.000295	2.948273	0.499451	-0.000029
1174	1.1671e+02	8.3237	13.682636	0.000254	2.538791	0.430083	-0.000025
1175	1.1681e+02	8.3159	13.656974	0.000258	2.579739	0.437020	-0.000026
1176	1.1691e+02	8.3057	13.628867	0.000283	2.825428	0.478641	-0.000028
1177	1.1701e+02	8.2933	13.602390	0.000266	2.661635	0.450893	-0.000027
1178	1.1711e+02	8.2852	13.573876	0.000287	2.866377	0.485577	-0.000029
1179	1.1721e+02	8.2754	13.546584	0.000274	2.743532	0.464767	-0.000027
1180	1.1731e+02	8.2630	13.519292	0.000274	2.743532	0.464767	-0.000027
1181	1.1741e+02	8.2534	13.487112	0.000323	3.234911	0.548009	-0.000032
1182	1.1751e+02	8.2455	13.463893	0.000233	2.334049	0.395399	-0.000023
1183	1.1761e+02	8.2349	13.433750	0.000303	3.030169	0.513325	-0.000030
1184	1.1771e+02	8.2227	13.406051	0.000278	2.784480	0.471704	-0.000028
1185	1.1781e+02	8.2155	13.383240	0.000229	2.293101	0.388462	-0.000023
1186	1.1791e+02	8.2032	13.353911	0.000295	2.948273	0.499451	-0.000029
1187	1.1801e+02	8.1937	13.330285	0.000237	2.374998	0.402335	-0.000024
1188	1.1811e+02	8.1858	13.304622	0.000258	2.579739	0.437020	-0.000026
1189	1.1821e+02	8.1759	13.278960	0.000258	2.579739	0.437020	-0.000026
1190	1.1831e+02	8.1645	13.251668	0.000274	2.743532	0.464767	-0.000027
1191	1.1841e+02	8.1556	13.224376	0.000274	2.743532	0.464767	-0.000027
1192	1.1850e+02	8.1459	13.201157	0.000233	2.334049	0.395399	-0.000023
1193	1.1860e+02	8.1348	13.176717	0.000246	2.456894	0.416209	-0.000025
1194	1.1870e+02	8.1246	13.149018	0.000278	2.784480	0.471704	-0.000028
1195	1.1880e+02	8.1161	13.122133	0.000270	2.702584	0.457830	-0.000027
1196	1.1890e+02	8.1049	13.096470	0.000258	2.579739	0.437020	-0.000026
1197	1.1900e+02	8.0960	13.072437	0.000242	2.415946	0.409272	-0.000024
1198	1.1910e+02	8.0859	13.044738	0.000278	2.784480	0.471704	-0.000028
1199	1.1920e+02	8.0773	13.019890	0.000250	2.497842	0.423146	-0.000025
1200	1.1930e+02	8.0640	12.993005	0.000270	2.702584	0.457830	-0.000027
1201	1.1940e+02	8.0520	12.964084	0.000291	2.907325	0.492514	-0.000029
1202	1.1950e+02	8.0473	12.941680	0.000225	2.252153	0.381525	-0.000023
1203	1.1960e+02	8.0341	12.914796	0.000270	2.702584	0.457830	-0.000027
1204	1.1970e+02	8.0247	12.889948	0.000250	2.497842	0.423146	-0.000025
1205	1.1980e+02	8.0160	12.865507	0.000246	2.456894	0.416209	-0.000025
1206	1.1990e+02	8.0063	12.840252	0.000254	2.538791	0.430083	-0.000025
1207	1.2000e+02	7.9944	12.813367	0.000270	2.702584	0.457830	-0.000027
1208	1.2010e+02	7.9857	12.786890	0.000266	2.661635	0.450893	-0.000027
1209	1.2020e+02	7.9776	12.762449	0.000246	2.456894	0.416209	-0.000025
1210	1.2030e+02	7.9667	12.738824	0.000237	2.374998	0.402335	-0.000024
1211	1.2039e+02	7.9548	12.709088	0.000299	2.989221	0.506388	-0.000030
1212	1.2049e+02	7.9446	12.682203	0.000270	2.702584	0.457830	-0.000027
1213	1.2059e+02	7.9351	12.658170	0.000242	2.415946	0.409272	-0.000024
1214	1.2069e+02	7.9253	12.625175	0.000332	3.316807	0.561882	-0.000033
1215	1.2079e+02	7.9151	12.599920	0.000254	2.538791	0.430083	-0.000025
1216	1.2089e+02	7.9044	12.571406	0.000287	2.866377	0.485577	-0.000029
1217	1.2099e+02	7.8957	12.544929	0.000266	2.661635	0.450893	-0.000027
1218	1.2109e+02	7.8849	12.515193	0.000299	2.989221	0.506388	-0.000030
1219	1.2119e+02	7.8786	12.488715	0.000266	2.661635	0.450893	-0.000027
1220	1.2129e+02	7.8663	12.463867	0.000250	2.497842	0.423146	-0.000025
1221	1.2139e+02	7.8559	12.440649	0.000233	2.334049	0.395399	-0.000023
1222	1.2149e+02	7.8490	12.411728	0.000291	2.907325	0.492514	-0.000029
1223	1.2159e+02	7.8373	12.386065	0.000258	2.579739	0.437020	-0.000026
1224	1.2169e+02	7.8260	12.358366	0.000278	2.784480	0.471704	-0.000028
1225	1.2179e+02	7.8182	12.329852	0.000287	2.866377	0.485577	-0.000029
1226	1.2189e+02	7.8053	12.303374	0.000266	2.661635	0.450893	-0.000027
1227	1.2199e+02	7.8004	12.275268	0.000283	2.825428	0.478641	-0.000028
1228	1.2209e+02	7.7878	12.251235	0.000242	2.415946	0.409272	-0.000024
1229	1.2219e+02	7.7760	12.219462	0.000319	3.193962	0.541072	-0.000032
1230	1.2229e+02	7.7657	12.194207	0.000254	2.538791	0.430083	-0.000025
1231	1.2239e+02	7.7567	12.164878	0.000295	2.948273	0.499451	-0.000029
1232	1.2248e+02	7.7464	12.137586	0.000274	2.743532	0.464767	-0.000027
1233	1.2258e+02	7.7361	12.113960	0.000237	2.374998	0.402335	-0.000024
1234	1.2268e+02	7.7283	12.091556	0.000225	2.252153	0.381525	-0.000023
1235	1.2278e+02	7.7191	12.065486	0.000262	2.620687	0.443956	-0.000026
1236	1.2288e+02	7.7072	12.038602	0.000270	2.702584	0.457830	-0.000027
1237	1.2298e+02	7.6957	12.011310	0.000274	2.743532	0.464767	-0.000027
1238	1.2308e+02	7.6875	11.986869	0.000246	2.456894	0.416209	-0.000025
1239	1.2318e+02	7.6742	11.962021	0.000250	2.497842	0.423146	-0.000025
1240	1.2328e+02	7.6669	11.937173	0.000250	2.497842	0.423146	-0.000025
1241	1.2338e+02	7.6563	11.911104	0.000262	2.620687	0.443956	-0.000026
1242	1.2348e+02	7.6458	11.886663	0.000246	2.456894	0.416209	-0.000025
1243	1.2358e+02	7.6363	11.861815	0.000250	2.497842	0.423146	-0.000025
1244	1.2368e+02	7.6283	11.833301	0.000287	2.866377	0.485577	-0.000029
1245	1.2378e+02	7.6176	11.812119	0.000213	2.129308	0.360715	-0.000021
1246	1.2388e+02	7.6077	11.785235	0.000270	2.702584	0.457830	-0.000027
1247	1.2398e+02	7.5956	11.759572	0.000258	2.579739	0.437020	-0.000026
1248	1.2408e+02	7.5874	11.736354	0.000233	2.334049	0.395399	-0.000023
1249	1.2418e+02	7.5751	11.709469	0.000270	2.702584	0.457830	-0.000027
1250	1.2428e+02	7.5675	11.689509	0.000201	2.006464	0.339904	-0.000020
1251	1.2438e+02	7.5573	11.663032	0.000266	2.661635	0.450893	-0.000027
1252	1.2447e+02	7.5456	11.641850	0.000213	2.129308	0.360715	-0.000021
1253	1.2457e+02	7.5391	11.620261	0.000217	2.170257	0.367651	-0.000022
1254	1.2467e+02	7.5298	11.599079	0.000213	2.129308	0.360715	-0.000021
1255	1.2477e+02	7.5179	11.568528	0.000307	3.071118	0.520261	-0.000031
1256	1.2487e+02	7.5077	11.545310	0.000233	2.334049	0.395399	-0.000023
1257	1.2497e+02	7.5010	11.522906	0.000225	2.252153	0.381525	-0.000023
1258	1.2507e+02	7.4876	11.495614	0.000274	2.743532	0.464767	-0.000027
1259	1.2517e+02	7.4788	11.473618	0.000221	2.211205	0.374588	-0.000022
1260	1.2527e+02	7.4694	11.453658	0.000201	2.006464	0.339904	-0.000020
1261	1.2537e+02	7.4556	11.428810	0.000250	2.497842	0.423146	-0.000025
1262	1.2547e+02	7.4490	11.404369	0.000246	2.456894	0.416209	-0.000025
1263	1.2557e+02	7.4396	11.381151	0.000233	2.334049	0.395399	-0.000023
1264	1.2567e+02	7.4319	11.360376	0.000209	2.088360	0.353778	-0.000021
1265	1.2577e+02	7.4172	11.333492	0.000270	2.702584	0.457830	-0.000027
1266	1.2587e+02	7.4100	11.311903	0.000217	2.170257	0.367651	-0.000022
1267	1.2597e+02	7.4011	11.287462	0.000246	2.456894	0.416209	-0.000025
1268	1.2607e+02	7.3911	11.262207	0.000254	2.538791	0.430083	-0.000025
1269	1.2617e+02	7.3769	11.242654	0.000197	1.965515	0.332967	-0.000020
1270	1.2627e+02	7.3707	11.213326	0.000295	2.948273	0.499451	-0.000029
1271	1.2636e+02	7.3580	11.189293	0.000242	2.415946	0.409272	-0.000024
1272	1.2646e+02	7.3489	11.160779	0.000287	2.866377	0.485577	-0.000029
1273	1.2656e+02	7.3386	11.135116	0.000258	2.579739	0.437020	-0.000026
1274	1.2666e+02	7.3322	11.111083	0.000242	2.415946	0.409272	-0.000024
1275	1.2676e+02	7.3183	11.085013	0.000262	2.620687	0.443956	-0.000026
1276	1.2686e+02	7.3104	11.056092	0.000291	2.907325	0.492514	-0.000029
1277	1.2696e+02	7.2979	11.028392	0.000278	2.784480	0.471704	-0.000028
1278	1.2706e+02	7.2890	11.005174	0.000233	2.334049	0.395399	-0.000023
1279	1.2716e+02	7.2799	10.979511	0.000258	2.579739	0.437020	-0.000026
1280	1.2726e+02	7.2702	10.953849	0.000258	2.579739	0.437020	-0.000026
1281	1.2736e+02	7.2591	10.931037	0.000229	2.293101	0.388462	-0.000023
1282	1.2746e+02	7.2495	10.902523	0.000287	2.866377	0.485577	-0.000029
1283	1.2756e+02	7.2385	10.879712	0.000229	2.293101	0.388462	-0.000023
1284	1.2766e+02	7.2289	10.849976	0.000299	2.989221	0.506388	-0.000030
1285	1.2776e+02	7.2205	10.827980	0.000221	2.211205	0.374588	-0.000022
1286	1.2786e+02	7.2112	10.797429	0.000307	3.071118	0.520261	-0.000031
1287	1.2796e+02	7.1973	10.767286	0.000303	3.030169	0.513325	-0.000030
1288	1.2806e+02	7.1900	10.745697	0.000217	2.170257	0.367651	-0.000022
1289	1.2816e+02	7.1791	10.719219	0.000266	2.661635	0.450893	-0.000027
1290	1.2826e+02	7.1680	10.691927	0.000274	2.743532	0.464767	-0.000027
1291	1.2835e+02	7.1605	10.666672	0.000254	2.538791	0.430083	-0.000025
1292	1.2845e+02	7.1490	10.639787	0.000270	2.702584	0.457830	-0.000027
1293	1.2855e+02	7.1384	10.611273	0.000287	2.866377	0.485577	-0.000029
1294	1.2865e+02	7.1307	10.587648	0.000237	2.374998	0.402335	-0.000024
1295	1.2875e+02	7.1199	10.557912	0.000299	2.989221	0.506388	-0.000030
1296	1.2885e+02	7.1115	10.536730	0.000213	2.129308	0.360715	-0.000021
1297	1.2895e+02	7.0996	10.508216	0.000287	2.866377	0.485577	-0.000029
1298	1.2905e+02	7.0913	10.488256	0.000201	2.006464	0.339904	-0.000020
1299	1.2915e+02	7.0831	10.461779	0.000266	2.661635	0.450893	-0.000027
1300	1.2925e+02	7.0703	10.436931	0.000250	2.497842	0.423146	-0.000025
1301	1.2935e+02	7.0606	10.410454	0.000266	2.661635	0.450893	-0.000027
1302	1.2945e+02	7.0529	10.382347	0.000283	2.825428	0.478641	-0.000028
1303	1.2955e+02	7.0409	10.358314	0.000242	2.415946	0.409272	-0.000024
1304	1.2965e+02	7.0300	10.329392	0.000291	2.907325	0.492514	-0.000029
1305	1.2975e+02	7.0199	10.304137	0.000254	2.538791	0.430083	-0.000025
1306	1.2985e+02	7.0102	10.277253	0.000270	2.702584	0.457830	-0.000027
1307	1.2995e+02	7.0021	10.250775	0.000266	2.661635	0.450893	-0.000027
1308	1.3005e+02	6.9903	10.227149	0.000237	2.374998	0.402335	-0.000024
1309	1.3015e+02	6.9830	10.202709	0.000246	2.456894	0.416209	-0.000025
1310	1.3025e+02	6.9725	10.177046	0.000258	2.579739	0.437020	-0.000026
1311	1.3034e+02	6.9602	10.149347	0.000278	2.784480	0.471704	-0.000028
1312	1.3044e+02	6.9534	10.123277	0.000262	2.620687	0.443956	-0.000026
1313	1.3054e+02	6.9413	10.103317	0.000201	2.006464	0.339904	-0.000020
1314	1.3064e+02	6.9338	10.073989	0.000295	2.948273	0.499451	-0.000029
1315	1.3074e+02	6.9225	10.048733	0.000254	2.538791	0.430083	-0.000025
1316	1.3084e+02	6.9126	10.019812	0.000291	2.907325	0.492514	-0.000029
1317	1.3094e+02	6.9019	9.990483	0.000295	2.948273	0.499451	-0.000029
1318	1.3104e+02	6.8938	9.963599	0.000270	2.702584	0.457830	-0.000027
1319	1.3114e+02	6.8820	9.933455	0.000303	3.030169	0.513325	-0.000030
1320	1.3124e+02	6.8723	9.908608	0.000250	2.497842	0.423146	-0.000025
1321	1.3134e+02	6.8615	9.880501	0.000283	2.825428	0.478641	-0.000028
1322	1.3144e+02	6.8507	9.850358	0.000303	3.030169	0.513325	-0.000030
1323	1.3154e+02	6.8426	9.824695	0.000258	2.579739	0.437020	-0.000026
1324	1.3164e+02	6.8333	9.795366	0.000295	2.948273	0.499451	-0.000029
1325	1.3174e+02	6.8243	9.768074	0.000274	2.743532	0.464767	-0.000027
1326	1.3184e+02	6.8151	9.740375	0.000278	2.784480	0.471704	-0.000028
1327	1.3194e+02	6.7999	9.713490	0.000270	2.702584	0.457830	-0.000027
1328	1.3204e+02	6.7921	9.683754	0.000299	2.989221	0.506388	-0.000030
1329	1.3214e+02	6.7822	9.653204	0.000307	3.071118	0.520261	-0.000031
1330	1.3224e+02	6.7706	9.623875	0.000295	2.948273	0.499451	-0.000029
1331	1.3234e+02	6.7622	9.595361	0.000287	2.866377	0.485577	-0.000029
1332	1.3243e+02	6.7538	9.563996	0.000315	3.153014	0.534135	-0.000032
1333	1.3253e+02	6.7425	9.538333	0.000258	2.579739	0.437020	-0.000026
1334	1.3263e+02	6.7352	9.502894	0.000356	3.562497	0.603503	-0.000036
1335	1.3273e+02	6.7216	9.470714	0.000323	3.234911	0.548009	-0.000032
1336	1.3283e+02	6.7115	9.442608	0.000283	2.825428	0.478641	-0.000028
1337	1.3293e+02	6.7028	9.410428	0.000323	3.234911	0.548009	-0.000032
1338	1.3303e+02	6.6941	9.380284	0.000303	3.030169	0.513325	-0.000030
1339	1.3313e+02	6.6821	9.352178	0.000283	2.825428	0.478641	-0.000028
1340	1.3323e+02	6.6714	9.321220	0.000311	3.112066	0.527198	-0.000031
1341	1.3333e+02	6.6615	9.291076	0.000303	3.030169	0.513325	-0.000030
1342	1.3343e+02	6.6528	9.260933	0.000303	3.030169	0.513325	-0.000030
1343	1.3353e+02	6.6424	9.232826	0.000283	2.825428	0.478641	-0.000028
1344	1.3363e+02	6.6330	9.199424	0.000336	3.357755	0.568819	-0.000034
1345	1.3373e+02	6.6263	9.166837	0.000328	3.275859	0.554946	-0.000033
1346	1.3383e+02	6.6119	9.136286	0.000307	3.071118	0.520261	-0.000031
1347	1.3393e+02	6.6033	9.104106	0.000323	3.234911	0.548009	-0.000032
1348	1.3403e+02	6.5944	9.076814	0.000274	2.743532	0.464767	-0.000027
1349	1.3413e+02	6.5829	9.045041	0.000319	3.193962	0.541072	-0.000032
1350	1.3423e+02	6.5731	9.013269	0.000319	3.193962	0.541072	-0.000032
1351	1.3432e+02	6.5614	8.980681	0.000328	3.275859	0.554946	-0.000033
1352	1.3442e+02	6.5548	8.952982	0.000278	2.784480	0.471704	-0.000028
1353	1.3452e+02	6.5417	8.922839	0.000303	3.030169	0.513325	-0.000030
1354	1.3462e+02	6.5354	8.891066	0.000319	3.193962	0.541072	-0.000032
1355	1.3472e+02	6.5253	8.862959	0.000283	2.825428	0.478641	-0.000028
1356	1.3482e+02	6.5127	8.835260	0.000278	2.784480	0.471704	-0.000028
1357	1.3492e+02	6.5020	8.803080	0.000323	3.234911	0.548009	-0.000032
1358	1.3502e+02	6.4927	8.771307	0.000319	3.193962	0.541072	-0.000032
1359	1.3512e+02	6.4828	8.746052	0.000254	2.538791	0.430083	-0.000025
1360	1.3522e+02	6.4755	8.715094	0.000311	3.112066	0.527198	-0.000031
1361	1.3532e+02	6.4648	8.690653	0.000246	2.456894	0.416209	-0.000025
1362	1.3542e+02	6.4544	8.660917	0.000299	2.989221	0.506388	-0.000030
1363	1.3552e+02	6.4464	8.627923	0.000332	3.316807	0.561882	-0.000033
1364	1.3562e+02	6.4346	8.596557	0.000315	3.153014	0.534135	-0.000032
1365	1.3572e+02	6.4248	8.572117	0.000246	2.456894	0.416209	-0.000025
1366	1.3582e+02	6.4144	8.542381	0.000299	2.989221	0.506388	-0.000030
1367	1.3592e+02	6.4016	8.511423	0.000311	3.112066	0.527198	-0.000031
1368	1.3602e+02	6.3944	8.484945	0.000266	2.661635	0.450893	-0.000027
1369	1.3612e+02	6.3850	8.454802	0.000303	3.030169	0.513325	-0.000030
1370	1.3622e+02	6.3715	8.423437	0.000315	3.153014	0.534135	-0.000032
1371	1.3631e+02	6.3640	8.393293	0.000303	3.030169	0.513325	-0.000030
1372	1.3641e+02	6.3526	8.363965	0.000295	2.948273	0.499451	-0.000029
1373	1.3651e+02	6.3470	8.336265	0.000278	2.784480	0.471704	-0.000028
1374	1.3661e+02	6.3342	8.307344	0.000291	2.907325	0.492514	-0.000029
1375	1.3671e+02	6.3252	8.278423	0.000291	2.907325	0.492514	-0.000029
1376	1.3681e+02	6.3163	8.249501	0.000291	2.907325	0.492514	-0.000029
1377	1.3691e+02	6.3049	8.218951	0.000307	3.071118	0.520261	-0.000031
1378	1.3701e+02	6.2933	8.189215	0.000299	2.989221	0.506388	-0.000030
1379	1.3711e+02	6.2835	8.161923	0.000274	2.743532	0.464767	-0.000027
1380	1.3721e+02	6.2753	8.130150	0.000319	3.193962	0.541072	-0.000032
1381	1.3731e+02	6.2664	8.100414	0.000299	2.989221	0.506388	-0.000030
1382	1.3741e+02	6.2536	8.067012	0.000336	3.357755	0.568819	-0.000034
1383	1.3751e+02	6.2435	8.039313	0.000278	2.784480	0.471704	-0.000028
1384	1.3761e+02	6.2353	8.003466	0.000360	3.603445	0.610440	-0.000036
1385	1.3771e+02	6.2273	7.974545	0.000291	2.907325	0.492514	-0.000029
1386	1.3781e+02	6.2169	7.946846	0.000278	2.784480	0.471704	-0.000028
1387	1.3791e+02	6.2070	7.914666	0.000323	3.234911	0.548009	-0.000032
1388	1.3801e+02	6.1954	7.884930	0.000299	2.989221	0.506388	-0.000030
1389	1.3811e+02	6.1859	7.857230	0.000278	2.784480	0.471704	-0.000028
1390	1.3821e+02	6.1768	7.825050	0.000323	3.234911	0.548009	-0.000032
1391	1.3831e+02	6.1651	7.796536	0.000287	2.866377	0.485577	-0.000029
1392	1.3840e+02	6.1538	7.764356	0.000323	3.234911	0.548009	-0.000032
1393	1.3850e+02	6.1442	7.734213	0.000303	3.030169	0.513325	-0.000030
1394	1.3860e+02	6.1367	7.702033	0.000323	3.234911	0.548009	-0.000032
1395	1.3870e+02	6.1264	7.673112	0.000291	2.907325	0.492514	-0.000029
1396	1.3880e+02	6.1182	7.637265	0.000360	3.603445	0.610440	-0.000036
1397	1.3890e+02	6.1065	7.610381	0.000270	2.702584	0.457830	-0.000027
1398	1.3900e+02	6.0955	7.581052	0.000295	2.948273	0.499451	-0.000029
1399	1.3910e+02	6.0889	7.550094	0.000311	3.112066	0.527198	-0.000031
1400	1.3920e+02	6.0769	7.523210	0.000270	2.702584	0.457830	-0.000027
1401	1.3930e+02	6.0659	7.493881	0.000295	2.948273	0.499451	-0.000029
1402	1.3940e+02	6.0564	7.464145	0.000299	2.989221	0.506388	-0.000030
1403	1.3950e+02	6.0474	7.436853	0.000274	2.743532	0.464767	-0.000027
1404	1.3960e+02	6.0323	7.401822	0.000352	3.521548	0.596566	-0.000035
1405	1.3970e+02	6.0259	7.376974	0.000250	2.497842	0.423146	-0.000025
1406	1.3980e+02	6.0135	7.348867	0.000283	2.825428	0.478641	-0.000028
1407	1.3990e+02	6.0075	7.318316	0.000307	3.071118	0.520261	-0.000031
1408	1.4000e+02	5.9956	7.287358	0.000311	3.112066	0.527198	-0.000031
1409	1.4010e+02	5.9858	7.257622	0.000299	2.989221	0.506388	-0.000030
1410	1.4020e+02	5.9795	7.230738	0.000270	2.702584	0.457830	-0.000027
1411	1.4029e+02	5.9670	7.202631	0.000283	2.825428	0.478641	-0.000028
1412	1.4039e+02	5.9560	7.176154	0.000266	2.661635	0.450893	-0.000027
1413	1.4049e+02	5.9464	7.145603	0.000307	3.071118	0.520261	-0.000031
1414	1.4059e+02	5.9353	7.115460	0.000303	3.030169	0.513325	-0.000030
1415	1.4069e+02	5.9286	7.088982	0.000266	2.661635	0.450893	-0.000027
1416	1.4079e+02	5.9168	7.062505	0.000266	2.661635	0.450893	-0.000027
1417	1.4089e+02	5.9069	7.034399	0.000283	2.825428	0.478641	-0.000028
1418	1.4099e+02	5.8956	7.007514	0.000270	2.702584	0.457830	-0.000027
1419	1.4109e+02	5.8826	6.983073	0.000246	2.456894	0.416209	-0.000025
1420	1.4119e+02	5.8743	6.956596	0.000266	2.661635	0.450893	-0.000027
1421	1.4129e+02	5.8693	6.925638	0.000311	3.112066	0.527198	-0.000031
1422	1.4139e+02	5.8566	6.897531	0.000283	2.825428	0.478641	-0.000028
1423	1.4149e+02	5.8448	6.873498	0.000242	2.415946	0.409272	-0.000024
1424	1.4159e+02	5.8379	6.842948	0.000307	3.071118	0.520261	-0.000031
1425	1.4169e+02	5.8256	6.819322	0.000237	2.374998	0.402335	-0.000024
1426	1.4179e+02	5.8164	6.786734	0.000328	3.275859	0.554946	-0.000033
1427	1.4189e+02	5.8064	6.757406	0.000295	2.948273	0.499451	-0.000029
1428	1.4199e+02	5.7963	6.733372	0.000242	2.415946	0.409272	-0.000024
1429	1.4209e+02	5.7885	6.709339	0.000242	2.415946	0.409272	-0.000024
1430	1.4219e+02	5.7805	6.681233	0.000283	2.825428	0.478641	-0.000028
1431	1.4228e+02	5.7653	6.655977	0.000254	2.538791	0.430083	-0.000025
1432	1.4238e+02	5.7566	6.627463	0.000287	2.866377	0.485577	-0.000029
1433	1.4248e+02	5.7480	6.604245	0.000233	2.334049	0.395399	-0.000023
1434	1.4258e+02	5.7398	6.574509	0.000299	2.989221	0.506388	-0.000030
1435	1.4268e+02	5.7278	6.545587	0.000291	2.907325	0.492514	-0.000029
1436	1.4278e+02	5.7156	6.517073	0.000287	2.866377	0.485577	-0.000029
1437	1.4288e+02	5.7082	6.487337	0.000299	2.989221	0.506388	-0.000030
1438	1.4298e+02	5.6965	6.460046	0.000274	2.743532	0.464767	-0.000027
1439	1.4308e+02	5.6875	6.430310	0.000299	2.989221	0.506388	-0.000030
1440	1.4318e+02	5.6771	6.400166	0.000303	3.030169	0.513325	-0.000030
1441	1.4328e+02	5.6680	6.373282	0.000270	2.702584	0.457830	-0.000027
1442	1.4338e+02	5.6592	6.339065	0.000344	3.439652	0.582693	-0.000034
1443	1.4348e+02	5.6506	6.312180	0.000270	2.702584	0.457830	-0.000027
1444	1.4358e+02	5.6403	6.282852	0.000295	2.948273	0.499451	-0.000029
1445	1.4368e+02	5.6268	6.257596	0.000254	2.538791	0.430083	-0.000025
1446	1.4378e+02	5.6190	6.223380	0.000344	3.439652	0.582693	-0.000034
1447	1.4388e+02	5.6087	6.193643	0.000299	2.989221	0.506388	-0.000030
1448	1.4398e+02	5.5977	6.163500	0.000303	3.030169	0.513325	-0.000030
1449	1.4408e+02	5.5882	6.135394	0.000283	2.825428	0.478641	-0.000028
1450	1.4418e+02	5.5791	6.106880	0.000287	2.866377	0.485577	-0.000029
1451	1.4428e+02	5.5697	6.079180	0.000278	2.784480	0.471704	-0.000028
1452	1.4437e+02	5.5582	6.048630	0.000307	3.071118	0.520261	-0.000031
1453	1.4447e+02	5.5493	6.017264	0.000315	3.153014	0.534135	-0.000032
1454	1.4457e+02	5.5410	5.987121	0.000303	3.030169	0.513325	-0.000030
1455	1.4467e+02	5.5264	5.959829	0.000274	2.743532	0.464767	-0.000027
1456	1.4477e+02	5.5158	5.926019	0.000340	3.398704	0.575756	-0.000034
1457	1.4487e+02	5.5085	5.893025	0.000332	3.316807	0.561882	-0.000033
1458	1.4497e+02	5.4998	5.866547	0.000266	2.661635	0.450893	-0.000027
1459	1.4507e+02	5.4879	5.832331	0.000344	3.439652	0.582693	-0.000034
1460	1.4517e+02	5.4810	5.803817	0.000287	2.866377	0.485577	-0.000029
1461	1.4527e+02	5.4684	5.776525	0.000274	2.743532	0.464767	-0.000027
1462	1.4537e+02	5.4591	5.744345	0.000323	3.234911	0.548009	-0.000032
1463	1.4547e+02	5.4498	5.717460	0.000270	2.702584	0.457830	-0.000027
1464	1.4557e+02	5.4389	5.686095	0.000315	3.153014	0.534135	-0.000032
1465	1.4567e+02	5.4317	5.660432	0.000258	2.579739	0.437020	-0.000026
1466	1.4577e+02	5.4183	5.631918	0.000287	2.866377	0.485577	-0.000029
1467	1.4587e+02	5.4115	5.603811	0.000283	2.825428	0.478641	-0.000028
1468	1.4597e+02	5.4005	5.573668	0.000303	3.030169	0.513325	-0.000030
1469	1.4607e+02	5.3901	5.543932	0.000299	2.989221	0.506388	-0.000030
1470	1.4617e+02	5.3785	5.516640	0.000274	2.743532	0.464767	-0.000027
1471	1.4626e+02	5.3731	5.485682	0.000311	3.112066	0.527198	-0.000031
1472	1.4636e+02	5.3591	5.452280	0.000336	3.357755	0.568819	-0.000034
1473	1.4646e+02	5.3516	5.426210	0.000262	2.620687	0.443956	-0.000026
1474	1.4656e+02	5.3394	5.391993	0.000344	3.439652	0.582693	-0.000034
1475	1.4666e+02	5.3286	5.364701	0.000274	2.743532	0.464767	-0.000027
1476	1.4676e+02	5.3201	5.335780	0.000291	2.907325	0.492514	-0.000029
1477	1.4686e+02	5.3080	5.306044	0.000299	2.989221	0.506388	-0.000030
1478	1.4696e+02	5.2999	5.275086	0.000311	3.112066	0.527198	-0.000031
1479	1.4706e+02	5.2905	5.247387	0.000278	2.784480	0.471704	-0.000028
1480	1.4716e+02	5.2806	5.215207	0.000323	3.234911	0.548009	-0.000032
1481	1.4726e+02	5.2726	5.191581	0.000237	2.374998	0.402335	-0.000024
1482	1.4736e+02	5.2608	5.158993	0.000328	3.275859	0.554946	-0.000033
1483	1.4746e+02	5.2499	5.128443	0.000307	3.071118	0.520261	-0.000031
1484	1.4756e+02	5.2405	5.097892	0.000307	3.071118	0.520261	-0.000031
1485	1.4766e+02	5.2304	5.067341	0.000307	3.071118	0.520261	-0.000031
1486	1.4776e+02	5.2189	5.035976	0.000315	3.153014	0.534135	-0.000032
1487	1.4786e+02	5.2093	5.000537	0.000356	3.562497	0.603503	-0.000036
1488	1.4796e+02	5.1995	4.971208	0.000295	2.948273	0.499451	-0.000029
1489	1.4806e+02	5.1923	4.941065	0.000303	3.030169	0.513325	-0.000030
1490	1.4816e+02	5.1817	4.905219	0.000360	3.603445	0.610440	-0.000036
1491	1.4825e+02	5.1708	4.874261	0.000311	3.112066	0.527198	-0.000031
1492	1.4835e+02	5.1581	4.843710	0.000307	3.071118	0.520261	-0.000031
1493	1.4845e+02	5.1512	4.809901	0.000340	3.398704	0.575756	-0.000034
1494	1.4855e+02	5.1416	4.780980	0.000291	2.907325	0.492514	-0.000029
1495	1.4865e+02	5.1296	4.746355	0.000348	3.480600	0.589630	-0.000035
1496	1.4875e+02	5.1206	4.714175	0.000323	3.234911	0.548009	-0.000032
1497	1.4885e+02	5.1102	4.682810	0.000315	3.153014	0.534135	-0.000032
1498	1.4895e+02	5.1023	4.653074	0.000299	2.989221	0.506388	-0.000030
1499	1.4905e+02	5.0897	4.613969	0.000393	3.931031	0.665935	-0.000039
1500	1.4915e+02	5.0819	4.580567	0.000336	3.357755	0.568819	-0.000034
1501	1.4925e+02	5.0697	4.545536	0.000352	3.521548	0.596566	-0.000035
1502	1.4935e+02	5.0610	4.514577	0.000311	3.112066	0.527198	-0.000031
1503	1.4945e+02	5.0491	4.480361	0.000344	3.439652	0.582693	-0.000034
1504	1.4955e+02	5.0433	4.446144	0.000344	3.439652	0.582693	-0.000034
1505	1.4965e+02	5.0331	4.413149	0.000332	3.316807	0.561882	-0.000033
1506	1.4975e+02	5.0207	4.377303	0.000360	3.603445	0.610440	-0.000036
1507	1.4985e+02	5.0121	4.342272	0.000352	3.521548	0.596566	-0.000035
1508	1.4995e+02	5.0007	4.307240	0.000352	3.521548	0.596566	-0.000035
1509	1.5005e+02	4.9903	4.276282	0.000311	3.112066	0.527198	-0.000031
1510	1.5015e+02	4.9795	4.239214	0.000373	3.726289	0.631251	-0.000037
1511	1.5025e+02	4.9709	4.207034	0.000323	3.234911	0.548009	-0.000032
1512	1.5034e+02	4.9609	4.172002	0.000352	3.521548	0.596566	-0.000035
1513	1.5044e+02	4.9525	4.133712	0.000385	3.849134	0.652061	-0.000038
1514	1.5054e+02	4.9410	4.103976	0.000299	2.989221	0.506388	-0.000030
1515	1.5064e+02	4.9334	4.066501	0.000377	3.767238	0.638187	-0.000038
1516	1.5074e+02	4.9227	4.034728	0.000319	3.193962	0.541072	-0.000032
1517	1.5084e+02	4.9126	3.998474	0.000364	3.644393	0.617377	-0.000036
1518	1.5094e+02	4.9009	3.963850	0.000348	3.480600	0.589630	-0.000035
1519	1.5104e+02	4.8904	3.928004	0.000360	3.603445	0.610440	-0.000036
1520	1.5114e+02	4.8800	3.893787	0.000344	3.439652	0.582693	-0.000034
1521	1.5124e+02	4.8739	3.862422	0.000315	3.153014	0.534135	-0.000032
1522	1.5134e+02	4.8617	3.828613	0.000340	3.398704	0.575756	-0.000034
1523	1.5144e+02	4.8516	3.793989	0.000348	3.480600	0.589630	-0.000035
1524	1.5154e+02	4.8415	3.760994	0.000332	3.316807	0.561882	-0.000033
1525	1.5164e+02	4.8302	3.726370	0.000348	3.480600	0.589630	-0.000035
1526	1.5174e+02	4.8211	3.695412	0.000311	3.112066	0.527198	-0.000031
1527	1.5184e+02	4.8075	3.660380	0.000352	3.521548	0.596566	-0.000035
1528	1.5194e+02	4.8002	3.627385	0.000332	3.316807	0.561882	-0.000033
1529	1.5204e+02	4.7913	3.597242	0.000303	3.030169	0.513325	-0.000030
1530	1.5214e+02	4.7829	3.561396	0.000360	3.603445	0.610440	-0.000036
1531	1.5224e+02	4.7746	3.529216	0.000323	3.234911	0.548009	-0.000032
1532	1.5233e+02	4.7624	3.494184	0.000352	3.521548	0.596566	-0.000035
1533	1.5243e+02	4.7506	3.464448	0.000299	2.989221	0.506388	-0.000030
1534	1.5253e+02	4.7427	3.430232	0.000344	3.439652	0.582693	-0.000034
1535	1.5263e+02	4.7335	3.397237	0.000332	3.316807	0.561882	-0.000033
1536	1.5273e+02	4.7236	3.360576	0.000369	3.685341	0.624314	-0.000037
1537	1.5283e+02	4.7122	3.332062	0.000287	2.866377	0.485577	-0.000029
1538	1.5293e+02	4.7039	3.295809	0.000364	3.644393	0.617377	-0.000036
1539	1.5303e+02	4.6949	3.263629	0.000323	3.234911	0.548009	-0.000032
1540	1.5313e+02	4.6822	3.229412	0.000344	3.439652	0.582693	-0.000034
1541	1.5323e+02	4.6774	3.200083	0.000295	2.948273	0.499451	-0.000029
1542	1.5333e+02	4.6637	3.167088	0.000332	3.316807	0.561882	-0.000033
1543	1.5343e+02	4.6548	3.135316	0.000319	3.193962	0.541072	-0.000032
1544	1.5353e+02	4.6421	3.098655	0.000369	3.685341	0.624314	-0.000037
1545	1.5363e+02	4.6314	3.063623	0.000352	3.521548	0.596566	-0.000035
1546	1.5373e+02	4.6230	3.029814	0.000340	3.398704	0.575756	-0.000034
1547	1.5383e+02	4.6142	2.995597	0.000344	3.439652	0.582693	-0.000034
1548	1.5393e+02	4.6039	2.960566	0.000352	3.521548	0.596566	-0.000035
1549	1.5403e+02	4.5910	2.924312	0.000364	3.644393	0.617377	-0.000036
1550	1.5413e+02	4.5839	2.890910	0.000336	3.357755	0.568819	-0.000034
1551	1.5422e+02	4.5719	2.857101	0.000340	3.398704	0.575756	-0.000034
1552	1.5432e+02	4.5600	2.820440	0.000369	3.685341	0.624314	-0.000037
1553	1.5442e+02	4.5527	2.787445	0.000332	3.316807	0.561882	-0.000033
1554	1.5452e+02	4.5472	2.755265	0.000323	3.234911	0.548009	-0.000032
1555	1.5462e+02	4.5344	2.720641	0.000348	3.480600	0.589630	-0.000035
1556	1.5472e+02	4.5223	2.686831	0.000340	3.398704	0.575756	-0.000034
1557	1.5482e+02	4.5135	2.651393	0.000356	3.562497	0.603503	-0.000036
1558	1.5492e+02	4.5020	2.617991	0.000336	3.357755	0.568819	-0.000034
1559	1.5502e+02	4.4936	2.582959	0.000352	3.521548	0.596566	-0.000035
1560	1.5512e+02	4.4834	2.548335	0.000348	3.480600	0.589630	-0.000035
1561	1.5522e+02	4.4738	2.508823	0.000397	3.971979	0.672871	-0.000040
1562	1.5532e+02	4.4608	2.473791	0.000352	3.521548	0.596566	-0.000035
1563	1.5542e+02	4.4534	2.441204	0.000328	3.275859	0.554946	-0.000033
1564	1.5552e+02	4.4433	2.406987	0.000344	3.439652	0.582693	-0.000034
1565	1.5562e+02	4.4346	2.371548	0.000356	3.562497	0.603503	-0.000036
1566	1.5572e+02	4.4241	2.338961	0.000328	3.275859	0.554946	-0.000033
1567	1.5582e+02	4.4144	2.308410	0.000307	3.071118	0.520261	-0.000031
1568	1.5592e+02	4.4038	2.273379	0.000352	3.521548	0.596566	-0.000035
1569	1.5602e+02	4.3951	2.241199	0.000323	3.234911	0.548009	-0.000032
1570	1.5612e+02	4.3865	2.209019	0.000323	3.234911	0.548009	-0.000032
1571	1.5622e+02	4.3768	2.174395	0.000348	3.480600	0.589630	-0.000035
1572	1.5631e+02	4.3616	2.139363	0.000352	3.521548	0.596566	-0.000035
1573	1.5641e+02	4.3540	2.107998	0.000315	3.153014	0.534135	-0.000032
1574	1.5651e+02	4.3458	2.078669	0.000295	2.948273	0.499451	-0.000029
1575	1.5661e+02	4.3343	2.039564	0.000393	3.931031	0.665935	-0.000039
1576	1.5671e+02	4.3264	2.009013	0.000307	3.071118	0.520261	-0.000031
1577	1.5681e+02	4.3156	1.975204	0.000340	3.398704	0.575756	-0.000034
1578	1.5691e+02	4.3057	1.943431	0.000319	3.193962	0.541072	-0.000032
1579	1.5701e+02	4.2946	1.907585	0.000360	3.603445	0.610440	-0.000036
1580	1.5711e+02	4.2843	1.878664	0.000291	2.907325	0.492514	-0.000029
1581	1.5721e+02	4.2739	1.846484	0.000323	3.234911	0.548009	-0.000032
1582	1.5731e+02	4.2638	1.809823	0.000369	3.685341	0.624314	-0.000037
1583	1.5741e+02	4.2553	1.783346	0.000266	2.661635	0.450893	-0.000027
1584	1.5751e+02	4.2449	1.752795	0.000307	3.071118	0.520261	-0.000031
1585	1.5761e+02	4.2361	1.719800	0.000332	3.316807	0.561882	-0.000033
1586	1.5771e+02	4.2268	1.692916	0.000270	2.702584	0.457830	-0.000027
1587	1.5781e+02	4.2153	1.654218	0.000389	3.890082	0.658998	-0.000039
1588	1.5791e+02	4.2052	1.626519	0.000278	2.784480	0.471704	-0.000028
1589	1.5801e+02	4.1961	1.591487	0.000352	3.521548	0.596566	-0.000035
1590	1.5811e+02	4.1885	1.564195	0.000274	2.743532	0.464767	-0.000027
1591	1.5821e+02	4.1756	1.530386	0.000340	3.398704	0.575756	-0.000034
1592	1.5830e+02	4.1650	1.499021	0.000315	3.153014	0.534135	-0.000032
1593	1.5840e+02	4.1532	1.466026	0.000332	3.316807	0.561882	-0.000033
1594	1.5850e+02	4.1475	1.431809	0.000344	3.439652	0.582693	-0.000034
1595	1.5860e+02	4.1341	1.402888	0.000291	2.907325	0.492514	-0.000029
1596	1.5870e+02	4.1270	1.372744	0.000303	3.030169	0.513325	-0.000030
1597	1.5880e+02	4.1154	1.341379	0.000315	3.153014	0.534135	-0.000032
1598	1.5890e+02	4.1061	1.316124	0.000254	2.538791	0.430083	-0.000025
1599	1.5900e+02	4.0930	1.283536	0.000328	3.275859	0.554946	-0.000033
1600	1.5910e+02	4.0853	1.249320	0.000344	3.439652	0.582693	-0.000034
1601	1.5920e+02	4.0765	1.215103	0.000344	3.439652	0.582693	-0.000034
1602	1.5930e+02	4.0645	1.188626	0.000266	2.661635	0.450893	-0.000027
1603	1.5940e+02	4.0562	1.155631	0.000332	3.316807	0.561882	-0.000033
1604	1.5950e+02	4.0461	1.118970	0.000369	3.685341	0.624314	-0.000037
1605	1.5960e+02	4.0363	1.086790	0.000323	3.234911	0.548009	-0.000032
1606	1.5970e+02	4.0243	1.053795	0.000332	3.316807	0.561882	-0.000033
1607	1.5980e+02	4.0141	1.018764	0.000352	3.521548	0.596566	-0.000035
1608	1.5990e+02	4.0097	0.987398	0.000315	3.153014	0.534135	-0.000032
1609	1.6000e+02	3.9933	0.953589	0.000340	3.398704	0.575756	-0.000034
1610	1.6010e+02	3.9855	0.920187	0.000336	3.357755	0.568819	-0.000034
1611	1.6019e+02	3.9765	0.883933	0.000364	3.644393	0.617377	-0.000036
1612	1.6029e+02	3.9669	0.854197	0.000299	2.989221	0.506388	-0.000030
1613	1.6039e+02	3.9564	0.821610	0.000328	3.275859	0.554946	-0.000033
1614	1.6049e+02	3.9470	0.782505	0.000393	3.931031	0.665935	-0.000039
1615	1.6059e+02	3.9350	0.751547	0.000311	3.112066	0.527198	-0.000031
1616	1.6069e+02	3.9280	0.718145	0.000336	3.357755	0.568819	-0.000034
1617	1.6079e+02	3.9190	0.683113	0.000352	3.521548	0.596566	-0.000035
1618	1.6089e+02	3.9092	0.651341	0.000319	3.193962	0.541072	-0.000032
1619	1.6099e+02	3.8990	0.616309	0.000352	3.521548	0.596566	-0.000035
1620	1.6109e+02	3.8867	0.581685	0.000348	3.480600	0.589630	-0.000035
1621	1.6119e+02	3.8786	0.545839	0.000360	3.603445	0.610440	-0.000036
1622	1.6129e+02	3.8667	0.514474	0.000315	3.153014	0.534135	-0.000032
1623	1.6139e+02	3.8580	0.481479	0.000332	3.316807	0.561882	-0.000033
1624	1.6149e+02	3.8480	0.444818	0.000369	3.685341	0.624314	-0.000037
1625	1.6159e+02	3.8372	0.406121	0.000389	3.890082	0.658998	-0.000039
1626	1.6169e+02	3.8281	0.375162	0.000311	3.112066	0.527198	-0.000031
1627	1.6179e+02	3.8167	0.340131	0.000352	3.521548	0.596566	-0.000035
1628	1.6189e+02	3.8068	0.305914	0.000344	3.439652	0.582693	-0.000034
1629	1.6199e+02	3.7974	0.272512	0.000336	3.357755	0.568819	-0.000034
1630	1.6209e+02	3.7854	0.235037	0.000377	3.767238	0.638187	-0.000038
1631	1.6219e+02	3.7792	0.205301	0.000299	2.989221	0.506388	-0.000030
1632	1.6228e+02	3.7659	0.170269	0.000352	3.521548	0.596566	-0.000035
1633	1.6238e+02	3.7571	0.139311	0.000311	3.112066	0.527198	-0.000031
1634	1.6248e+02	3.7450	0.108353	0.000311	3.112066	0.527198	-0.000031
1635	1.6258e+02	3.7403	0.074136	0.000344	3.439652	0.582693	-0.000034
1636	1.6268e+02	3.7267	0.041549	0.000328	3.275859	0.554946	-0.000033
1637	1.6278e+02	3.7149	0.004888	0.000369	3.685341	0.624314	-0.000037
1638	1.6288e+02	3.7069	-0.026885	0.000319	3.193962	0.541072	-0.000032
1639	1.6298e+02	3.6980	-0.063545	0.000369	3.685341	0.624314	-0.000037
1640	1.6308e+02	3.6884	-0.098984	0.000356	3.562497	0.603503	-0.000036
1641	1.6318e+02	3.6800	-0.130350	0.000315	3.153014	0.534135	-0.000032
1642	1.6328e+02	3.6703	-0.166196	0.000360	3.603445	0.610440	-0.000036
1643	1.6338e+02	3.6561	-0.198783	0.000328	3.275859	0.554946	-0.000033
1644	1.6348e+02	3.6475	-0.230963	0.000323	3.234911	0.548009	-0.000032
1645	1.6358e+02	3.6387	-0.266402	0.000356	3.562497	0.603503	-0.000036
1646	1.6368e+02	3.6293	-0.299804	0.000336	3.357755	0.568819	-0.000034
1647	1.6378e+02	3.6192	-0.329947	0.000303	3.030169	0.513325	-0.000030
1648	1.6388e+02	3.6051	-0.365386	0.000356	3.562497	0.603503	-0.000036
1649	1.6398e+02	3.5992	-0.404491	0.000393	3.931031	0.665935	-0.000039
1650	1.6408e+02	3.5874	-0.438301	0.000340	3.398704	0.575756	-0.000034
1651	1.6418e+02	3.5774	-0.472925	0.000348	3.480600	0.589630	-0.000035
1652	1.6427e+02	3.5696	-0.508364	0.000356	3.562497	0.603503	-0.000036
1653	1.6437e+02	3.5558	-0.546246	0.000381	3.808186	0.645124	-0.000038
1654	1.6447e+02	3.5478	-0.580056	0.000340	3.398704	0.575756	-0.000034
1655	1.6457e+02	3.5384	-0.619161	0.000393	3.931031	0.665935	-0.000039
1656	1.6467e+02	3.5291	-0.654192	0.000352	3.521548	0.596566	-0.000035
1657	1.6477e+02	3.5175	-0.689631	0.000356	3.562497	0.603503	-0.000036
1658	1.6487e+02	3.5088	-0.724255	0.000348	3.480600	0.589630	-0.000035
1659	1.6497e+02	3.4976	-0.762953	0.000389	3.890082	0.658998	-0.000039
1660	1.6507e+02	3.4901	-0.797169	0.000344	3.439652	0.582693	-0.000034
1661	1.6517e+02	3.4798	-0.836274	0.000393	3.931031	0.665935	-0.000039
1662	1.6527e+02	3.4698	-0.871713	0.000356	3.562497	0.603503	-0.000036
1663	1.6537e+02	3.4579	-0.908781	0.000373	3.726289	0.631251	-0.000037
1664	1.6547e+02	3.4479	-0.947886	0.000393	3.931031	0.665935	-0.000039
1665	1.6557e+02	3.4389	-0.982510	0.000348	3.480600	0.589630	-0.000035
1666	1.6567e+02	3.4301	-1.017542	0.000352	3.521548	0.596566	-0.000035
1667	1.6577e+02	3.4181	-1.060720	0.000434	4.340513	0.735303	-0.000043
1668	1.6587e+02	3.4090	-1.095344	0.000348	3.480600	0.589630	-0.000035
1669	1.6597e+02	3.3974	-1.134042	0.000389	3.890082	0.658998	-0.000039
1670	1.6607e+02	3.3875	-1.175183	0.000414	4.135772	0.700619	-0.000041
1671	1.6616e+02	3.3813	-1.211844	0.000369	3.685341	0.624314	-0.000037
1672	1.6626e+02	3.3694	-1.252171	0.000405	4.053875	0.686745	-0.000041
1673	1.6636e+02	3.3578	-1.293313	0.000414	4.135772	0.700619	-0.000041
1674	1.6646e+02	3.3498	-1.329973	0.000369	3.685341	0.624314	-0.000037
1675	1.6656e+02	3.3390	-1.370300	0.000405	4.053875	0.686745	-0.000041
1676	1.6666e+02	3.3300	-1.404517	0.000344	3.439652	0.582693	-0.000034
1677	1.6676e+02	3.3195	-1.445251	0.000409	4.094824	0.693682	-0.000041
1678	1.6686e+02	3.3072	-1.483134	0.000381	3.808186	0.645124	-0.000038
1679	1.6696e+02	3.2996	-1.525091	0.000422	4.217668	0.714492	-0.000042
1680	1.6706e+02	3.2869	-1.565417	0.000405	4.053875	0.686745	-0.000041
1681	1.6716e+02	3.2787	-1.600856	0.000356	3.562497	0.603503	-0.000036
1682	1.6726e+02	3.2688	-1.642405	0.000418	4.176720	0.707556	-0.000042
1683	1.6736e+02	3.2592	-1.681510	0.000393	3.931031	0.665935	-0.000039
1684	1.6746e+02	3.2494	-1.719393	0.000381	3.808186	0.645124	-0.000038
1685	1.6756e+02	3.2396	-1.759720	0.000405	4.053875	0.686745	-0.000041
1686	1.6766e+02	3.2288	-1.798825	0.000393	3.931031	0.665935	-0.000039
1687	1.6776e+02	3.2209	-1.842003	0.000434	4.340513	0.735303	-0.000043
1688	1.6786e+02	3.2095	-1.877442	0.000356	3.562497	0.603503	-0.000036
1689	1.6796e+02	3.1999	-1.911659	0.000344	3.439652	0.582693	-0.000034
1690	1.6806e+02	3.1906	-1.952800	0.000414	4.135772	0.700619	-0.000041
1691	1.6816e+02	3.1811	-1.992312	0.000397	3.971979	0.672871	-0.000040
1692	1.6825e+02	3.1719	-2.032232	0.000401	4.012927	0.679808	-0.000040
1693	1.6835e+02	3.1588	-2.067671	0.000356	3.562497	0.603503	-0.000036
1694	1.6845e+02	3.1509	-2.110849	0.000434	4.340513	0.735303	-0.000043
1695	1.6855e+02	3.1411	-2.140178	0.000295	2.948273	0.499451	-0.000029
1696	1.6865e+02	3.1309	-2.180097	0.000401	4.012927	0.679808	-0.000040
1697	1.6875e+02	3.1208	-2.216758	0.000369	3.685341	0.624314	-0.000037
1698	1.6885e+02	3.1113	-2.255048	0.000385	3.849134	0.652061	-0.000038
1699	1.6895e+02	3.1020	-2.292117	0.000373	3.726289	0.631251	-0.000037
1700	1.6905e+02	3.0907	-2.334480	0.000426	4.258617	0.721429	-0.000043
1701	1.6915e+02	3.0834	-2.372363	0.000381	3.808186	0.645124	-0.000038
1702	1.6925e+02	3.0727	-2.409024	0.000369	3.685341	0.624314	-0.000037
1703	1.6935e+02	3.0596	-2.445685	0.000369	3.685341	0.624314	-0.000037
1704	1.6945e+02	3.0516	-2.487234	0.000418	4.176720	0.707556	-0.000042
1705	1.6955e+02	3.0407	-2.521450	0.000344	3.439652	0.582693	-0.000034
1706	1.6965e+02	3.0325	-2.559333	0.000381	3.808186	0.645124	-0.000038
1707	1.6975e+02	3.0215	-2.597623	0.000385	3.849134	0.652061	-0.000038
1708	1.6985e+02	3.0108	-2.633877	0.000364	3.644393	0.617377	-0.000036
1709	1.6995e+02	3.0021	-2.671352	0.000377	3.767238	0.638187	-0.000038
1710	1.7005e+02	2.9908	-2.711272	0.000401	4.012927	0.679808	-0.000040
1711	1.7015e+02	2.9816	-2.752006	0.000409	4.094824	0.693682	-0.000041
1712	1.7024e+02	2.9743	-2.787445	0.000356	3.562497	0.603503	-0.000036
1713	1.7034e+02	2.9600	-2.826143	0.000389	3.890082	0.658998	-0.000039
1714	1.7044e+02	2.9495	-2.862396	0.000364	3.644393	0.617377	-0.000036
1715	1.7054e+02	2.9397	-2.902723	0.000405	4.053875	0.686745	-0.000041
1716	1.7064e+02	2.9310	-2.945494	0.000430	4.299565	0.728366	-0.000043
1717	1.7074e+02	2.9242	-2.983377	0.000381	3.808186	0.645124	-0.000038
1718	1.7084e+02	2.9122	-3.024926	0.000418	4.176720	0.707556	-0.000042
1719	1.7094e+02	2.8973	-3.066475	0.000418	4.176720	0.707556	-0.000042
1720	1.7104e+02	2.8916	-3.104765	0.000385	3.849134	0.652061	-0.000038
1721	1.7114e+02	2.8817	-3.140611	0.000360	3.603445	0.610440	-0.000036
1722	1.7124e+02	2.8692	-3.180531	0.000401	4.012927	0.679808	-0.000040
1723	1.7134e+02	2.8608	-3.216377	0.000360	3.603445	0.610440	-0.000036
1724	1.7144e+02	2.8519	-3.257518	0.000414	4.135772	0.700619	-0.000041
1725	1.7154e+02	2.8394	-3.299475	0.000422	4.217668	0.714492	-0.000042
1726	1.7164e+02	2.8324	-3.335321	0.000360	3.603445	0.610440	-0.000036
1727	1.7174e+02	2.8214	-3.376462	0.000414	4.135772	0.700619	-0.000041
1728	1.7184e+02	2.8115	-3.418419	0.000422	4.217668	0.714492	-0.000042
1729	1.7194e+02	2.8008	-3.455080	0.000369	3.685341	0.624314	-0.000037
1730	1.7204e+02	2.7927	-3.499480	0.000446	4.463358	0.756113	-0.000045
1731	1.7213e+02	2.7850	-3.534919	0.000356	3.562497	0.603503	-0.000036
1732	1.7223e+02	2.7718	-3.579726	0.000450	4.504306	0.763050	-0.000045
1733	1.7233e+02	2.7627	-3.615165	0.000356	3.562497	0.603503	-0.000036
1734	1.7243e+02	2.7525	-3.651011	0.000360	3.603445	0.610440	-0.000036
1735	1.7253e+02	2.7421	-3.691338	0.000405	4.053875	0.686745	-0.000041
1736	1.7263e+02	2.7297	-3.728814	0.000377	3.767238	0.638187	-0.000038
1737	1.7273e+02	2.7209	-3.766697	0.000381	3.808186	0.645124	-0.000038
1738	1.7283e+02	2.7097	-3.806616	0.000401	4.012927	0.679808	-0.000040
1739	1.7293e+02	2.7013	-3.845314	0.000389	3.890082	0.658998	-0.000039
1740	1.7303e+02	2.6913	-3.881567	0.000364	3.644393	0.617377	-0.000036
1741	1.7313e+02	2.6823	-3.920672	0.000393	3.931031	0.665935	-0.000039
1742	1.7323e+02	2.6708	-3.957740	0.000373	3.726289	0.631251	-0.000037
1743	1.7333e+02	2.6625	-3.994401	0.000369	3.685341	0.624314	-0.000037
1744	1.7343e+02	2.6495	-4.033099	0.000389	3.890082	0.658998	-0.000039
1745	1.7353e+02	2.6421	-4.074648	0.000418	4.176720	0.707556	-0.000042
1746	1.7363e+02	2.6321	-4.107642	0.000332	3.316807	0.561882	-0.000033
1747	1.7373e+02	2.6214	-4.147969	0.000405	4.053875	0.686745	-0.000041
1748	1.7383e+02	2.6124	-4.184630	0.000369	3.685341	0.624314	-0.000037
1749	1.7393e+02	2.6022	-4.225772	0.000414	4.135772	0.700619	-0.000041
1750	1.7403e+02	2.5937	-4.262025	0.000364	3.644393	0.617377	-0.000036
1751	1.7413e+02	2.5854	-4.297871	0.000360	3.603445	0.610440	-0.000036
1752	1.7422e+02	2.5721	-4.331681	0.000340	3.398704	0.575756	-0.000034
1753	1.7432e+02	2.5625	-4.366712	0.000352	3.521548	0.596566	-0.000035
1754	1.7442e+02	2.5546	-4.403780	0.000373	3.726289	0.631251	-0.000037
1755	1.7452e+02	2.5433	-4.441256	0.000377	3.767238	0.638187	-0.000038
1756	1.7462e+02	2.5352	-4.477102	0.000360	3.603445	0.610440	-0.000036
1757	1.7472e+02	2.5257	-4.512948	0.000360	3.603445	0.610440	-0.000036
1758	1.7482e+02	2.5159	-4.546350	0.000336	3.357755	0.568819	-0.000034
1759	1.7492e+02	2.5024	-4.587084	0.000409	4.094824	0.693682	-0.000041
1760	1.7502e+02	2.4949	-4.625782	0.000389	3.890082	0.658998	-0.000039
1761	1.7512e+02	2.4845	-4.659999	0.000344	3.439652	0.582693	-0.000034
1762	1.7522e+02	2.4754	-4.695845	0.000360	3.603445	0.610440	-0.000036
1763	1.7532e+02	2.4621	-4.736579	0.000409	4.094824	0.693682	-0.000041
1764	1.7542e+02	2.4522	-4.765501	0.000291	2.907325	0.492514	-0.000029
1765	1.7552e+02	2.4421	-4.802976	0.000377	3.767238	0.638187	-0.000038
1766	1.7562e+02	2.4334	-4.839230	0.000364	3.644393	0.617377	-0.000036
1767	1.7572e+02	2.4223	-4.878742	0.000397	3.971979	0.672871	-0.000040
1768	1.7582e+02	2.4113	-4.917032	0.000385	3.849134	0.652061	-0.000038
1769	1.7592e+02	2.4081	-4.950027	0.000332	3.316807	0.561882	-0.000033
1770	1.7602e+02	2.3948	-4.986280	0.000364	3.644393	0.617377	-0.000036
1771	1.7612e+02	2.3866	-5.028644	0.000426	4.258617	0.721429	-0.000043
1772	1.7621e+02	2.3723	-5.064490	0.000360	3.603445	0.610440	-0.000036
1773	1.7631e+02	2.3635	-5.101558	0.000373	3.726289	0.631251	-0.000037
1774	1.7641e+02	2.3536	-5.144736	0.000434	4.340513	0.735303	-0.000043
1775	1.7651e+02	2.3412	-5.176509	0.000319	3.193962	0.541072	-0.000032
1776	1.7661e+02	2.3347	-5.218873	0.000426	4.258617	0.721429	-0.000043
1777	1.7671e+02	2.3248	-5.257978	0.000393	3.931031	0.665935	-0.000039
1778	1.7681e+02	2.3162	-5.296268	0.000385	3.849134	0.652061	-0.000038
1779	1.7691e+02	2.3064	-5.333336	0.000373	3.726289	0.631251	-0.000037
1780	1.7701e+02	2.2958	-5.375292	0.000422	4.217668	0.714492	-0.000042
1781	1.7711e+02	2.2839	-5.412360	0.000373	3.726289	0.631251	-0.000037
1782	1.7721e+02	2.2755	-5.451873	0.000397	3.971979	0.672871	-0.000040
1783	1.7731e+02	2.2660	-5.486089	0.000344	3.439652	0.582693	-0.000034
1784	1.7741e+02	2.2533	-5.524787	0.000389	3.890082	0.658998	-0.000039
1785	1.7751e+02	2.2462	-5.565114	0.000405	4.053875	0.686745	-0.000041
1786	1.7761e+02	2.2323	-5.605848	0.000409	4.094824	0.693682	-0.000041
1787	1.7771e+02	2.2238	-5.647397	0.000418	4.176720	0.707556	-0.000042
1788	1.7781e+02	2.2163	-5.686909	0.000397	3.971979	0.672871	-0.000040
1789	1.7791e+02	2.2047	-5.722756	0.000360	3.603445	0.610440	-0.000036
1790	1.7801e+02	2.1958	-5.764712	0.000422	4.217668	0.714492	-0.000042
1791	1.7810e+02	2.1844	-5.805039	0.000405	4.053875	0.686745	-0.000041
1792	1.7820e+02	2.1758	-5.842107	0.000373	3.726289	0.631251	-0.000037
1793	1.7830e+02	2.1661	-5.879175	0.000373	3.726289	0.631251	-0.000037
1794	1.7840e+02	2.1584	-5.926834	0.000479	4.790944	0.811608	-0.000048
1795	1.7850e+02	2.1481	-5.965532	0.000389	3.890082	0.658998	-0.000039
1796	1.7860e+02	2.1370	-6.003415	0.000381	3.808186	0.645124	-0.000038
1797	1.7870e+02	2.1258	-6.048630	0.000455	4.545254	0.769987	-0.000045
1798	1.7880e+02	2.1136	-6.081217	0.000328	3.275859	0.554946	-0.000033
1799	1.7890e+02	2.1032	-6.121137	0.000401	4.012927	0.679808	-0.000040
1800	1.7900e+02	2.0915	-6.158205	0.000373	3.726289	0.631251	-0.000037
1801	1.7910e+02	2.0837	-6.194051	0.000360	3.603445	0.610440	-0.000036
1802	1.7920e+02	2.0747	-6.232341	0.000385	3.849134	0.652061	-0.000038
1803	1.7930e+02	2.0657	-6.274705	0.000426	4.258617	0.721429	-0.000043
1804	1.7940e+02	2.0534	-6.311365	0.000369	3.685341	0.624314	-0.000037
1805	1.7950e+02	2.0474	-6.350878	0.000397	3.971979	0.672871	-0.000040
1806	1.7960e+02	2.0360	-6.392427	0.000418	4.176720	0.707556	-0.000042
1807	1.7970e+02	2.0280	-6.433568	0.000414	4.135772	0.700619	-0.000041
1808	1.7980e+02	2.0164	-6.473080	0.000397	3.971979	0.672871	-0.000040
1809	1.7990e+02	2.0087	-6.513407	0.000405	4.053875	0.686745	-0.000041
1810	1.8000e+02	1.9955	-6.545995	0.000328	3.275859	0.554946	-0.000033
1811	1.8009e+02	1.9869	-6.585507	0.000397	3.971979	0.672871	-0.000040
1812	1.8019e+02	1.9767	-6.629907	0.000446	4.463358	0.756113	-0.000045
1813	1.8029e+02	1.9661	-6.665346	0.000356	3.562497	0.603503	-0.000036
1814	1.8039e+02	1.9576	-6.706488	0.000414	4.135772	0.700619	-0.000041
1815	1.8049e+02	1.9463	-6.743963	0.000377	3.767238	0.638187	-0.000038
1816	1.8059e+02	1.9360	-6.784698	0.000409	4.094824	0.693682	-0.000041
1817	1.8069e+02	1.9270	-6.825432	0.000409	4.094824	0.693682	-0.000041
1818	1.8079e+02	1.9139	-6.867388	0.000422	4.217668	0.714492	-0.000042
1819	1.8089e+02	1.9057	-6.904864	0.000377	3.767238	0.638187	-0.000038
1820	1.8099e+02	1.8960	-6.950893	0.000463	4.627151	0.783861	-0.000046
1821	1.8109e+02	1.8879	-6.989591	0.000389	3.890082	0.658998	-0.000039
1822	1.8119e+02	1.8770	-7.031140	0.000418	4.176720	0.707556	-0.000042
1823	1.8129e+02	1.8679	-7.071059	0.000401	4.012927	0.679808	-0.000040
1824	1.8139e+02	1.8565	-7.113423	0.000426	4.258617	0.721429	-0.000043
1825	1.8149e+02	1.8462	-7.156601	0.000434	4.340513	0.735303	-0.000043
1826	1.8159e+02	1.8368	-7.195299	0.000389	3.890082	0.658998	-0.000039
1827	1.8169e+02	1.8262	-7.240921	0.000459	4.586202	0.776924	-0.000046
1828	1.8179e+02	1.8162	-7.283692	0.000430	4.299565	0.728366	-0.000043
1829	1.8189e+02	1.8056	-7.322390	0.000389	3.890082	0.658998	-0.000039
1830	1.8199e+02	1.7977	-7.365568	0.000434	4.340513	0.735303	-0.000043
1831	1.8209e+02	1.7876	-7.409154	0.000438	4.381461	0.742240	-0.000044
1832	1.8218e+02	1.7755	-7.447037	0.000381	3.808186	0.645124	-0.000038
1833	1.8228e+02	1.7658	-7.493474	0.000467	4.668099	0.790797	-0.000047
1834	1.8238e+02	1.7571	-7.533393	0.000401	4.012927	0.679808	-0.000040
1835	1.8248e+02	1.7441	-7.581460	0.000483	4.831892	0.818545	-0.000048
1836	1.8258e+02	1.7389	-7.624231	0.000430	4.299565	0.728366	-0.000043
1837	1.8268e+02	1.7286	-7.668631	0.000446	4.463358	0.756113	-0.000045
1838	1.8278e+02	1.7186	-7.716697	0.000483	4.831892	0.818545	-0.000048
1839	1.8288e+02	1.7071	-7.760283	0.000438	4.381461	0.742240	-0.000044
1840	1.8298e+02	1.6979	-7.806313	0.000463	4.627151	0.783861	-0.000046
1841	1.8308e+02	1.6892	-7.847047	0.000409	4.094824	0.693682	-0.000041
1842	1.8318e+02	1.6788	-7.893077	0.000463	4.627151	0.783861	-0.000046
1843	1.8328e+02	1.6666	-7.940328	0.000475	4.749995	0.804671	-0.000047
1844	1.8338e+02	1.6570	-7.979841	0.000397	3.971979	0.672871	-0.000040
1845	1.8348e+02	1.6499	-8.024648	0.000450	4.504306	0.763050	-0.000045
1846	1.8358e+02	1.6358	-8.064975	0.000405	4.053875	0.686745	-0.000041
1847	1.8368e+02	1.6280	-8.113042	0.000483	4.831892	0.818545	-0.000048
1848	1.8378e+02	1.6174	-8.158664	0.000459	4.586202	0.776924	-0.000046
1849	1.8388e+02	1.6057	-8.204694	0.000463	4.627151	0.783861	-0.000046
1850	1.8398e+02	1.5956	-8.251131	0.000467	4.668099	0.790797	-0.000047
1851	1.8407e+02	1.5906	-8.292272	0.000414	4.135772	0.700619	-0.000041
1852	1.8417e+02	1.5791	-8.339524	0.000475	4.749995	0.804671	-0.000047
1853	1.8427e+02	1.5688	-8.385146	0.000459	4.586202	0.776924	-0.000046
1854	1.8437e+02	1.5582	-8.429547	0.000446	4.463358	0.756113	-0.000045
1855	1.8447e+02	1.5482	-8.474762	0.000455	4.545254	0.769987	-0.000045
1856	1.8457e+02	1.5399	-8.516718	0.000422	4.217668	0.714492	-0.000042
1857	1.8467e+02	1.5290	-8.559896	0.000434	4.340513	0.735303	-0.000043
1858	1.8477e+02	1.5177	-8.602260	0.000426	4.258617	0.721429	-0.000043
1859	1.8487e+02	1.5105	-8.648697	0.000467	4.668099	0.790797	-0.000047
1860	1.8497e+02	1.4996	-8.689839	0.000414	4.135772	0.700619	-0.000041
1861	1.8507e+02	1.4908	-8.731795	0.000422	4.217668	0.714492	-0.000042
1862	1.8517e+02	1.4800	-8.779454	0.000479	4.790944	0.811608	-0.000048
1863	1.8527e+02	1.4697	-8.821818	0.000426	4.258617	0.721429	-0.000043
1864	1.8537e+02	1.4588	-8.863774	0.000422	4.217668	0.714492	-0.000042
1865	1.8547e+02	1.4481	-8.907767	0.000442	4.422409	0.749176	-0.000044
1866	1.8557e+02	1.4415	-8.949316	0.000418	4.176720	0.707556	-0.000042
1867	1.8567e+02	1.4285	-8.995753	0.000467	4.668099	0.790797	-0.000047
1868	1.8577e+02	1.4188	-9.037302	0.000418	4.176720	0.707556	-0.000042
1869	1.8587e+02	1.4100	-9.087405	0.000504	5.036633	0.853229	-0.000050
1870	1.8597e+02	1.3992	-9.125695	0.000385	3.849134	0.652061	-0.000038
1871	1.8606e+02	1.3863	-9.170910	0.000455	4.545254	0.769987	-0.000045
1872	1.8616e+02	1.3792	-9.211237	0.000405	4.053875	0.686745	-0.000041
1873	1.8626e+02	1.3696	-9.258896	0.000479	4.790944	0.811608	-0.000048
1874	1.8636e+02	1.3568	-9.300038	0.000414	4.135772	0.700619	-0.000041
1875	1.8646e+02	1.3505	-9.342809	0.000430	4.299565	0.728366	-0.000043
1876	1.8656e+02	1.3405	-9.385580	0.000430	4.299565	0.728366	-0.000043
1877	1.8666e+02	1.3310	-9.429165	0.000438	4.381461	0.742240	-0.000044
1878	1.8676e+02	1.3210	-9.472344	0.000434	4.340513	0.735303	-0.000043
1879	1.8686e+02	1.3101	-9.515929	0.000438	4.381461	0.742240	-0.000044
1880	1.8696e+02	1.2988	-9.562366	0.000467	4.668099	0.790797	-0.000047
1881	1.8706e+02	1.2896	-9.605545	0.000434	4.340513	0.735303	-0.000043
1882	1.8716e+02	1.2809	-9.651982	0.000467	4.668099	0.790797	-0.000047
1883	1.8726e+02	1.2682	-9.696382	0.000446	4.463358	0.756113	-0.000045
1884	1.8736e+02	1.2593	-9.742819	0.000467	4.668099	0.790797	-0.000047
1885	1.8746e+02	1.2508	-9.784368	0.000418	4.176720	0.707556	-0.000042
1886	1.8756e+02	1.2393	-9.832027	0.000479	4.790944	0.811608	-0.000048
1887	1.8766e+02	1.2302	-9.880908	0.000491	4.913788	0.832418	-0.000049
1888	1.8776e+02	1.2197	-9.920828	0.000401	4.012927	0.679808	-0.000040
1889	1.8786e+02	1.2118	-9.963599	0.000430	4.299565	0.728366	-0.000043
1890	1.8796e+02	1.2003	-10.010036	0.000467	4.668099	0.790797	-0.000047
1891	1.8806e+02	1.1913	-10.051585	0.000418	4.176720	0.707556	-0.000042
1892	1.8815e+02	1.1792	-10.098429	0.000471	4.709047	0.797734	-0.000047
1893	1.8825e+02	1.1734	-10.144459	0.000463	4.627151	0.783861	-0.000046
1894	1.8835e+02	1.1609	-10.188045	0.000438	4.381461	0.742240	-0.000044
1895	1.8845e+02	1.1501	-10.233667	0.000459	4.586202	0.776924	-0.000046
1896	1.8855e+02	1.1395	-10.277660	0.000442	4.422409	0.749176	-0.000044
1897	1.8865e+02	1.1319	-10.323690	0.000463	4.627151	0.783861	-0.000046
1898	1.8875e+02	1.1214	-10.371349	0.000479	4.790944	0.811608	-0.000048
1899	1.8885e+02	1.1122	-10.417786	0.000467	4.668099	0.790797	-0.000047
1900	1.8895e+02	1.0988	-10.463408	0.000459	4.586202	0.776924	-0.000046
1901	1.8905e+02	1.0898	-10.507808	0.000446	4.463358	0.756113	-0.000045
1902	1.8915e+02	1.0857	-10.552616	0.000450	4.504306	0.763050	-0.000045
1903	1.8925e+02	1.0696	-10.594980	0.000426	4.258617	0.721429	-0.000043
1904	1.8935e+02	1.0599	-10.637343	0.000426	4.258617	0.721429	-0.000043
1905	1.8945e+02	1.0513	-10.684595	0.000475	4.749995	0.804671	-0.000047
1906	1.8955e+02	1.0398	-10.723700	0.000393	3.931031	0.665935	-0.000039
1907	1.8965e+02	1.0296	-10.765656	0.000422	4.217668	0.714492	-0.000042
1908	1.8975e+02	1.0212	-10.815759	0.000504	5.036633	0.853229	-0.000050
1909	1.8985e+02	1.0096	-10.855679	0.000401	4.012927	0.679808	-0.000040
1910	1.8995e+02	1.0023	-10.898857	0.000434	4.340513	0.735303	-0.000043
1911	1.9004e+02	0.9943	-10.944072	0.000455	4.545254	0.769987	-0.000045
1912	1.9014e+02	0.9805	-10.987251	0.000434	4.340513	0.735303	-0.000043
1913	1.9024e+02	0.9701	-11.029207	0.000422	4.217668	0.714492	-0.000042
1914	1.9034e+02	0.9629	-11.077681	0.000487	4.872840	0.825481	-0.000049
1915	1.9044e+02	0.9527	-11.117193	0.000397	3.971979	0.672871	-0.000040
1916	1.9054e+02	0.9418	-11.162408	0.000455	4.545254	0.769987	-0.000045
1917	1.9064e+02	0.9315	-11.201513	0.000393	3.931031	0.665935	-0.000039
1918	1.9074e+02	0.9209	-11.249579	0.000483	4.831892	0.818545	-0.000048
1919	1.9084e+02	0.9137	-11.290721	0.000414	4.135772	0.700619	-0.000041
1920	1.9094e+02	0.8981	-11.331455	0.000409	4.094824	0.693682	-0.000041
1921	1.9104e+02	0.8907	-11.375041	0.000438	4.381461	0.742240	-0.000044
1922	1.9114e+02	0.8817	-11.418626	0.000438	4.381461	0.742240	-0.000044
1923	1.9124e+02	0.8710	-11.460175	0.000418	4.176720	0.707556	-0.000042
1924	1.9134e+02	0.8607	-11.503354	0.000434	4.340513	0.735303	-0.000043
1925	1.9144e+02	0.8501	-11.542459	0.000393	3.931031	0.665935	-0.000039
1926	1.9154e+02	0.8412	-11.580749	0.000385	3.849134	0.652061	-0.000038
1927	1.9164e+02	0.8348	-11.628815	0.000483	4.831892	0.818545	-0.000048
1928	1.9174e+02	0.8222	-11.673623	0.000450	4.504306	0.763050	-0.000045
1929	1.9184e+02	0.8115	-11.715172	0.000418	4.176720	0.707556	-0.000042
1930	1.9194e+02	0.8051	-11.754277	0.000393	3.931031	0.665935	-0.000039
1931	1.9203e+02	0.7907	-11.795418	0.000414	4.135772	0.700619	-0.000041
1932	1.9213e+02	0.7814	-11.839411	0.000442	4.422409	0.749176	-0.000044
1933	1.9223e+02	0.7713	-11.881775	0.000426	4.258617	0.721429	-0.000043
1934	1.9233e+02	0.7639	-11.923731	0.000422	4.217668	0.714492	-0.000042
1935	1.9243e+02	0.7524	-11.966909	0.000434	4.340513	0.735303	-0.000043
1936	1.9253e+02	0.7422	-12.006829	0.000401	4.012927	0.679808	-0.000040
1937	1.9263e+02	0.7342	-12.049193	0.000426	4.258617	0.721429	-0.000043
1938	1.9273e+02	0.7214	-12.094000	0.000450	4.504306	0.763050	-0.000045
1939	1.9283e+02	0.7118	-12.131476	0.000377	3.767238	0.638187	-0.000038
1940	1.9293e+02	0.7053	-12.178728	0.000475	4.749995	0.804671	-0.000047
1941	1.9303e+02	0.6920	-12.226387	0.000479	4.790944	0.811608	-0.000048
1942	1.9313e+02	0.6796	-12.272824	0.000467	4.668099	0.790797	-0.000047
1943	1.9323e+02	0.6724	-12.313558	0.000409	4.094824	0.693682	-0.000041
1944	1.9333e+02	0.6624	-12.361217	0.000479	4.790944	0.811608	-0.000048
1945	1.9343e+02	0.6516	-12.405210	0.000442	4.422409	0.749176	-0.000044
1946	1.9353e+02	0.6449	-12.448796	0.000438	4.381461	0.742240	-0.000044
1947	1.9363e+02	0.6326	-12.495233	0.000467	4.668099	0.790797	-0.000047
1948	1.9373e+02	0.6249	-12.538411	0.000434	4.340513	0.735303	-0.000043
1949	1.9383e+02	0.6110	-12.587292	0.000491	4.913788	0.832418	-0.000049
1950	1.9393e+02	0.6036	-12.628434	0.000414	4.135772	0.700619	-0.000041
1951	1.9403e+02	0.5927	-12.672427	0.000442	4.422409	0.749176	-0.000044
1952	1.9412e+02	0.5840	-12.721715	0.000495	4.954737	0.839355	-0.000050
1953	1.9422e+02	0.5734	-12.764079	0.000426	4.258617	0.721429	-0.000043
1954	1.9432e+02	0.5621	-12.804813	0.000409	4.094824	0.693682	-0.000041
1955	1.9442e+02	0.5507	-12.852472	0.000479	4.790944	0.811608	-0.000048
1956	1.9452e+02	0.5420	-12.895650	0.000434	4.340513	0.735303	-0.000043
1957	1.9462e+02	0.5330	-12.942495	0.000471	4.709047	0.797734	-0.000047
1958	1.9472e+02	0.5242	-12.990154	0.000479	4.790944	0.811608	-0.000048
1959	1.9482e+02	0.5143	-13.035776	0.000459	4.586202	0.776924	-0.000046
1960	1.9492e+02	0.5022	-13.083843	0.000483	4.831892	0.818545	-0.000048
1961	1.9502e+02	0.4923	-13.126206	0.000426	4.258617	0.721429	-0.000043
1962	1.9512e+02	0.4823	-13.173865	0.000479	4.790944	0.811608	-0.000048
1963	1.9522e+02	0.4742	-13.216636	0.000430	4.299565	0.728366	-0.000043
1964	1.9532e+02	0.4629	-13.261037	0.000446	4.463358	0.756113	-0.000045
1965	1.9542e+02	0.4523	-13.307066	0.000463	4.627151	0.783861	-0.000046
1966	1.9552e+02	0.4481	-13.354726	0.000479	4.790944	0.811608	-0.000048
1967	1.9562e+02	0.4346	-13.397904	0.000434	4.340513	0.735303	-0.000043
1968	1.9572e+02	0.4230	-13.442712	0.000450	4.504306	0.763050	-0.000045
1969	1.9582e+02	0.4138	-13.481816	0.000393	3.931031	0.665935	-0.000039
1970	1.9592e+02	0.4042	-13.529883	0.000483	4.831892	0.818545	-0.000048
1971	1.9601e+02	0.3915	-13.574283	0.000446	4.463358	0.756113	-0.000045
1972	1.9611e+02	0.3833	-13.617869	0.000438	4.381461	0.742240	-0.000044
1973	1.9621e+02	0.3725	-13.662677	0.000450	4.504306	0.763050	-0.000045
1974	1.9631e+02	0.3642	-13.710336	0.000479	4.790944	0.811608	-0.000048
1975	1.9641e+02	0.3518	-13.760031	0.000500	4.995685	0.846292	-0.000050
1976	1.9651e+02	0.3449	-13.804432	0.000446	4.463358	0.756113	-0.000045
1977	1.9661e+02	0.3385	-13.846388	0.000422	4.217668	0.714492	-0.000042
1978	1.9671e+02	0.3253	-13.888752	0.000426	4.258617	0.721429	-0.000043
1979	1.9681e+02	0.3158	-13.933559	0.000450	4.504306	0.763050	-0.000045
1980	1.9691e+02	0.3059	-13.981626	0.000483	4.831892	0.818545	-0.000048
1981	1.9701e+02	0.2943	-14.022360	0.000409	4.094824	0.693682	-0.000041
1982	1.9711e+02	0.2839	-14.070426	0.000483	4.831892	0.818545	-0.000048
1983	1.9721e+02	0.2770	-14.113197	0.000430	4.299565	0.728366	-0.000043
1984	1.9731e+02	0.2634	-14.164115	0.000512	5.118529	0.867102	-0.000051
1985	1.9741e+02	0.2536	-14.206886	0.000430	4.299565	0.728366	-0.000043
1986	1.9751e+02	0.2432	-14.252916	0.000463	4.627151	0.783861	-0.000046
1987	1.9761e+02	0.2374	-14.302204	0.000495	4.954737	0.839355	-0.000050
1988	1.9771e+02	0.2261	-14.347419	0.000455	4.545254	0.769987	-0.000045
1989	1.9781e+02	0.2134	-14.395486	0.000483	4.831892	0.818545	-0.000048
1990	1.9791e+02	0.2036	-14.444367	0.000491	4.913788	0.832418	-0.000049
1991	1.9800e+02	0.1943	-14.487545	0.000434	4.340513	0.735303	-0.000043
1992	1.9810e+02	0.1856	-14.538056	0.000508	5.077581	0.860166	-0.000051
1993	1.9820e+02	0.1757	-14.588159	0.000504	5.036633	0.853229	-0.000050
1994	1.9830e+02	0.1640	-14.633374	0.000455	4.545254	0.769987	-0.000045
1995	1.9840e+02	0.1557	-14.681848	0.000487	4.872840	0.825481	-0.000049
1996	1.9850e+02	0.1456	-14.727470	0.000459	4.586202	0.776924	-0.000046
1997	1.9860e+02	0.1360	-14.775536	0.000483	4.831892	0.818545	-0.000048
1998	1.9870e+02	0.1266	-14.825232	0.000500	4.995685	0.846292	-0.000050
1999	1.9880e+02	0.1164	-14.870855	0.000459	4.586202	0.776924	-0.000046
2000	1.9890e+02	0.1059	-14.920958	0.000504	5.036633	0.853229	-0.000050
2001	1.9900e+02	0.0958	-14.968617	0.000479	4.790944	0.811608	-0.000048
2002	1.9910e+02	0.0859	-15.021164	0.000528	5.282322	0.894850	-0.000053
2003	1.9920e+02	0.0764	-15.068416	0.000475	4.749995	0.804671	-0.000047
2004	1.9930e+02	0.0636	-15.120556	0.000524	5.241374	0.887913	-0.000052
2005	1.9940e+02	0.0577	-15.173917	0.000536	5.364219	0.908723	-0.000054
2006	1.9950e+02	0.0470	-15.221984	0.000483	4.831892	0.818545	-0.000048
2007	1.9960e+02	0.0356	-15.273309	0.000516	5.159478	0.874039	-0.000052
2008	1.9970e+02	0.0297	-15.322190	0.000491	4.913788	0.832418	-0.000049
2009	1.9980e+02	0.0173	-15.370256	0.000483	4.831892	0.818545	-0.000048
2010	1.9990e+02	0.0043	-15.422396	0.000524	5.241374	0.887913	-0.000052
2011	2.0000e+02	-0.0039	-15.468426	0.000524	5.241374	0.887913	-0.000046

PMax (uC/cm2):	3.46e+01
Pr (uC/cm2):	1.82e+00
-Pr (uC/cm2):	0.00e+00
PLoss (uC/cm2):	0.00e+00
C (Max-Eff) (nF):	3.46e-01
K (Eff):	5.86e+02
Vert. (+/-Pr) Shift (uC/cm2):	9.09e-01
Offset (uC/cm2):	1.73e+01

A (Loop Area - uC/cm2·Volts):	-1.83e-02



Hysteresis Version: 5.48.1 - Radiant Technologies, Inc., 1999 - 9/12/24

