»»»»»»»»»»»»»»»»»»»»»»»»»»»»»»»»»»»» Hysteresis ««««««««««««««««««««««««««««««««««««
»»»  Executed Version:	5.48.1
»»»  Vision Version:	5.48.4 (R)
»»»  Vision Compiled:	9/18/24
»»»  Driver Version:	5.47.0
»»»  Windows Version:	Windows 8 or 8.1
»»»  Processor Information:	x86 (AMD or Intel) - 32 Processors
»»»  Tester Name:	PMF21124-494 (100V)
»»»  Tester S/N:	PMF21124-494
»»»  Internal Amp Type:	100V RevK 270k
»»»  Internal Amp S/N:	iAB2-596/K     
»»»  Execution Count:	1
»»»»»»»»»»»»»»»»»»»»»»»»»»»»»»»»»»»»»»»»»»««««««««««««««««««««««««««««««««««««««««««

Stored:	6/30/2025 - 11:38:14
Configured:	06/30/25 10:19:58 AM
Executed:	06/30/25 11:37:42 AM

»»»»»»»»»»»»»»»»»»»»»»»»»»»»»»»»»»» Sample Info ««««««««««««««««««««««««««««««««««««
Sample Name:	
Lot Name:	
Wafer Name:	
Die Row/Column:	0/0
Capacitor Number:	0
Sample Area (cm2):	1.00e-04
Sample Thickness (microns):	1.50e-01

Amplifier:	Internal

»»»»»»»»»»»»»»»»»»»»»»»»»»»»»»»»»»» Tester Info «««««««««««««««««««««««««««««««««««
Tester Name:	PMF21124-494 (100V)
Tester Serial Number:	PMF21124-494
Return Signal Amp. Level:	1.9 [Index: 2]

»»»»»»»»»»»»»»»»»»»»»»»»»»»»»»»» Hysteresis Info ««««««««««««««««««««««««««««««««««
Task Name:	Hyst-1804
Volts:	10.00
Field:	666.67 (kV/cm)
DCBias:	0.00
DCField:	0.00 (kV/cm)
Hysteresis Period (ms):	2.00e+02
Preset:	Enabled
Preset Delay (ms):	1.00e+03
Profile:	Standard Monopolar

»»»»»»»»»»»»»»»»»»»»»»»»»»»»»»»»»»»»»» Data «««««««««««««««««««««««««««««««««««««««
Points:	2011

Valid Data

Point	Time (ms)	Drive Voltage	Measured Polarization (uC/cm2)	Capacitance (uF)	Normalized Capacitance (uF/cm2)	Dielectric Constant	Instantaneous Current (mA)
   1	0.0000e+00	-0.0056	-17.002682	0.000397	3.971267	0.672751	0.000040
   2	9.9500e-02	0.0071	-16.963170	0.000397	3.971267	0.672751	0.000040
   3	1.9900e-01	0.0146	-16.928138	0.000352	3.520917	0.596459	0.000035
   4	2.9850e-01	0.0246	-16.889033	0.000393	3.930326	0.665815	0.000039
   5	3.9800e-01	0.0347	-16.849928	0.000393	3.930326	0.665815	0.000039
   6	4.9750e-01	0.0452	-16.810009	0.000401	4.012208	0.679686	0.000040
   7	5.9700e-01	0.0596	-16.769682	0.000405	4.053148	0.686622	0.000041
   8	6.9650e-01	0.0632	-16.732206	0.000377	3.766562	0.638073	0.000038
   9	7.9600e-01	0.0780	-16.691472	0.000409	4.094089	0.693558	0.000041
  10	8.9550e-01	0.0860	-16.650330	0.000414	4.135030	0.700493	0.000041
  11	9.9500e-01	0.0941	-16.612855	0.000377	3.766562	0.638073	0.000038
  12	1.0945e+00	0.1040	-16.570899	0.000422	4.216912	0.714364	0.000042
  13	1.1940e+00	0.1172	-16.530572	0.000405	4.053148	0.686622	0.000041
  14	1.2935e+00	0.1234	-16.492689	0.000381	3.807503	0.645008	0.000038
  15	1.3930e+00	0.1346	-16.457657	0.000352	3.520917	0.596459	0.000035
  16	1.4925e+00	0.1450	-16.413257	0.000446	4.462557	0.755978	0.000045
  17	1.5920e+00	0.1559	-16.374152	0.000393	3.930326	0.665815	0.000039
  18	1.6915e+00	0.1649	-16.335862	0.000385	3.848444	0.651944	0.000038
  19	1.7910e+00	0.1725	-16.301238	0.000348	3.479976	0.589524	0.000035
  20	1.8905e+00	0.1855	-16.262540	0.000389	3.889385	0.658880	0.000039
  21	1.9900e+00	0.1926	-16.223843	0.000389	3.889385	0.658880	0.000039
  22	2.0895e+00	0.2037	-16.185553	0.000385	3.848444	0.651944	0.000038
  23	2.1890e+00	0.2167	-16.148484	0.000373	3.725621	0.631137	0.000037
  24	2.2885e+00	0.2233	-16.109380	0.000393	3.930326	0.665815	0.000039
  25	2.3880e+00	0.2306	-16.073126	0.000364	3.643740	0.617266	0.000036
  26	2.4875e+00	0.2477	-16.036873	0.000364	3.643740	0.617266	0.000036
  27	2.5870e+00	0.2521	-15.994916	0.000422	4.216912	0.714364	0.000042
  28	2.6865e+00	0.2621	-15.957848	0.000373	3.725621	0.631137	0.000037
  29	2.7860e+00	0.2738	-15.923224	0.000348	3.479976	0.589524	0.000035
  30	2.8855e+00	0.2847	-15.882082	0.000414	4.135030	0.700493	0.000041
  31	2.9850e+00	0.2940	-15.847866	0.000344	3.439035	0.582588	0.000034
  32	3.0845e+00	0.3062	-15.810797	0.000373	3.725621	0.631137	0.000037
  33	3.1840e+00	0.3143	-15.772100	0.000389	3.889385	0.658880	0.000039
  34	3.2835e+00	0.3226	-15.736254	0.000360	3.602799	0.610331	0.000036
  35	3.3830e+00	0.3331	-15.699186	0.000373	3.725621	0.631137	0.000037
  36	3.4825e+00	0.3451	-15.656822	0.000426	4.257853	0.721300	0.000043
  37	3.5820e+00	0.3536	-15.620976	0.000360	3.602799	0.610331	0.000036
  38	3.6815e+00	0.3646	-15.577390	0.000438	4.380676	0.742107	0.000044
  39	3.7810e+00	0.3740	-15.541137	0.000364	3.643740	0.617266	0.000036
  40	3.8805e+00	0.3828	-15.497144	0.000442	4.421617	0.749042	0.000044
  41	3.9800e+00	0.3925	-15.457224	0.000401	4.012208	0.679686	0.000040
  42	4.0795e+00	0.4029	-15.419341	0.000381	3.807503	0.645008	0.000038
  43	4.1790e+00	0.4160	-15.381458	0.000381	3.807503	0.645008	0.000038
  44	4.2785e+00	0.4227	-15.341132	0.000405	4.053148	0.686622	0.000041
  45	4.3780e+00	0.4340	-15.298768	0.000426	4.257853	0.721300	0.000043
  46	4.4775e+00	0.4424	-15.263329	0.000356	3.561858	0.603395	0.000036
  47	4.5770e+00	0.4545	-15.219743	0.000438	4.380676	0.742107	0.000044
  48	4.6765e+00	0.4600	-15.181046	0.000389	3.889385	0.658880	0.000039
  49	4.7760e+00	0.4778	-15.139090	0.000422	4.216912	0.714364	0.000042
  50	4.8755e+00	0.4842	-15.101614	0.000377	3.766562	0.638073	0.000038
  51	4.9750e+00	0.4948	-15.056399	0.000454	4.544439	0.769849	0.000045
  52	5.0745e+00	0.5006	-15.017702	0.000389	3.889385	0.658880	0.000039
  53	5.1740e+00	0.5167	-14.975338	0.000426	4.257853	0.721300	0.000043
  54	5.2735e+00	0.5233	-14.937048	0.000385	3.848444	0.651944	0.000038
  55	5.3730e+00	0.5316	-14.896721	0.000405	4.053148	0.686622	0.000041
  56	5.4725e+00	0.5428	-14.859653	0.000373	3.725621	0.631137	0.000037
  57	5.5720e+00	0.5540	-14.819733	0.000401	4.012208	0.679686	0.000040
  58	5.6715e+00	0.5627	-14.781035	0.000389	3.889385	0.658880	0.000039
  59	5.7710e+00	0.5728	-14.742745	0.000385	3.848444	0.651944	0.000038
  60	5.8705e+00	0.5843	-14.706084	0.000368	3.684680	0.624202	0.000037
  61	5.9700e+00	0.5938	-14.669424	0.000368	3.684680	0.624202	0.000037
  62	6.0695e+00	0.6030	-14.628689	0.000409	4.094089	0.693558	0.000041
  63	6.1690e+00	0.6128	-14.585918	0.000430	4.298794	0.728235	0.000043
  64	6.2685e+00	0.6209	-14.548036	0.000381	3.807503	0.645008	0.000038
  65	6.3680e+00	0.6313	-14.507709	0.000405	4.053148	0.686622	0.000041
  66	6.4675e+00	0.6442	-14.468604	0.000393	3.930326	0.665815	0.000039
  67	6.5670e+00	0.6544	-14.430721	0.000381	3.807503	0.645008	0.000038
  68	6.6665e+00	0.6631	-14.393245	0.000377	3.766562	0.638073	0.000038
  69	6.7660e+00	0.6750	-14.353733	0.000397	3.971267	0.672751	0.000040
  70	6.8655e+00	0.6808	-14.315036	0.000389	3.889385	0.658880	0.000039
  71	6.9650e+00	0.6903	-14.271450	0.000438	4.380676	0.742107	0.000044
  72	7.0645e+00	0.7035	-14.232345	0.000393	3.930326	0.665815	0.000039
  73	7.1640e+00	0.7111	-14.190796	0.000418	4.175971	0.707429	0.000042
  74	7.2635e+00	0.7229	-14.156579	0.000344	3.439035	0.582588	0.000034
  75	7.3630e+00	0.7333	-14.111364	0.000454	4.544439	0.769849	0.000045
  76	7.4625e+00	0.7433	-14.069001	0.000426	4.257853	0.721300	0.000043
  77	7.5620e+00	0.7522	-14.029488	0.000397	3.971267	0.672751	0.000040
  78	7.6615e+00	0.7626	-13.986310	0.000434	4.339735	0.735171	0.000043
  79	7.7610e+00	0.7724	-13.948427	0.000381	3.807503	0.645008	0.000038
  80	7.8605e+00	0.7829	-13.904027	0.000446	4.462557	0.755978	0.000045
  81	7.9600e+00	0.7941	-13.858405	0.000459	4.585380	0.776784	0.000046
  82	8.0595e+00	0.8026	-13.821744	0.000368	3.684680	0.624202	0.000037
  83	8.1590e+00	0.8121	-13.779788	0.000422	4.216912	0.714364	0.000042
  84	8.2585e+00	0.8214	-13.742719	0.000373	3.725621	0.631137	0.000037
  85	8.3580e+00	0.8325	-13.701170	0.000418	4.175971	0.707429	0.000042
  86	8.4575e+00	0.8447	-13.657177	0.000442	4.421617	0.749042	0.000044
  87	8.5570e+00	0.8562	-13.618480	0.000389	3.889385	0.658880	0.000039
  88	8.6565e+00	0.8593	-13.576116	0.000426	4.257853	0.721300	0.000043
  89	8.7560e+00	0.8712	-13.533345	0.000430	4.298794	0.728235	0.000043
  90	8.8555e+00	0.8823	-13.492611	0.000409	4.094089	0.693558	0.000041
  91	8.9550e+00	0.8912	-13.446989	0.000459	4.585380	0.776784	0.000046
  92	9.0545e+00	0.9038	-13.405032	0.000422	4.216912	0.714364	0.000042
  93	9.1540e+00	0.9090	-13.365520	0.000397	3.971267	0.672751	0.000040
  94	9.2535e+00	0.9217	-13.323157	0.000426	4.257853	0.721300	0.000043
  95	9.3530e+00	0.9307	-13.283237	0.000401	4.012208	0.679686	0.000040
  96	9.4525e+00	0.9435	-13.239651	0.000438	4.380676	0.742107	0.000044
  97	9.5520e+00	0.9515	-13.197695	0.000422	4.216912	0.714364	0.000042
  98	9.6515e+00	0.9617	-13.152887	0.000450	4.503498	0.762913	0.000045
  99	9.7510e+00	0.9724	-13.110931	0.000422	4.216912	0.714364	0.000042
 100	9.8505e+00	0.9818	-13.072233	0.000389	3.889385	0.658880	0.000039
 101	9.9500e+00	0.9925	-13.027018	0.000454	4.544439	0.769849	0.000045
 102	1.0050e+01	1.0001	-12.983840	0.000434	4.339735	0.735171	0.000043
 103	1.0149e+01	1.0129	-12.942291	0.000418	4.175971	0.707429	0.000042
 104	1.0248e+01	1.0217	-12.897484	0.000450	4.503498	0.762913	0.000045
 105	1.0348e+01	1.0284	-12.852269	0.000454	4.544439	0.769849	0.000045
 106	1.0447e+01	1.0412	-12.810720	0.000418	4.175971	0.707429	0.000042
 107	1.0547e+01	1.0500	-12.768356	0.000426	4.257853	0.721300	0.000043
 108	1.0646e+01	1.0597	-12.721512	0.000471	4.708203	0.797591	0.000047
 109	1.0746e+01	1.0694	-12.677926	0.000438	4.380676	0.742107	0.000044
 110	1.0845e+01	1.0799	-12.634340	0.000438	4.380676	0.742107	0.000044
 111	1.0945e+01	1.0904	-12.587496	0.000471	4.708203	0.797591	0.000047
 112	1.1044e+01	1.1024	-12.545947	0.000418	4.175971	0.707429	0.000042
 113	1.1144e+01	1.1139	-12.501547	0.000446	4.462557	0.755978	0.000045
 114	1.1243e+01	1.1189	-12.458776	0.000430	4.298794	0.728235	0.000043
 115	1.1343e+01	1.1304	-12.411117	0.000479	4.790085	0.811462	0.000048
 116	1.1443e+01	1.1429	-12.366716	0.000446	4.462557	0.755978	0.000045
 117	1.1542e+01	1.1501	-12.321909	0.000450	4.503498	0.762913	0.000045
 118	1.1642e+01	1.1623	-12.277916	0.000442	4.421617	0.749042	0.000044
 119	1.1741e+01	1.1685	-12.237589	0.000405	4.053148	0.686622	0.000041
 120	1.1841e+01	1.1823	-12.191559	0.000463	4.626321	0.783720	0.000046
 121	1.1940e+01	1.1905	-12.147566	0.000442	4.421617	0.749042	0.000044
 122	1.2040e+01	1.2022	-12.109276	0.000385	3.848444	0.651944	0.000038
 123	1.2139e+01	1.2115	-12.063653	0.000459	4.585380	0.776784	0.000046
 124	1.2239e+01	1.2220	-12.024548	0.000393	3.930326	0.665815	0.000039
 125	1.2338e+01	1.2288	-11.985036	0.000397	3.971267	0.672751	0.000040
 126	1.2438e+01	1.2386	-11.939414	0.000459	4.585380	0.776784	0.000046
 127	1.2537e+01	1.2497	-11.899087	0.000405	4.053148	0.686622	0.000041
 128	1.2636e+01	1.2600	-11.857131	0.000422	4.216912	0.714364	0.000042
 129	1.2736e+01	1.2704	-11.815989	0.000414	4.135030	0.700493	0.000041
 130	1.2835e+01	1.2763	-11.775662	0.000405	4.053148	0.686622	0.000041
 131	1.2935e+01	1.2886	-11.731262	0.000446	4.462557	0.755978	0.000045
 132	1.3034e+01	1.2982	-11.690120	0.000414	4.135030	0.700493	0.000041
 133	1.3134e+01	1.3062	-11.653052	0.000373	3.725621	0.631137	0.000037
 134	1.3233e+01	1.3177	-11.607022	0.000463	4.626321	0.783720	0.000046
 135	1.3333e+01	1.3290	-11.567510	0.000397	3.971267	0.672751	0.000040
 136	1.3432e+01	1.3361	-11.523924	0.000438	4.380676	0.742107	0.000044
 137	1.3532e+01	1.3474	-11.483598	0.000405	4.053148	0.686622	0.000041
 138	1.3632e+01	1.3605	-11.442863	0.000409	4.094089	0.693558	0.000041
 139	1.3731e+01	1.3692	-11.402129	0.000409	4.094089	0.693558	0.000041
 140	1.3831e+01	1.3783	-11.356914	0.000454	4.544439	0.769849	0.000045
 141	1.3930e+01	1.3857	-11.312106	0.000450	4.503498	0.762913	0.000045
 142	1.4030e+01	1.4010	-11.272187	0.000401	4.012208	0.679686	0.000040
 143	1.4129e+01	1.4088	-11.227786	0.000446	4.462557	0.755978	0.000045
 144	1.4229e+01	1.4214	-11.181349	0.000467	4.667262	0.790656	0.000047
 145	1.4328e+01	1.4292	-11.139800	0.000418	4.175971	0.707429	0.000042
 146	1.4428e+01	1.4394	-11.096215	0.000438	4.380676	0.742107	0.000044
 147	1.4527e+01	1.4517	-11.055481	0.000409	4.094089	0.693558	0.000041
 148	1.4627e+01	1.4561	-11.014339	0.000414	4.135030	0.700493	0.000041
 149	1.4726e+01	1.4672	-10.967495	0.000471	4.708203	0.797591	0.000047
 150	1.4825e+01	1.4784	-10.931241	0.000364	3.643740	0.617266	0.000036
 151	1.4925e+01	1.4872	-10.886026	0.000454	4.544439	0.769849	0.000045
 152	1.5024e+01	1.4954	-10.840811	0.000454	4.544439	0.769849	0.000045
 153	1.5124e+01	1.5076	-10.798855	0.000422	4.216912	0.714364	0.000042
 154	1.5223e+01	1.5170	-10.754454	0.000446	4.462557	0.755978	0.000045
 155	1.5323e+01	1.5282	-10.714127	0.000405	4.053148	0.686622	0.000041
 156	1.5422e+01	1.5374	-10.673801	0.000405	4.053148	0.686622	0.000041
 157	1.5522e+01	1.5503	-10.628586	0.000454	4.544439	0.769849	0.000045
 158	1.5621e+01	1.5597	-10.592332	0.000364	3.643740	0.617266	0.000036
 159	1.5721e+01	1.5662	-10.548339	0.000442	4.421617	0.749042	0.000044
 160	1.5820e+01	1.5779	-10.509641	0.000389	3.889385	0.658880	0.000039
 161	1.5920e+01	1.5851	-10.466463	0.000434	4.339735	0.735171	0.000043
 162	1.6020e+01	1.5971	-10.432246	0.000344	3.439035	0.582588	0.000034
 163	1.6119e+01	1.6105	-10.389068	0.000434	4.339735	0.735171	0.000043
 164	1.6218e+01	1.6171	-10.348741	0.000405	4.053148	0.686622	0.000041
 165	1.6318e+01	1.6290	-10.310044	0.000389	3.889385	0.658880	0.000039
 166	1.6418e+01	1.6341	-10.268087	0.000422	4.216912	0.714364	0.000042
 167	1.6517e+01	1.6467	-10.233463	0.000348	3.479976	0.589524	0.000035
 168	1.6616e+01	1.6554	-10.188248	0.000454	4.544439	0.769849	0.000045
 169	1.6716e+01	1.6672	-10.148329	0.000401	4.012208	0.679686	0.000040
 170	1.6816e+01	1.6775	-10.107594	0.000409	4.094089	0.693558	0.000041
 171	1.6915e+01	1.6876	-10.070119	0.000377	3.766562	0.638073	0.000038
 172	1.7015e+01	1.6967	-10.029385	0.000409	4.094089	0.693558	0.000041
 173	1.7114e+01	1.7089	-9.991094	0.000385	3.848444	0.651944	0.000038
 174	1.7213e+01	1.7134	-9.951990	0.000393	3.930326	0.665815	0.000039
 175	1.7313e+01	1.7246	-9.913292	0.000389	3.889385	0.658880	0.000039
 176	1.7413e+01	1.7371	-9.872558	0.000409	4.094089	0.693558	0.000041
 177	1.7512e+01	1.7483	-9.831823	0.000409	4.094089	0.693558	0.000041
 178	1.7611e+01	1.7558	-9.793126	0.000389	3.889385	0.658880	0.000039
 179	1.7711e+01	1.7693	-9.752799	0.000405	4.053148	0.686622	0.000041
 180	1.7811e+01	1.7775	-9.713694	0.000393	3.930326	0.665815	0.000039
 181	1.7910e+01	1.7860	-9.671738	0.000422	4.216912	0.714364	0.000042
 182	1.8009e+01	1.7948	-9.633448	0.000385	3.848444	0.651944	0.000038
 183	1.8109e+01	1.8050	-9.595565	0.000381	3.807503	0.645008	0.000038
 184	1.8209e+01	1.8142	-9.557682	0.000381	3.807503	0.645008	0.000038
 185	1.8308e+01	1.8249	-9.520206	0.000377	3.766562	0.638073	0.000038
 186	1.8407e+01	1.8399	-9.476621	0.000438	4.380676	0.742107	0.000044
 187	1.8507e+01	1.8459	-9.444441	0.000323	3.234331	0.547910	0.000032
 188	1.8607e+01	1.8559	-9.405336	0.000393	3.930326	0.665815	0.000039
 189	1.8706e+01	1.8655	-9.371119	0.000344	3.439035	0.582588	0.000034
 190	1.8805e+01	1.8791	-9.335680	0.000356	3.561858	0.603395	0.000036
 191	1.8905e+01	1.8868	-9.294539	0.000414	4.135030	0.700493	0.000041
 192	1.9005e+01	1.8983	-9.257878	0.000368	3.684680	0.624202	0.000037
 193	1.9104e+01	1.9054	-9.220402	0.000377	3.766562	0.638073	0.000038
 194	1.9203e+01	1.9179	-9.186593	0.000340	3.398094	0.575653	0.000034
 195	1.9303e+01	1.9270	-9.146673	0.000401	4.012208	0.679686	0.000040
 196	1.9402e+01	1.9367	-9.111642	0.000352	3.520917	0.596459	0.000035
 197	1.9502e+01	1.9459	-9.071315	0.000405	4.053148	0.686622	0.000041
 198	1.9602e+01	1.9561	-9.034654	0.000368	3.684680	0.624202	0.000037
 199	1.9701e+01	1.9660	-9.002067	0.000328	3.275272	0.554846	0.000033
 200	1.9800e+01	1.9766	-8.964184	0.000381	3.807503	0.645008	0.000038
 201	1.9900e+01	1.9855	-8.928338	0.000360	3.602799	0.610331	0.000036
 202	2.0000e+01	1.9972	-8.888418	0.000401	4.012208	0.679686	0.000040
 203	2.0099e+01	2.0061	-8.853387	0.000352	3.520917	0.596459	0.000035
 204	2.0198e+01	2.0168	-8.815504	0.000381	3.807503	0.645008	0.000038
 205	2.0298e+01	2.0285	-8.776806	0.000389	3.889385	0.658880	0.000039
 206	2.0398e+01	2.0376	-8.735257	0.000418	4.175971	0.707429	0.000042
 207	2.0497e+01	2.0440	-8.695745	0.000397	3.971267	0.672751	0.000040
 208	2.0596e+01	2.0525	-8.658270	0.000377	3.766562	0.638073	0.000038
 209	2.0696e+01	2.0669	-8.621201	0.000373	3.725621	0.631137	0.000037
 210	2.0796e+01	2.0757	-8.578023	0.000434	4.339735	0.735171	0.000043
 211	2.0895e+01	2.0857	-8.539733	0.000385	3.848444	0.651944	0.000038
 212	2.0994e+01	2.0968	-8.503479	0.000364	3.643740	0.617266	0.000036
 213	2.1094e+01	2.1046	-8.464782	0.000389	3.889385	0.658880	0.000039
 214	2.1194e+01	2.1154	-8.422826	0.000422	4.216912	0.714364	0.000042
 215	2.1293e+01	2.1262	-8.386572	0.000364	3.643740	0.617266	0.000036
 216	2.1392e+01	2.1354	-8.343801	0.000430	4.298794	0.728235	0.000043
 217	2.1492e+01	2.1461	-8.306326	0.000377	3.766562	0.638073	0.000038
 218	2.1591e+01	2.1543	-8.266813	0.000397	3.971267	0.672751	0.000040
 219	2.1691e+01	2.1658	-8.231782	0.000352	3.520917	0.596459	0.000035
 220	2.1791e+01	2.1758	-8.190640	0.000414	4.135030	0.700493	0.000041
 221	2.1890e+01	2.1854	-8.151535	0.000393	3.930326	0.665815	0.000039
 222	2.1989e+01	2.1942	-8.113245	0.000385	3.848444	0.651944	0.000038
 223	2.2089e+01	2.2051	-8.078214	0.000352	3.520917	0.596459	0.000035
 224	2.2189e+01	2.2149	-8.032999	0.000454	4.544439	0.769849	0.000045
 225	2.2288e+01	2.2243	-8.000819	0.000323	3.234331	0.547910	0.000032
 226	2.2387e+01	2.2359	-7.963343	0.000377	3.766562	0.638073	0.000038
 227	2.2487e+01	2.2462	-7.926682	0.000368	3.684680	0.624202	0.000037
 228	2.2587e+01	2.2531	-7.889614	0.000373	3.725621	0.631137	0.000037
 229	2.2686e+01	2.2649	-7.852953	0.000368	3.684680	0.624202	0.000037
 230	2.2785e+01	2.2765	-7.813848	0.000393	3.930326	0.665815	0.000039
 231	2.2885e+01	2.2861	-7.777595	0.000364	3.643740	0.617266	0.000036
 232	2.2985e+01	2.2964	-7.738897	0.000389	3.889385	0.658880	0.000039
 233	2.3084e+01	2.3048	-7.699793	0.000393	3.930326	0.665815	0.000039
 234	2.3183e+01	2.3133	-7.661910	0.000381	3.807503	0.645008	0.000038
 235	2.3283e+01	2.3244	-7.628100	0.000340	3.398094	0.575653	0.000034
 236	2.3383e+01	2.3352	-7.588995	0.000393	3.930326	0.665815	0.000039
 237	2.3482e+01	2.3438	-7.550298	0.000389	3.889385	0.658880	0.000039
 238	2.3581e+01	2.3554	-7.514044	0.000364	3.643740	0.617266	0.000036
 239	2.3681e+01	2.3635	-7.479013	0.000352	3.520917	0.596459	0.000035
 240	2.3780e+01	2.3730	-7.439908	0.000393	3.930326	0.665815	0.000039
 241	2.3880e+01	2.3866	-7.401210	0.000389	3.889385	0.658880	0.000039
 242	2.3980e+01	2.3958	-7.362513	0.000389	3.889385	0.658880	0.000039
 243	2.4079e+01	2.4047	-7.324223	0.000385	3.848444	0.651944	0.000038
 244	2.4178e+01	2.4146	-7.285933	0.000385	3.848444	0.651944	0.000038
 245	2.4278e+01	2.4219	-7.243976	0.000422	4.216912	0.714364	0.000042
 246	2.4378e+01	2.4358	-7.206501	0.000377	3.766562	0.638073	0.000038
 247	2.4477e+01	2.4433	-7.164544	0.000422	4.216912	0.714364	0.000042
 248	2.4576e+01	2.4526	-7.126662	0.000381	3.807503	0.645008	0.000038
 249	2.4676e+01	2.4653	-7.087557	0.000393	3.930326	0.665815	0.000039
 250	2.4776e+01	2.4740	-7.047637	0.000401	4.012208	0.679686	0.000040
 251	2.4875e+01	2.4840	-7.008532	0.000393	3.930326	0.665815	0.000039
 252	2.4974e+01	2.4922	-6.964132	0.000446	4.462557	0.755978	0.000045
 253	2.5074e+01	2.5036	-6.929915	0.000344	3.439035	0.582588	0.000034
 254	2.5174e+01	2.5145	-6.891218	0.000389	3.889385	0.658880	0.000039
 255	2.5273e+01	2.5237	-6.853742	0.000377	3.766562	0.638073	0.000038
 256	2.5372e+01	2.5323	-6.812193	0.000418	4.175971	0.707429	0.000042
 257	2.5472e+01	2.5416	-6.775532	0.000368	3.684680	0.624202	0.000037
 258	2.5572e+01	2.5534	-6.733576	0.000422	4.216912	0.714364	0.000042
 259	2.5671e+01	2.5644	-6.692434	0.000414	4.135030	0.700493	0.000041
 260	2.5770e+01	2.5737	-6.654144	0.000385	3.848444	0.651944	0.000038
 261	2.5870e+01	2.5826	-6.614632	0.000397	3.971267	0.672751	0.000040
 262	2.5970e+01	2.5944	-6.576342	0.000385	3.848444	0.651944	0.000038
 263	2.6069e+01	2.6044	-6.537644	0.000389	3.889385	0.658880	0.000039
 264	2.6169e+01	2.6112	-6.499354	0.000385	3.848444	0.651944	0.000038
 265	2.6268e+01	2.6241	-6.458620	0.000409	4.094089	0.693558	0.000041
 266	2.6367e+01	2.6308	-6.416256	0.000426	4.257853	0.721300	0.000043
 267	2.6467e+01	2.6405	-6.375522	0.000409	4.094089	0.693558	0.000041
 268	2.6567e+01	2.6515	-6.336824	0.000389	3.889385	0.658880	0.000039
 269	2.6666e+01	2.6627	-6.295683	0.000414	4.135030	0.700493	0.000041
 270	2.6765e+01	2.6711	-6.256985	0.000389	3.889385	0.658880	0.000039
 271	2.6865e+01	2.6829	-6.215844	0.000414	4.135030	0.700493	0.000041
 272	2.6965e+01	2.6914	-6.172258	0.000438	4.380676	0.742107	0.000044
 273	2.7064e+01	2.7033	-6.130302	0.000422	4.216912	0.714364	0.000042
 274	2.7163e+01	2.7123	-6.090790	0.000397	3.971267	0.672751	0.000040
 275	2.7263e+01	2.7227	-6.045982	0.000450	4.503498	0.762913	0.000045
 276	2.7363e+01	2.7328	-6.005655	0.000405	4.053148	0.686622	0.000041
 277	2.7462e+01	2.7423	-5.963699	0.000422	4.216912	0.714364	0.000042
 278	2.7561e+01	2.7522	-5.922557	0.000414	4.135030	0.700493	0.000041
 279	2.7661e+01	2.7621	-5.883045	0.000397	3.971267	0.672751	0.000040
 280	2.7761e+01	2.7708	-5.842311	0.000409	4.094089	0.693558	0.000041
 281	2.7860e+01	2.7836	-5.799947	0.000426	4.257853	0.721300	0.000043
 282	2.7959e+01	2.7916	-5.762471	0.000377	3.766562	0.638073	0.000038
 283	2.8059e+01	2.8020	-5.716849	0.000459	4.585380	0.776784	0.000046
 284	2.8159e+01	2.8101	-5.677337	0.000397	3.971267	0.672751	0.000040
 285	2.8258e+01	2.8220	-5.633751	0.000438	4.380676	0.742107	0.000044
 286	2.8358e+01	2.8313	-5.590980	0.000430	4.298794	0.728235	0.000043
 287	2.8457e+01	2.8414	-5.552690	0.000385	3.848444	0.651944	0.000038
 288	2.8556e+01	2.8531	-5.515214	0.000377	3.766562	0.638073	0.000038
 289	2.8656e+01	2.8624	-5.474073	0.000414	4.135030	0.700493	0.000041
 290	2.8756e+01	2.8719	-5.437819	0.000364	3.643740	0.617266	0.000036
 291	2.8855e+01	2.8823	-5.395863	0.000422	4.216912	0.714364	0.000042
 292	2.8954e+01	2.8913	-5.352685	0.000434	4.339735	0.735171	0.000043
 293	2.9054e+01	2.9023	-5.316839	0.000360	3.602799	0.610331	0.000036
 294	2.9154e+01	2.9119	-5.277326	0.000397	3.971267	0.672751	0.000040
 295	2.9253e+01	2.9243	-5.239851	0.000377	3.766562	0.638073	0.000038
 296	2.9352e+01	2.9324	-5.201153	0.000389	3.889385	0.658880	0.000039
 297	2.9452e+01	2.9418	-5.159604	0.000418	4.175971	0.707429	0.000042
 298	2.9552e+01	2.9514	-5.121314	0.000385	3.848444	0.651944	0.000038
 299	2.9651e+01	2.9601	-5.083024	0.000385	3.848444	0.651944	0.000038
 300	2.9750e+01	2.9699	-5.045141	0.000381	3.807503	0.645008	0.000038
 301	2.9850e+01	2.9800	-5.012554	0.000328	3.275272	0.554846	0.000033
 302	2.9950e+01	2.9903	-4.969783	0.000430	4.298794	0.728235	0.000043
 303	3.0049e+01	2.9994	-4.931085	0.000389	3.889385	0.658880	0.000039
 304	3.0148e+01	3.0112	-4.892795	0.000385	3.848444	0.651944	0.000038
 305	3.0248e+01	3.0211	-4.853283	0.000397	3.971267	0.672751	0.000040
 306	3.0348e+01	3.0323	-4.816215	0.000373	3.725621	0.631137	0.000037
 307	3.0447e+01	3.0388	-4.773444	0.000430	4.298794	0.728235	0.000043
 308	3.0547e+01	3.0522	-4.735561	0.000381	3.807503	0.645008	0.000038
 309	3.0646e+01	3.0579	-4.695641	0.000401	4.012208	0.679686	0.000040
 310	3.0745e+01	3.0728	-4.654500	0.000414	4.135030	0.700493	0.000041
 311	3.0845e+01	3.0814	-4.613358	0.000414	4.135030	0.700493	0.000041
 312	3.0945e+01	3.0914	-4.573846	0.000397	3.971267	0.672751	0.000040
 313	3.1044e+01	3.1020	-4.530260	0.000438	4.380676	0.742107	0.000044
 314	3.1143e+01	3.1110	-4.494821	0.000356	3.561858	0.603395	0.000036
 315	3.1243e+01	3.1191	-4.456124	0.000389	3.889385	0.658880	0.000039
 316	3.1343e+01	3.1303	-4.416204	0.000401	4.012208	0.679686	0.000040
 317	3.1442e+01	3.1396	-4.381173	0.000352	3.520917	0.596459	0.000035
 318	3.1541e+01	3.1493	-4.340031	0.000414	4.135030	0.700493	0.000041
 319	3.1641e+01	3.1602	-4.300926	0.000393	3.930326	0.665815	0.000039
 320	3.1741e+01	3.1705	-4.260599	0.000405	4.053148	0.686622	0.000041
 321	3.1840e+01	3.1811	-4.217014	0.000438	4.380676	0.742107	0.000044
 322	3.1939e+01	3.1884	-4.182390	0.000348	3.479976	0.589524	0.000035
 323	3.2039e+01	3.2006	-4.143285	0.000393	3.930326	0.665815	0.000039
 324	3.2139e+01	3.2104	-4.104180	0.000393	3.930326	0.665815	0.000039
 325	3.2238e+01	3.2211	-4.066297	0.000381	3.807503	0.645008	0.000038
 326	3.2337e+01	3.2354	-4.030044	0.000364	3.643740	0.617266	0.000036
 327	3.2437e+01	3.2376	-3.992161	0.000381	3.807503	0.645008	0.000038
 328	3.2536e+01	3.2522	-3.956315	0.000360	3.602799	0.610331	0.000036
 329	3.2636e+01	3.2600	-3.919246	0.000373	3.725621	0.631137	0.000037
 330	3.2736e+01	3.2702	-3.882586	0.000368	3.684680	0.624202	0.000037
 331	3.2835e+01	3.2812	-3.848369	0.000344	3.439035	0.582588	0.000034
 332	3.2934e+01	3.2894	-3.812523	0.000360	3.602799	0.610331	0.000036
 333	3.3034e+01	3.3017	-3.771788	0.000409	4.094089	0.693558	0.000041
 334	3.3133e+01	3.3080	-3.735942	0.000360	3.602799	0.610331	0.000036
 335	3.3233e+01	3.3192	-3.702133	0.000340	3.398094	0.575653	0.000034
 336	3.3333e+01	3.3297	-3.667509	0.000348	3.479976	0.589524	0.000035
 337	3.3432e+01	3.3384	-3.630440	0.000373	3.725621	0.631137	0.000037
 338	3.3532e+01	3.3477	-3.594187	0.000364	3.643740	0.617266	0.000036
 339	3.3631e+01	3.3593	-3.558341	0.000360	3.602799	0.610331	0.000036
 340	3.3730e+01	3.3703	-3.522902	0.000356	3.561858	0.603395	0.000036
 341	3.3830e+01	3.3798	-3.486649	0.000364	3.643740	0.617266	0.000036
 342	3.3929e+01	3.3889	-3.449580	0.000373	3.725621	0.631137	0.000037
 343	3.4029e+01	3.4003	-3.415364	0.000344	3.439035	0.582588	0.000034
 344	3.4129e+01	3.4102	-3.383184	0.000323	3.234331	0.547910	0.000032
 345	3.4228e+01	3.4163	-3.344893	0.000385	3.848444	0.651944	0.000038
 346	3.4328e+01	3.4278	-3.307825	0.000373	3.725621	0.631137	0.000037
 347	3.4427e+01	3.4376	-3.272386	0.000356	3.561858	0.603395	0.000036
 348	3.4526e+01	3.4493	-3.233282	0.000393	3.930326	0.665815	0.000039
 349	3.4626e+01	3.4583	-3.198657	0.000348	3.479976	0.589524	0.000035
 350	3.4725e+01	3.4675	-3.163219	0.000356	3.561858	0.603395	0.000036
 351	3.4825e+01	3.4808	-3.127372	0.000360	3.602799	0.610331	0.000036
 352	3.4925e+01	3.4890	-3.093563	0.000340	3.398094	0.575653	0.000034
 353	3.5024e+01	3.4980	-3.062198	0.000315	3.152449	0.534039	0.000032
 354	3.5123e+01	3.5111	-3.022685	0.000397	3.971267	0.672751	0.000040
 355	3.5223e+01	3.5188	-2.994986	0.000278	2.783981	0.471619	0.000028
 356	3.5322e+01	3.5328	-2.958325	0.000368	3.684680	0.624202	0.000037
 357	3.5422e+01	3.5342	-2.928589	0.000299	2.988685	0.506297	0.000030
 358	3.5522e+01	3.5466	-2.895187	0.000336	3.357153	0.568717	0.000034
 359	3.5621e+01	3.5569	-2.857304	0.000381	3.807503	0.645008	0.000038
 360	3.5721e+01	3.5703	-2.825124	0.000323	3.234331	0.547910	0.000032
 361	3.5820e+01	3.5764	-2.793759	0.000315	3.152449	0.534039	0.000032
 362	3.5919e+01	3.5892	-2.759949	0.000340	3.398094	0.575653	0.000034
 363	3.6019e+01	3.5992	-2.724511	0.000356	3.561858	0.603395	0.000036
 364	3.6118e+01	3.6077	-2.695997	0.000287	2.865863	0.485490	0.000029
 365	3.6218e+01	3.6184	-2.662187	0.000340	3.398094	0.575653	0.000034
 366	3.6318e+01	3.6286	-2.627156	0.000352	3.520917	0.596459	0.000035
 367	3.6417e+01	3.6395	-2.599864	0.000274	2.743040	0.464684	0.000027
 368	3.6517e+01	3.6465	-2.563610	0.000364	3.643740	0.617266	0.000036
 369	3.6616e+01	3.6619	-2.528579	0.000352	3.520917	0.596459	0.000035
 370	3.6715e+01	3.6677	-2.498843	0.000299	2.988685	0.506297	0.000030
 371	3.6815e+01	3.6776	-2.464626	0.000344	3.439035	0.582588	0.000034
 372	3.6914e+01	3.6855	-2.428373	0.000364	3.643740	0.617266	0.000036
 373	3.7014e+01	3.6955	-2.396600	0.000319	3.193390	0.540975	0.000032
 374	3.7114e+01	3.7075	-2.359124	0.000377	3.766562	0.638073	0.000038
 375	3.7213e+01	3.7177	-2.322056	0.000373	3.725621	0.631137	0.000037
 376	3.7313e+01	3.7283	-2.289469	0.000328	3.275272	0.554846	0.000033
 377	3.7412e+01	3.7383	-2.253623	0.000360	3.602799	0.610331	0.000036
 378	3.7511e+01	3.7455	-2.221443	0.000323	3.234331	0.547910	0.000032
 379	3.7611e+01	3.7591	-2.187226	0.000344	3.439035	0.582588	0.000034
 380	3.7711e+01	3.7666	-2.148528	0.000389	3.889385	0.658880	0.000039
 381	3.7810e+01	3.7774	-2.115941	0.000328	3.275272	0.554846	0.000033
 382	3.7910e+01	3.7856	-2.080502	0.000356	3.561858	0.603395	0.000036
 383	3.8009e+01	3.7972	-2.050359	0.000303	3.029626	0.513233	0.000030
 384	3.8108e+01	3.8075	-2.013698	0.000368	3.684680	0.624202	0.000037
 385	3.8208e+01	3.8166	-1.975000	0.000389	3.889385	0.658880	0.000039
 386	3.8307e+01	3.8239	-1.942820	0.000323	3.234331	0.547910	0.000032
 387	3.8407e+01	3.8382	-1.908604	0.000344	3.439035	0.582588	0.000034
 388	3.8507e+01	3.8497	-1.873165	0.000356	3.561858	0.603395	0.000036
 389	3.8606e+01	3.8577	-1.832838	0.000405	4.053148	0.686622	0.000041
 390	3.8706e+01	3.8679	-1.804324	0.000287	2.865863	0.485490	0.000029
 391	3.8805e+01	3.8738	-1.770922	0.000336	3.357153	0.568717	0.000034
 392	3.8904e+01	3.8874	-1.737927	0.000332	3.316212	0.561782	0.000033
 393	3.9004e+01	3.8966	-1.706562	0.000315	3.152449	0.534039	0.000032
 394	3.9103e+01	3.9081	-1.670715	0.000360	3.602799	0.610331	0.000036
 395	3.9203e+01	3.9161	-1.641794	0.000291	2.906803	0.492426	0.000029
 396	3.9303e+01	3.9266	-1.604319	0.000377	3.766562	0.638073	0.000038
 397	3.9402e+01	3.9362	-1.571324	0.000332	3.316212	0.561782	0.000033
 398	3.9502e+01	3.9481	-1.540366	0.000311	3.111508	0.527104	0.000031
 399	3.9601e+01	3.9547	-1.507371	0.000332	3.316212	0.561782	0.000033
 400	3.9700e+01	3.9666	-1.471932	0.000356	3.561858	0.603395	0.000036
 401	3.9800e+01	3.9757	-1.441789	0.000303	3.029626	0.513233	0.000030
 402	3.9900e+01	3.9839	-1.406758	0.000352	3.520917	0.596459	0.000035
 403	3.9999e+01	3.9964	-1.369282	0.000377	3.766562	0.638073	0.000038
 404	4.0099e+01	4.0075	-1.339139	0.000303	3.029626	0.513233	0.000030
 405	4.0198e+01	4.0162	-1.309810	0.000295	2.947744	0.499361	0.000029
 406	4.0297e+01	4.0243	-1.274371	0.000356	3.561858	0.603395	0.000036
 407	4.0397e+01	4.0377	-1.241376	0.000332	3.316212	0.561782	0.000033
 408	4.0496e+01	4.0478	-1.206345	0.000352	3.520917	0.596459	0.000035
 409	4.0596e+01	4.0568	-1.171314	0.000352	3.520917	0.596459	0.000035
 410	4.0696e+01	4.0647	-1.140763	0.000307	3.070567	0.520168	0.000031
 411	4.0795e+01	4.0740	-1.101658	0.000393	3.930326	0.665815	0.000039
 412	4.0895e+01	4.0837	-1.070700	0.000311	3.111508	0.527104	0.000031
 413	4.0994e+01	4.0942	-1.029966	0.000409	4.094089	0.693558	0.000041
 414	4.1093e+01	4.1061	-0.995342	0.000348	3.479976	0.589524	0.000035
 415	4.1193e+01	4.1158	-0.960717	0.000348	3.479976	0.589524	0.000035
 416	4.1292e+01	4.1254	-0.926093	0.000348	3.479976	0.589524	0.000035
 417	4.1392e+01	4.1389	-0.890654	0.000356	3.561858	0.603395	0.000036
 418	4.1492e+01	4.1434	-0.857660	0.000332	3.316212	0.561782	0.000033
 419	4.1591e+01	4.1567	-0.819777	0.000381	3.807503	0.645008	0.000038
 420	4.1691e+01	4.1683	-0.783931	0.000360	3.602799	0.610331	0.000036
 421	4.1790e+01	4.1745	-0.755417	0.000287	2.865863	0.485490	0.000029
 422	4.1889e+01	4.1857	-0.720385	0.000352	3.520917	0.596459	0.000035
 423	4.1989e+01	4.1961	-0.681280	0.000393	3.930326	0.665815	0.000039
 424	4.2089e+01	4.2071	-0.644212	0.000373	3.725621	0.631137	0.000037
 425	4.2188e+01	4.2141	-0.609995	0.000344	3.439035	0.582588	0.000034
 426	4.2288e+01	4.2252	-0.573742	0.000364	3.643740	0.617266	0.000036
 427	4.2387e+01	4.2347	-0.539118	0.000348	3.479976	0.589524	0.000035
 428	4.2486e+01	4.2463	-0.506938	0.000323	3.234331	0.547910	0.000032
 429	4.2586e+01	4.2541	-0.467426	0.000397	3.971267	0.672751	0.000040
 430	4.2685e+01	4.2632	-0.434838	0.000328	3.275272	0.554846	0.000033
 431	4.2785e+01	4.2748	-0.398177	0.000368	3.684680	0.624202	0.000037
 432	4.2885e+01	4.2825	-0.365997	0.000323	3.234331	0.547910	0.000032
 433	4.2984e+01	4.2948	-0.328522	0.000377	3.766562	0.638073	0.000038
 434	4.3084e+01	4.3041	-0.292268	0.000364	3.643740	0.617266	0.000036
 435	4.3183e+01	4.3157	-0.260088	0.000323	3.234331	0.547910	0.000032
 436	4.3282e+01	4.3246	-0.221798	0.000385	3.848444	0.651944	0.000038
 437	4.3382e+01	4.3340	-0.185545	0.000364	3.643740	0.617266	0.000036
 438	4.3481e+01	4.3455	-0.148884	0.000368	3.684680	0.624202	0.000037
 439	4.3581e+01	4.3565	-0.109779	0.000393	3.930326	0.665815	0.000039
 440	4.3681e+01	4.3658	-0.074340	0.000356	3.561858	0.603395	0.000036
 441	4.3780e+01	4.3734	-0.034013	0.000405	4.053148	0.686622	0.000041
 442	4.3880e+01	4.3827	0.001426	0.000356	3.561858	0.603395	0.000036
 443	4.3979e+01	4.3963	0.038494	0.000373	3.725621	0.631137	0.000037
 444	4.4078e+01	4.4023	0.071489	0.000332	3.316212	0.561782	0.000033
 445	4.4178e+01	4.4146	0.110186	0.000389	3.889385	0.658880	0.000039
 446	4.4278e+01	4.4257	0.145218	0.000352	3.520917	0.596459	0.000035
 447	4.4377e+01	4.4358	0.184730	0.000397	3.971267	0.672751	0.000040
 448	4.4477e+01	4.4429	0.222613	0.000381	3.807503	0.645008	0.000038
 449	4.4576e+01	4.4540	0.256015	0.000336	3.357153	0.568717	0.000034
 450	4.4675e+01	4.4624	0.294305	0.000385	3.848444	0.651944	0.000038
 451	4.4775e+01	4.4740	0.332188	0.000381	3.807503	0.645008	0.000038
 452	4.4874e+01	4.4835	0.368849	0.000368	3.684680	0.624202	0.000037
 453	4.4974e+01	4.4926	0.407546	0.000389	3.889385	0.658880	0.000039
 454	4.5074e+01	4.5049	0.442170	0.000348	3.479976	0.589524	0.000035
 455	4.5173e+01	4.5121	0.478424	0.000364	3.643740	0.617266	0.000036
 456	4.5273e+01	4.5240	0.513863	0.000356	3.561858	0.603395	0.000036
 457	4.5372e+01	4.5351	0.550523	0.000368	3.684680	0.624202	0.000037
 458	4.5471e+01	4.5441	0.581074	0.000307	3.070567	0.520168	0.000031
 459	4.5571e+01	4.5519	0.616513	0.000356	3.561858	0.603395	0.000036
 460	4.5670e+01	4.5642	0.651544	0.000352	3.520917	0.596459	0.000035
 461	4.5770e+01	4.5730	0.689427	0.000381	3.807503	0.645008	0.000038
 462	4.5870e+01	4.5814	0.722422	0.000332	3.316212	0.561782	0.000033
 463	4.5969e+01	4.5927	0.758676	0.000364	3.643740	0.617266	0.000036
 464	4.6069e+01	4.6035	0.794114	0.000356	3.561858	0.603395	0.000036
 465	4.6168e+01	4.6130	0.829960	0.000360	3.602799	0.610331	0.000036
 466	4.6267e+01	4.6229	0.862141	0.000323	3.234331	0.547910	0.000032
 467	4.6367e+01	4.6360	0.896357	0.000344	3.439035	0.582588	0.000034
 468	4.6467e+01	4.6424	0.933018	0.000368	3.684680	0.624202	0.000037
 469	4.6566e+01	4.6535	0.966828	0.000340	3.398094	0.575653	0.000034
 470	4.6666e+01	4.6632	0.997786	0.000311	3.111508	0.527104	0.000031
 471	4.6765e+01	4.6722	1.032002	0.000344	3.439035	0.582588	0.000034
 472	4.6864e+01	4.6854	1.063775	0.000319	3.193390	0.540975	0.000032
 473	4.6964e+01	4.6926	1.099621	0.000360	3.602799	0.610331	0.000036
 474	4.7063e+01	4.7033	1.135060	0.000356	3.561858	0.603395	0.000036
 475	4.7163e+01	4.7131	1.168869	0.000340	3.398094	0.575653	0.000034
 476	4.7263e+01	4.7225	1.205530	0.000368	3.684680	0.624202	0.000037
 477	4.7362e+01	4.7301	1.239747	0.000344	3.439035	0.582588	0.000034
 478	4.7462e+01	4.7433	1.278037	0.000385	3.848444	0.651944	0.000038
 479	4.7561e+01	4.7533	1.313883	0.000360	3.602799	0.610331	0.000036
 480	4.7660e+01	4.7614	1.348915	0.000352	3.520917	0.596459	0.000035
 481	4.7760e+01	4.7732	1.383539	0.000348	3.479976	0.589524	0.000035
 482	4.7859e+01	4.7805	1.418570	0.000352	3.520917	0.596459	0.000035
 483	4.7959e+01	4.7921	1.454417	0.000360	3.602799	0.610331	0.000036
 484	4.8059e+01	4.8032	1.486597	0.000323	3.234331	0.547910	0.000032
 485	4.8158e+01	4.8116	1.520406	0.000340	3.398094	0.575653	0.000034
 486	4.8258e+01	4.8231	1.558289	0.000381	3.807503	0.645008	0.000038
 487	4.8357e+01	4.8321	1.594950	0.000368	3.684680	0.624202	0.000037
 488	4.8456e+01	4.8426	1.631203	0.000364	3.643740	0.617266	0.000036
 489	4.8556e+01	4.8514	1.665827	0.000348	3.479976	0.589524	0.000035
 490	4.8656e+01	4.8598	1.702896	0.000373	3.725621	0.631137	0.000037
 491	4.8755e+01	4.8725	1.734261	0.000315	3.152449	0.534039	0.000032
 492	4.8855e+01	4.8804	1.765219	0.000311	3.111508	0.527104	0.000031
 493	4.8954e+01	4.8942	1.803916	0.000389	3.889385	0.658880	0.000039
 494	4.9053e+01	4.8992	1.832838	0.000291	2.906803	0.492426	0.000029
 495	4.9153e+01	4.9111	1.865833	0.000332	3.316212	0.561782	0.000033
 496	4.9252e+01	4.9218	1.899642	0.000340	3.398094	0.575653	0.000034
 497	4.9352e+01	4.9303	1.933044	0.000336	3.357153	0.568717	0.000034
 498	4.9452e+01	4.9444	1.961558	0.000287	2.865863	0.485490	0.000029
 499	4.9551e+01	4.9500	1.994553	0.000332	3.316212	0.561782	0.000033
 500	4.9651e+01	4.9622	2.027955	0.000336	3.357153	0.568717	0.000034
 501	4.9750e+01	4.9699	2.058506	0.000307	3.070567	0.520168	0.000031
 502	4.9849e+01	4.9830	2.091500	0.000332	3.316212	0.561782	0.000033
 503	4.9949e+01	4.9906	2.122866	0.000315	3.152449	0.534039	0.000032
 504	5.0048e+01	5.0018	2.153824	0.000311	3.111508	0.527104	0.000031
 505	5.0148e+01	5.0098	2.187633	0.000340	3.398094	0.575653	0.000034
 506	5.0248e+01	5.0214	2.218999	0.000315	3.152449	0.534039	0.000032
 507	5.0347e+01	5.0274	2.251179	0.000323	3.234331	0.547910	0.000032
 508	5.0447e+01	5.0410	2.279693	0.000287	2.865863	0.485490	0.000029
 509	5.0546e+01	5.0507	2.312280	0.000328	3.275272	0.554846	0.000033
 510	5.0645e+01	5.0610	2.343645	0.000315	3.152449	0.534039	0.000032
 511	5.0745e+01	5.0712	2.371752	0.000282	2.824922	0.478555	0.000028
 512	5.0844e+01	5.0808	2.405969	0.000344	3.439035	0.582588	0.000034
 513	5.0944e+01	5.0939	2.438149	0.000323	3.234331	0.547910	0.000032
 514	5.1044e+01	5.1044	2.469514	0.000315	3.152449	0.534039	0.000032
 515	5.1143e+01	5.1107	2.503731	0.000344	3.439035	0.582588	0.000034
 516	5.1242e+01	5.1185	2.532652	0.000291	2.906803	0.492426	0.000029
 517	5.1342e+01	5.1301	2.567684	0.000352	3.520917	0.596459	0.000035
 518	5.1441e+01	5.1382	2.596605	0.000291	2.906803	0.492426	0.000029
 519	5.1541e+01	5.1508	2.629600	0.000332	3.316212	0.561782	0.000033
 520	5.1641e+01	5.1607	2.656484	0.000270	2.702099	0.457748	0.000027
 521	5.1740e+01	5.1687	2.686628	0.000303	3.029626	0.513233	0.000030
 522	5.1840e+01	5.1799	2.716771	0.000303	3.029626	0.513233	0.000030
 523	5.1939e+01	5.1897	2.743248	0.000266	2.661158	0.450812	0.000027
 524	5.2038e+01	5.2006	2.775021	0.000319	3.193390	0.540975	0.000032
 525	5.2138e+01	5.2099	2.803128	0.000282	2.824922	0.478555	0.000028
 526	5.2237e+01	5.2210	2.836530	0.000336	3.357153	0.568717	0.000034
 527	5.2337e+01	5.2274	2.860156	0.000237	2.374572	0.402263	0.000024
 528	5.2437e+01	5.2393	2.890299	0.000303	3.029626	0.513233	0.000030
 529	5.2536e+01	5.2489	2.920035	0.000299	2.988685	0.506297	0.000030
 530	5.2636e+01	5.2605	2.949364	0.000295	2.947744	0.499361	0.000029
 531	5.2735e+01	5.2702	2.979100	0.000299	2.988685	0.506297	0.000030
 532	5.2834e+01	5.2810	3.003540	0.000246	2.456454	0.416135	0.000025
 533	5.2934e+01	5.2901	3.036128	0.000328	3.275272	0.554846	0.000033
 534	5.3033e+01	5.3002	3.063012	0.000270	2.702099	0.457748	0.000027
 535	5.3133e+01	5.3106	3.089897	0.000270	2.702099	0.457748	0.000027
 536	5.3233e+01	5.3197	3.122892	0.000332	3.316212	0.561782	0.000033
 537	5.3332e+01	5.3293	3.149776	0.000270	2.702099	0.457748	0.000027
 538	5.3431e+01	5.3396	3.182364	0.000328	3.275272	0.554846	0.000033
 539	5.3531e+01	5.3461	3.210063	0.000278	2.783981	0.471619	0.000028
 540	5.3630e+01	5.3602	3.241021	0.000311	3.111508	0.527104	0.000031
 541	5.3730e+01	5.3701	3.269535	0.000287	2.865863	0.485490	0.000029
 542	5.3830e+01	5.3799	3.300493	0.000311	3.111508	0.527104	0.000031
 543	5.3929e+01	5.3910	3.334302	0.000340	3.398094	0.575653	0.000034
 544	5.4029e+01	5.4012	3.362002	0.000278	2.783981	0.471619	0.000028
 545	5.4128e+01	5.4069	3.394182	0.000323	3.234331	0.547910	0.000032
 546	5.4227e+01	5.4188	3.425140	0.000311	3.111508	0.527104	0.000031
 547	5.4327e+01	5.4298	3.457320	0.000323	3.234331	0.547910	0.000032
 548	5.4426e+01	5.4363	3.483797	0.000266	2.661158	0.450812	0.000027
 549	5.4526e+01	5.4452	3.518829	0.000352	3.520917	0.596459	0.000035
 550	5.4626e+01	5.4578	3.546935	0.000282	2.824922	0.478555	0.000028
 551	5.4725e+01	5.4692	3.579523	0.000328	3.275272	0.554846	0.000033
 552	5.4825e+01	5.4763	3.611703	0.000323	3.234331	0.547910	0.000032
 553	5.4924e+01	5.4890	3.645105	0.000336	3.357153	0.568717	0.000034
 554	5.5023e+01	5.4998	3.673211	0.000282	2.824922	0.478555	0.000028
 555	5.5123e+01	5.5068	3.704169	0.000311	3.111508	0.527104	0.000031
 556	5.5222e+01	5.5157	3.729832	0.000258	2.579276	0.436941	0.000026
 557	5.5322e+01	5.5282	3.767308	0.000377	3.766562	0.638073	0.000038
 558	5.5422e+01	5.5395	3.792970	0.000258	2.579276	0.436941	0.000026
 559	5.5521e+01	5.5494	3.825965	0.000332	3.316212	0.561782	0.000033
 560	5.5620e+01	5.5578	3.850405	0.000246	2.456454	0.416135	0.000025
 561	5.5720e+01	5.5685	3.877697	0.000274	2.743040	0.464684	0.000027
 562	5.5819e+01	5.5804	3.911100	0.000336	3.357153	0.568717	0.000034
 563	5.5919e+01	5.5882	3.940428	0.000295	2.947744	0.499361	0.000029
 564	5.6019e+01	5.5975	3.967720	0.000274	2.743040	0.464684	0.000027
 565	5.6118e+01	5.6077	3.996641	0.000291	2.906803	0.492426	0.000029
 566	5.6218e+01	5.6181	4.025155	0.000287	2.865863	0.485490	0.000029
 567	5.6317e+01	5.6267	4.056113	0.000311	3.111508	0.527104	0.000031
 568	5.6416e+01	5.6366	4.085442	0.000295	2.947744	0.499361	0.000029
 569	5.6516e+01	5.6484	4.115585	0.000303	3.029626	0.513233	0.000030
 570	5.6615e+01	5.6561	4.146544	0.000311	3.111508	0.527104	0.000031
 571	5.6715e+01	5.6664	4.173021	0.000266	2.661158	0.450812	0.000027
 572	5.6815e+01	5.6796	4.201535	0.000287	2.865863	0.485490	0.000029
 573	5.6914e+01	5.6872	4.229641	0.000282	2.824922	0.478555	0.000028
 574	5.7014e+01	5.6994	4.256933	0.000274	2.743040	0.464684	0.000027
 575	5.7113e+01	5.7078	4.290743	0.000340	3.398094	0.575653	0.000034
 576	5.7212e+01	5.7178	4.318849	0.000282	2.824922	0.478555	0.000028
 577	5.7312e+01	5.7293	4.349400	0.000307	3.070567	0.520168	0.000031
 578	5.7411e+01	5.7412	4.383617	0.000344	3.439035	0.582588	0.000034
 579	5.7511e+01	5.7497	4.415797	0.000323	3.234331	0.547910	0.000032
 580	5.7611e+01	5.7561	4.443904	0.000282	2.824922	0.478555	0.000028
 581	5.7710e+01	5.7670	4.475676	0.000319	3.193390	0.540975	0.000032
 582	5.7809e+01	5.7769	4.508671	0.000332	3.316212	0.561782	0.000033
 583	5.7909e+01	5.7875	4.535963	0.000274	2.743040	0.464684	0.000027
 584	5.8008e+01	5.7973	4.568143	0.000323	3.234331	0.547910	0.000032
 585	5.8108e+01	5.8077	4.599508	0.000315	3.152449	0.534039	0.000032
 586	5.8208e+01	5.8181	4.630466	0.000311	3.111508	0.527104	0.000031
 587	5.8307e+01	5.8285	4.662239	0.000319	3.193390	0.540975	0.000032
 588	5.8407e+01	5.8366	4.691568	0.000295	2.947744	0.499361	0.000029
 589	5.8506e+01	5.8457	4.727414	0.000360	3.602799	0.610331	0.000036
 590	5.8605e+01	5.8579	4.754299	0.000270	2.702099	0.457748	0.000027
 591	5.8705e+01	5.8686	4.788515	0.000344	3.439035	0.582588	0.000034
 592	5.8804e+01	5.8788	4.820288	0.000319	3.193390	0.540975	0.000032
 593	5.8904e+01	5.8878	4.855320	0.000352	3.520917	0.596459	0.000035
 594	5.9004e+01	5.8988	4.878538	0.000233	2.333631	0.395328	0.000023
 595	5.9103e+01	5.9043	4.911940	0.000336	3.357153	0.568717	0.000034
 596	5.9203e+01	5.9180	4.944120	0.000323	3.234331	0.547910	0.000032
 597	5.9302e+01	5.9255	4.974264	0.000303	3.029626	0.513233	0.000030
 598	5.9401e+01	5.9382	5.006036	0.000319	3.193390	0.540975	0.000032
 599	5.9501e+01	5.9490	5.037402	0.000315	3.152449	0.534039	0.000032
 600	5.9600e+01	5.9542	5.070396	0.000332	3.316212	0.561782	0.000033
 601	5.9700e+01	5.9669	5.102576	0.000323	3.234331	0.547910	0.000032
 602	5.9800e+01	5.9756	5.134349	0.000319	3.193390	0.540975	0.000032
 603	5.9899e+01	5.9864	5.167344	0.000332	3.316212	0.561782	0.000033
 604	5.9998e+01	5.9963	5.195043	0.000278	2.783981	0.471619	0.000028
 605	6.0098e+01	6.0076	5.230889	0.000360	3.602799	0.610331	0.000036
 606	6.0197e+01	6.0149	5.265921	0.000352	3.520917	0.596459	0.000035
 607	6.0297e+01	6.0265	5.301360	0.000356	3.561858	0.603395	0.000036
 608	6.0397e+01	6.0375	5.330688	0.000295	2.947744	0.499361	0.000029
 609	6.0496e+01	6.0463	5.364498	0.000340	3.398094	0.575653	0.000034
 610	6.0596e+01	6.0569	5.398307	0.000340	3.398094	0.575653	0.000034
 611	6.0695e+01	6.0652	5.430080	0.000319	3.193390	0.540975	0.000032
 612	6.0794e+01	6.0778	5.465519	0.000356	3.561858	0.603395	0.000036
 613	6.0894e+01	6.0870	5.494440	0.000291	2.906803	0.492426	0.000029
 614	6.0993e+01	6.0949	5.529879	0.000356	3.561858	0.603395	0.000036
 615	6.1093e+01	6.1067	5.561652	0.000319	3.193390	0.540975	0.000032
 616	6.1193e+01	6.1156	5.596276	0.000348	3.479976	0.589524	0.000035
 617	6.1292e+01	6.1253	5.631714	0.000356	3.561858	0.603395	0.000036
 618	6.1392e+01	6.1356	5.663487	0.000319	3.193390	0.540975	0.000032
 619	6.1491e+01	6.1465	5.698111	0.000348	3.479976	0.589524	0.000035
 620	6.1590e+01	6.1556	5.730699	0.000328	3.275272	0.554846	0.000033
 621	6.1690e+01	6.1651	5.761657	0.000311	3.111508	0.527104	0.000031
 622	6.1789e+01	6.1773	5.795873	0.000344	3.439035	0.582588	0.000034
 623	6.1889e+01	6.1857	5.827646	0.000319	3.193390	0.540975	0.000032
 624	6.1989e+01	6.1965	5.858197	0.000307	3.070567	0.520168	0.000031
 625	6.2088e+01	6.2038	5.891192	0.000332	3.316212	0.561782	0.000033
 626	6.2188e+01	6.2167	5.921335	0.000303	3.029626	0.513233	0.000030
 627	6.2287e+01	6.2273	5.954737	0.000336	3.357153	0.568717	0.000034
 628	6.2386e+01	6.2316	5.986102	0.000315	3.152449	0.534039	0.000032
 629	6.2486e+01	6.2432	6.016246	0.000303	3.029626	0.513233	0.000030
 630	6.2586e+01	6.2551	6.046389	0.000303	3.029626	0.513233	0.000030
 631	6.2685e+01	6.2664	6.081013	0.000348	3.479976	0.589524	0.000035
 632	6.2785e+01	6.2746	6.110342	0.000295	2.947744	0.499361	0.000029
 633	6.2884e+01	6.2855	6.139671	0.000295	2.947744	0.499361	0.000029
 634	6.2983e+01	6.2943	6.171851	0.000323	3.234331	0.547910	0.000032
 635	6.3083e+01	6.3071	6.200365	0.000287	2.865863	0.485490	0.000029
 636	6.3182e+01	6.3132	6.228879	0.000287	2.865863	0.485490	0.000029
 637	6.3282e+01	6.3232	6.261873	0.000332	3.316212	0.561782	0.000033
 638	6.3382e+01	6.3351	6.292831	0.000311	3.111508	0.527104	0.000031
 639	6.3481e+01	6.3457	6.322160	0.000295	2.947744	0.499361	0.000029
 640	6.3581e+01	6.3531	6.351081	0.000291	2.906803	0.492426	0.000029
 641	6.3680e+01	6.3673	6.385706	0.000348	3.479976	0.589524	0.000035
 642	6.3779e+01	6.3725	6.411775	0.000262	2.620217	0.443877	0.000026
 643	6.3879e+01	6.3828	6.445992	0.000344	3.439035	0.582588	0.000034
 644	6.3978e+01	6.3946	6.479394	0.000336	3.357153	0.568717	0.000034
 645	6.4078e+01	6.4025	6.511982	0.000328	3.275272	0.554846	0.000033
 646	6.4177e+01	6.4126	6.545384	0.000336	3.357153	0.568717	0.000034
 647	6.4277e+01	6.4230	6.577157	0.000319	3.193390	0.540975	0.000032
 648	6.4376e+01	6.4310	6.611373	0.000344	3.439035	0.582588	0.000034
 649	6.4476e+01	6.4429	6.641517	0.000303	3.029626	0.513233	0.000030
 650	6.4576e+01	6.4536	6.671660	0.000303	3.029626	0.513233	0.000030
 651	6.4675e+01	6.4654	6.704247	0.000328	3.275272	0.554846	0.000033
 652	6.4775e+01	6.4763	6.732761	0.000287	2.865863	0.485490	0.000029
 653	6.4874e+01	6.4823	6.762090	0.000295	2.947744	0.499361	0.000029
 654	6.4974e+01	6.4924	6.799973	0.000381	3.807503	0.645008	0.000038
 655	6.5073e+01	6.5043	6.830524	0.000307	3.070567	0.520168	0.000031
 656	6.5172e+01	6.5138	6.859038	0.000287	2.865863	0.485490	0.000029
 657	6.5272e+01	6.5224	6.890403	0.000315	3.152449	0.534039	0.000032
 658	6.5371e+01	6.5316	6.922990	0.000328	3.275272	0.554846	0.000033
 659	6.5471e+01	6.5441	6.952319	0.000295	2.947744	0.499361	0.000029
 660	6.5570e+01	6.5520	6.980018	0.000278	2.783981	0.471619	0.000028
 661	6.5670e+01	6.5590	7.015864	0.000360	3.602799	0.610331	0.000036
 662	6.5769e+01	6.5739	7.041934	0.000262	2.620217	0.443877	0.000026
 663	6.5869e+01	6.5852	7.069226	0.000274	2.743040	0.464684	0.000027
 664	6.5969e+01	6.5941	7.100592	0.000315	3.152449	0.534039	0.000032
 665	6.6068e+01	6.6017	7.127069	0.000266	2.661158	0.450812	0.000027
 666	6.6168e+01	6.6134	7.158842	0.000319	3.193390	0.540975	0.000032
 667	6.6267e+01	6.6225	7.184504	0.000258	2.579276	0.436941	0.000026
 668	6.6367e+01	6.6317	7.214240	0.000299	2.988685	0.506297	0.000030
 669	6.6466e+01	6.6421	7.243569	0.000295	2.947744	0.499361	0.000029
 670	6.6566e+01	6.6537	7.268009	0.000246	2.456454	0.416135	0.000025
 671	6.6665e+01	6.6637	7.301412	0.000336	3.357153	0.568717	0.000034
 672	6.6764e+01	6.6759	7.331555	0.000303	3.029626	0.513233	0.000030
 673	6.6864e+01	6.6790	7.356810	0.000254	2.538335	0.430006	0.000025
 674	6.6963e+01	6.6953	7.385324	0.000287	2.865863	0.485490	0.000029
 675	6.7063e+01	6.7007	7.414653	0.000295	2.947744	0.499361	0.000029
 676	6.7162e+01	6.7115	7.441130	0.000266	2.661158	0.450812	0.000027
 677	6.7262e+01	6.7240	7.471681	0.000307	3.070567	0.520168	0.000031
 678	6.7362e+01	6.7309	7.499380	0.000278	2.783981	0.471619	0.000028
 679	6.7461e+01	6.7449	7.528709	0.000295	2.947744	0.499361	0.000029
 680	6.7561e+01	6.7515	7.553557	0.000250	2.497395	0.423070	0.000025
 681	6.7660e+01	6.7624	7.584922	0.000315	3.152449	0.534039	0.000032
 682	6.7760e+01	6.7702	7.612621	0.000278	2.783981	0.471619	0.000028
 683	6.7859e+01	6.7791	7.639099	0.000266	2.661158	0.450812	0.000027
 684	6.7959e+01	6.7992	7.670057	0.000311	3.111508	0.527104	0.000031
 685	6.8058e+01	6.8032	7.695312	0.000254	2.538335	0.430006	0.000025
 686	6.8157e+01	6.8116	7.725455	0.000303	3.029626	0.513233	0.000030
 687	6.8257e+01	6.8252	7.756413	0.000311	3.111508	0.527104	0.000031
 688	6.8356e+01	6.8308	7.781668	0.000254	2.538335	0.430006	0.000025
 689	6.8456e+01	6.8421	7.810182	0.000287	2.865863	0.485490	0.000029
 690	6.8555e+01	6.8510	7.835438	0.000254	2.538335	0.430006	0.000025
 691	6.8655e+01	6.8618	7.858656	0.000233	2.333631	0.395328	0.000023
 692	6.8754e+01	6.8703	7.885133	0.000266	2.661158	0.450812	0.000027
 693	6.8854e+01	6.8829	7.909574	0.000246	2.456454	0.416135	0.000025
 694	6.8954e+01	6.8900	7.931570	0.000221	2.210808	0.374521	0.000022
 695	6.9053e+01	6.9001	7.959270	0.000278	2.783981	0.471619	0.000028
 696	6.9153e+01	6.9082	7.987784	0.000287	2.865863	0.485490	0.000029
 697	6.9252e+01	6.9192	8.014668	0.000270	2.702099	0.457748	0.000027
 698	6.9352e+01	6.9311	8.040738	0.000262	2.620217	0.443877	0.000026
 699	6.9451e+01	6.9394	8.062327	0.000217	2.169867	0.367585	0.000022
 700	6.9550e+01	6.9488	8.089212	0.000270	2.702099	0.457748	0.000027
 701	6.9650e+01	6.9619	8.112838	0.000237	2.374572	0.402263	0.000024
 702	6.9749e+01	6.9703	8.141352	0.000287	2.865863	0.485490	0.000029
 703	6.9849e+01	6.9778	8.167422	0.000262	2.620217	0.443877	0.000026
 704	6.9948e+01	6.9922	8.191862	0.000246	2.456454	0.416135	0.000025
 705	7.0048e+01	7.0005	8.216710	0.000250	2.497395	0.423070	0.000025
 706	7.0147e+01	7.0126	8.242373	0.000258	2.579276	0.436941	0.000026
 707	7.0247e+01	7.0203	8.270072	0.000278	2.783981	0.471619	0.000028
 708	7.0347e+01	7.0306	8.300216	0.000303	3.029626	0.513233	0.000030
 709	7.0446e+01	7.0418	8.329137	0.000291	2.906803	0.492426	0.000029
 710	7.0546e+01	7.0508	8.352763	0.000237	2.374572	0.402263	0.000024
 711	7.0645e+01	7.0625	8.382906	0.000303	3.029626	0.513233	0.000030
 712	7.0745e+01	7.0703	8.411420	0.000287	2.865863	0.485490	0.000029
 713	7.0844e+01	7.0805	8.435861	0.000246	2.456454	0.416135	0.000025
 714	7.0944e+01	7.0901	8.461930	0.000262	2.620217	0.443877	0.000026
 715	7.1043e+01	7.1032	8.492889	0.000311	3.111508	0.527104	0.000031
 716	7.1142e+01	7.1111	8.523032	0.000303	3.029626	0.513233	0.000030
 717	7.1242e+01	7.1220	8.550731	0.000278	2.783981	0.471619	0.000028
 718	7.1341e+01	7.1331	8.576801	0.000262	2.620217	0.443877	0.000026
 719	7.1441e+01	7.1414	8.603686	0.000270	2.702099	0.457748	0.000027
 720	7.1540e+01	7.1484	8.632607	0.000291	2.906803	0.492426	0.000029
 721	7.1640e+01	7.1572	8.662750	0.000303	3.029626	0.513233	0.000030
 722	7.1740e+01	7.1667	8.690450	0.000278	2.783981	0.471619	0.000028
 723	7.1839e+01	7.1792	8.719371	0.000291	2.906803	0.492426	0.000029
 724	7.1939e+01	7.1886	8.743812	0.000246	2.456454	0.416135	0.000025
 725	7.2038e+01	7.2002	8.773548	0.000299	2.988685	0.506297	0.000030
 726	7.2138e+01	7.2119	8.798803	0.000254	2.538335	0.430006	0.000025
 727	7.2237e+01	7.2227	8.824465	0.000258	2.579276	0.436941	0.000026
 728	7.2337e+01	7.2311	8.850943	0.000266	2.661158	0.450812	0.000027
 729	7.2436e+01	7.2388	8.875383	0.000246	2.456454	0.416135	0.000025
 730	7.2535e+01	7.2520	8.901453	0.000262	2.620217	0.443877	0.000026
 731	7.2635e+01	7.2589	8.925486	0.000242	2.415513	0.409199	0.000024
 732	7.2734e+01	7.2695	8.954000	0.000287	2.865863	0.485490	0.000029
 733	7.2834e+01	7.2816	8.978441	0.000246	2.456454	0.416135	0.000025
 734	7.2933e+01	7.2900	9.006140	0.000278	2.783981	0.471619	0.000028
 735	7.3033e+01	7.3006	9.028544	0.000225	2.251749	0.381457	0.000023
 736	7.3132e+01	7.3080	9.063168	0.000348	3.479976	0.589524	0.000035
 737	7.3232e+01	7.3186	9.087201	0.000242	2.415513	0.409199	0.000024
 738	7.3332e+01	7.3272	9.115308	0.000282	2.824922	0.478555	0.000028
 739	7.3431e+01	7.3394	9.137304	0.000221	2.210808	0.374521	0.000022
 740	7.3531e+01	7.3503	9.165818	0.000287	2.865863	0.485490	0.000029
 741	7.3630e+01	7.3598	9.191074	0.000254	2.538335	0.430006	0.000025
 742	7.3730e+01	7.3684	9.219588	0.000287	2.865863	0.485490	0.000029
 743	7.3829e+01	7.3798	9.246472	0.000270	2.702099	0.457748	0.000027
 744	7.3928e+01	7.3879	9.270913	0.000246	2.456454	0.416135	0.000025
 745	7.4028e+01	7.3988	9.300241	0.000295	2.947744	0.499361	0.000029
 746	7.4127e+01	7.4085	9.331607	0.000315	3.152449	0.534039	0.000032
 747	7.4227e+01	7.4179	9.358084	0.000266	2.661158	0.450812	0.000027
 748	7.4326e+01	7.4297	9.386191	0.000282	2.824922	0.478555	0.000028
 749	7.4426e+01	7.4410	9.415927	0.000299	2.988685	0.506297	0.000030
 750	7.4525e+01	7.4468	9.443626	0.000278	2.783981	0.471619	0.000028
 751	7.4625e+01	7.4578	9.474991	0.000315	3.152449	0.534039	0.000032
 752	7.4725e+01	7.4735	9.501061	0.000262	2.620217	0.443877	0.000026
 753	7.4824e+01	7.4790	9.526724	0.000258	2.579276	0.436941	0.000026
 754	7.4924e+01	7.4891	9.559311	0.000328	3.275272	0.554846	0.000033
 755	7.5023e+01	7.4981	9.588233	0.000291	2.906803	0.492426	0.000029
 756	7.5123e+01	7.5115	9.615932	0.000278	2.783981	0.471619	0.000028
 757	7.5222e+01	7.5202	9.641595	0.000258	2.579276	0.436941	0.000026
 758	7.5322e+01	7.5285	9.670923	0.000295	2.947744	0.499361	0.000029
 759	7.5421e+01	7.5407	9.698622	0.000278	2.783981	0.471619	0.000028
 760	7.5520e+01	7.5484	9.730395	0.000319	3.193390	0.540975	0.000032
 761	7.5620e+01	7.5581	9.758094	0.000278	2.783981	0.471619	0.000028
 762	7.5719e+01	7.5690	9.789053	0.000311	3.111508	0.527104	0.000031
 763	7.5819e+01	7.5796	9.815530	0.000266	2.661158	0.450812	0.000027
 764	7.5918e+01	7.5852	9.845266	0.000299	2.988685	0.506297	0.000030
 765	7.6018e+01	7.5990	9.871743	0.000266	2.661158	0.450812	0.000027
 766	7.6118e+01	7.6073	9.901072	0.000295	2.947744	0.499361	0.000029
 767	7.6217e+01	7.6197	9.929586	0.000287	2.865863	0.485490	0.000029
 768	7.6317e+01	7.6279	9.961766	0.000323	3.234331	0.547910	0.000032
 769	7.6416e+01	7.6379	9.986206	0.000246	2.456454	0.416135	0.000025
 770	7.6516e+01	7.6472	10.016350	0.000303	3.029626	0.513233	0.000030
 771	7.6615e+01	7.6552	10.043234	0.000270	2.702099	0.457748	0.000027
 772	7.6715e+01	7.6673	10.079488	0.000364	3.643740	0.617266	0.000036
 773	7.6814e+01	7.6758	10.107594	0.000282	2.824922	0.478555	0.000028
 774	7.6913e+01	7.6888	10.140182	0.000328	3.275272	0.554846	0.000033
 775	7.7013e+01	7.6984	10.171547	0.000315	3.152449	0.534039	0.000032
 776	7.7112e+01	7.7042	10.200061	0.000287	2.865863	0.485490	0.000029
 777	7.7212e+01	7.7154	10.233871	0.000340	3.398094	0.575653	0.000034
 778	7.7311e+01	7.7277	10.264014	0.000303	3.029626	0.513233	0.000030
 779	7.7411e+01	7.7389	10.294565	0.000307	3.070567	0.520168	0.000031
 780	7.7510e+01	7.7465	10.324301	0.000299	2.988685	0.506297	0.000030
 781	7.7610e+01	7.7561	10.356073	0.000319	3.193390	0.540975	0.000032
 782	7.7710e+01	7.7654	10.387031	0.000311	3.111508	0.527104	0.000031
 783	7.7809e+01	7.7766	10.416767	0.000299	2.988685	0.506297	0.000030
 784	7.7909e+01	7.7866	10.448540	0.000319	3.193390	0.540975	0.000032
 785	7.8008e+01	7.7996	10.480720	0.000323	3.234331	0.547910	0.000032
 786	7.8108e+01	7.8051	10.513308	0.000328	3.275272	0.554846	0.000033
 787	7.8207e+01	7.8167	10.543451	0.000303	3.029626	0.513233	0.000030
 788	7.8306e+01	7.8262	10.571150	0.000278	2.783981	0.471619	0.000028
 789	7.8406e+01	7.8347	10.604145	0.000332	3.316212	0.561782	0.000033
 790	7.8505e+01	7.8503	10.632252	0.000282	2.824922	0.478555	0.000028
 791	7.8605e+01	7.8576	10.662395	0.000303	3.029626	0.513233	0.000030
 792	7.8704e+01	7.8692	10.692538	0.000303	3.029626	0.513233	0.000030
 793	7.8804e+01	7.8741	10.723496	0.000311	3.111508	0.527104	0.000031
 794	7.8903e+01	7.8853	10.748344	0.000250	2.497395	0.423070	0.000025
 795	7.9003e+01	7.8957	10.781339	0.000332	3.316212	0.561782	0.000033
 796	7.9103e+01	7.9069	10.807816	0.000266	2.661158	0.450812	0.000027
 797	7.9202e+01	7.9183	10.835108	0.000274	2.743040	0.464684	0.000027
 798	7.9302e+01	7.9270	10.865252	0.000303	3.029626	0.513233	0.000030
 799	7.9401e+01	7.9382	10.892951	0.000278	2.783981	0.471619	0.000028
 800	7.9501e+01	7.9454	10.920650	0.000278	2.783981	0.471619	0.000028
 801	7.9600e+01	7.9559	10.954052	0.000336	3.357153	0.568717	0.000034
 802	7.9700e+01	7.9665	10.984603	0.000307	3.070567	0.520168	0.000031
 803	7.9799e+01	7.9752	11.008636	0.000242	2.415513	0.409199	0.000024
 804	7.9898e+01	7.9868	11.039187	0.000307	3.070567	0.520168	0.000031
 805	7.9998e+01	7.9962	11.066886	0.000278	2.783981	0.471619	0.000028
 806	8.0097e+01	8.0054	11.094178	0.000274	2.743040	0.464684	0.000027
 807	8.0197e+01	8.0147	11.125951	0.000319	3.193390	0.540975	0.000032
 808	8.0296e+01	8.0259	11.153650	0.000278	2.783981	0.471619	0.000028
 809	8.0396e+01	8.0378	11.180535	0.000270	2.702099	0.457748	0.000027
 810	8.0496e+01	8.0445	11.212307	0.000319	3.193390	0.540975	0.000032
 811	8.0595e+01	8.0582	11.240007	0.000278	2.783981	0.471619	0.000028
 812	8.0695e+01	8.0669	11.274631	0.000348	3.479976	0.589524	0.000035
 813	8.0794e+01	8.0756	11.305996	0.000315	3.152449	0.534039	0.000032
 814	8.0894e+01	8.0865	11.334918	0.000291	2.906803	0.492426	0.000029
 815	8.0993e+01	8.0946	11.363431	0.000287	2.865863	0.485490	0.000029
 816	8.1093e+01	8.1065	11.393167	0.000299	2.988685	0.506297	0.000030
 817	8.1192e+01	8.1149	11.425755	0.000328	3.275272	0.554846	0.000033
 818	8.1291e+01	8.1260	11.455084	0.000295	2.947744	0.499361	0.000029
 819	8.1391e+01	8.1364	11.482376	0.000274	2.743040	0.464684	0.000027
 820	8.1490e+01	8.1434	11.513334	0.000311	3.111508	0.527104	0.000031
 821	8.1590e+01	8.1534	11.540625	0.000274	2.743040	0.464684	0.000027
 822	8.1689e+01	8.1673	11.574842	0.000344	3.439035	0.582588	0.000034
 823	8.1789e+01	8.1745	11.601727	0.000270	2.702099	0.457748	0.000027
 824	8.1888e+01	8.1854	11.635536	0.000340	3.398094	0.575653	0.000034
 825	8.1988e+01	8.1960	11.664050	0.000287	2.865863	0.485490	0.000029
 826	8.2088e+01	8.2038	11.691750	0.000278	2.783981	0.471619	0.000028
 827	8.2187e+01	8.2153	11.719856	0.000282	2.824922	0.478555	0.000028
 828	8.2287e+01	8.2253	11.753666	0.000340	3.398094	0.575653	0.000034
 829	8.2386e+01	8.2373	11.775255	0.000217	2.169867	0.367585	0.000022
 830	8.2486e+01	8.2458	11.804176	0.000291	2.906803	0.492426	0.000029
 831	8.2585e+01	8.2571	11.829431	0.000254	2.538335	0.430006	0.000025
 832	8.2684e+01	8.2650	11.859167	0.000299	2.988685	0.506297	0.000030
 833	8.2784e+01	8.2745	11.884830	0.000258	2.579276	0.436941	0.000026
 834	8.2883e+01	8.2843	11.911307	0.000266	2.661158	0.450812	0.000027
 835	8.2983e+01	8.2937	11.941043	0.000299	2.988685	0.506297	0.000030
 836	8.3082e+01	8.3044	11.967928	0.000270	2.702099	0.457748	0.000027
 837	8.3182e+01	8.3154	11.996849	0.000291	2.906803	0.492426	0.000029
 838	8.3281e+01	8.3260	12.021290	0.000246	2.456454	0.416135	0.000025
 839	8.3381e+01	8.3328	12.045730	0.000246	2.456454	0.416135	0.000025
 840	8.3481e+01	8.3430	12.078318	0.000328	3.275272	0.554846	0.000033
 841	8.3580e+01	8.3546	12.105202	0.000270	2.702099	0.457748	0.000027
 842	8.3680e+01	8.3686	12.134124	0.000291	2.906803	0.492426	0.000029
 843	8.3779e+01	8.3732	12.158157	0.000242	2.415513	0.409199	0.000024
 844	8.3879e+01	8.3829	12.185041	0.000270	2.702099	0.457748	0.000027
 845	8.3978e+01	8.3936	12.211519	0.000266	2.661158	0.450812	0.000027
 846	8.4078e+01	8.4023	12.237996	0.000266	2.661158	0.450812	0.000027
 847	8.4177e+01	8.4143	12.268139	0.000303	3.029626	0.513233	0.000030
 848	8.4276e+01	8.4229	12.295839	0.000278	2.783981	0.471619	0.000028
 849	8.4376e+01	8.4329	12.321909	0.000262	2.620217	0.443877	0.000026
 850	8.4475e+01	8.4428	12.349200	0.000274	2.743040	0.464684	0.000027
 851	8.4575e+01	8.4525	12.374863	0.000258	2.579276	0.436941	0.000026
 852	8.4674e+01	8.4649	12.402562	0.000278	2.783981	0.471619	0.000028
 853	8.4774e+01	8.4725	12.434742	0.000323	3.234331	0.547910	0.000032
 854	8.4874e+01	8.4843	12.456332	0.000217	2.169867	0.367585	0.000022
 855	8.4973e+01	8.4932	12.485253	0.000291	2.906803	0.492426	0.000029
 856	8.5073e+01	8.5017	12.508471	0.000233	2.333631	0.395328	0.000023
 857	8.5172e+01	8.5147	12.538207	0.000299	2.988685	0.506297	0.000030
 858	8.5272e+01	8.5239	12.558982	0.000209	2.087986	0.353714	0.000021
 859	8.5371e+01	8.5344	12.582608	0.000237	2.374572	0.402263	0.000024
 860	8.5471e+01	8.5438	12.605826	0.000233	2.333631	0.395328	0.000023
 861	8.5570e+01	8.5513	12.633933	0.000282	2.824922	0.478555	0.000028
 862	8.5669e+01	8.5602	12.658373	0.000246	2.456454	0.416135	0.000025
 863	8.5769e+01	8.5712	12.684851	0.000266	2.661158	0.450812	0.000027
 864	8.5868e+01	8.5849	12.709699	0.000250	2.497395	0.423070	0.000025
 865	8.5968e+01	8.5907	12.737398	0.000278	2.783981	0.471619	0.000028
 866	8.6067e+01	8.6052	12.759394	0.000221	2.210808	0.374521	0.000022
 867	8.6167e+01	8.6157	12.785872	0.000266	2.661158	0.450812	0.000027
 868	8.6266e+01	8.6240	12.811534	0.000258	2.579276	0.436941	0.000026
 869	8.6366e+01	8.6318	12.833531	0.000221	2.210808	0.374521	0.000022
 870	8.6466e+01	8.6434	12.857564	0.000242	2.415513	0.409199	0.000024
 871	8.6565e+01	8.6514	12.883227	0.000258	2.579276	0.436941	0.000026
 872	8.6665e+01	8.6646	12.910518	0.000274	2.743040	0.464684	0.000027
 873	8.6764e+01	8.6725	12.933737	0.000233	2.333631	0.395328	0.000023
 874	8.6864e+01	8.6825	12.961029	0.000274	2.743040	0.464684	0.000027
 875	8.6963e+01	8.6935	12.987914	0.000270	2.702099	0.457748	0.000027
 876	8.7063e+01	8.7014	13.012761	0.000250	2.497395	0.423070	0.000025
 877	8.7162e+01	8.7131	13.042905	0.000303	3.029626	0.513233	0.000030
 878	8.7261e+01	8.7223	13.066531	0.000237	2.374572	0.402263	0.000024
 879	8.7361e+01	8.7360	13.097081	0.000307	3.070567	0.520168	0.000031
 880	8.7460e+01	8.7421	13.123966	0.000270	2.702099	0.457748	0.000027
 881	8.7560e+01	8.7539	13.151258	0.000274	2.743040	0.464684	0.000027
 882	8.7659e+01	8.7605	13.182216	0.000311	3.111508	0.527104	0.000031
 883	8.7759e+01	8.7714	13.207879	0.000258	2.579276	0.436941	0.000026
 884	8.7859e+01	8.7814	13.235985	0.000282	2.824922	0.478555	0.000028
 885	8.7958e+01	8.7920	13.259204	0.000233	2.333631	0.395328	0.000023
 886	8.8058e+01	8.8029	13.288940	0.000299	2.988685	0.506297	0.000030
 887	8.8157e+01	8.8128	13.318268	0.000295	2.947744	0.499361	0.000029
 888	8.8257e+01	8.8232	13.346782	0.000287	2.865863	0.485490	0.000029
 889	8.8356e+01	8.8288	13.377333	0.000307	3.070567	0.520168	0.000031
 890	8.8456e+01	8.8416	13.397700	0.000205	2.047045	0.346779	0.000020
 891	8.8555e+01	8.8520	13.427029	0.000295	2.947744	0.499361	0.000029
 892	8.8654e+01	8.8634	13.453913	0.000270	2.702099	0.457748	0.000027
 893	8.8754e+01	8.8679	13.479983	0.000262	2.620217	0.443877	0.000026
 894	8.8853e+01	8.8788	13.506868	0.000270	2.702099	0.457748	0.000027
 895	8.8953e+01	8.8911	13.537419	0.000307	3.070567	0.520168	0.000031
 896	8.9052e+01	8.9014	13.559008	0.000217	2.169867	0.367585	0.000022
 897	8.9152e+01	8.9104	13.584670	0.000258	2.579276	0.436941	0.000026
 898	8.9251e+01	8.9194	13.613592	0.000291	2.906803	0.492426	0.000029
 899	8.9351e+01	8.9310	13.640069	0.000266	2.661158	0.450812	0.000027
 900	8.9451e+01	8.9413	13.668583	0.000287	2.865863	0.485490	0.000029
 901	8.9550e+01	8.9508	13.691802	0.000233	2.333631	0.395328	0.000023
 902	8.9650e+01	8.9612	13.723167	0.000315	3.152449	0.534039	0.000032
 903	8.9749e+01	8.9732	13.746385	0.000233	2.333631	0.395328	0.000023
 904	8.9849e+01	8.9784	13.776121	0.000299	2.988685	0.506297	0.000030
 905	8.9948e+01	8.9899	13.804635	0.000287	2.865863	0.485490	0.000029
 906	9.0047e+01	9.0004	13.828669	0.000242	2.415513	0.409199	0.000024
 907	9.0147e+01	9.0119	13.852702	0.000242	2.415513	0.409199	0.000024
 908	9.0246e+01	9.0216	13.879994	0.000274	2.743040	0.464684	0.000027
 909	9.0346e+01	9.0322	13.907693	0.000278	2.783981	0.471619	0.000028
 910	9.0445e+01	9.0398	13.937429	0.000299	2.988685	0.506297	0.000030
 911	9.0545e+01	9.0491	13.967165	0.000299	2.988685	0.506297	0.000030
 912	9.0644e+01	9.0625	13.993235	0.000262	2.620217	0.443877	0.000026
 913	9.0744e+01	9.0717	14.020120	0.000270	2.702099	0.457748	0.000027
 914	9.0844e+01	9.0799	14.051078	0.000311	3.111508	0.527104	0.000031
 915	9.0943e+01	9.0885	14.083665	0.000328	3.275272	0.554846	0.000033
 916	9.1043e+01	9.0991	14.112586	0.000291	2.906803	0.492426	0.000029
 917	9.1142e+01	9.1083	14.139878	0.000274	2.743040	0.464684	0.000027
 918	9.1242e+01	9.1187	14.170429	0.000307	3.070567	0.520168	0.000031
 919	9.1341e+01	9.1291	14.200980	0.000307	3.070567	0.520168	0.000031
 920	9.1441e+01	9.1385	14.229494	0.000287	2.865863	0.485490	0.000029
 921	9.1540e+01	9.1491	14.258008	0.000287	2.865863	0.485490	0.000029
 922	9.1639e+01	9.1604	14.288151	0.000303	3.029626	0.513233	0.000030
 923	9.1739e+01	9.1724	14.317072	0.000291	2.906803	0.492426	0.000029
 924	9.1838e+01	9.1785	14.348030	0.000311	3.111508	0.527104	0.000031
 925	9.1938e+01	9.1875	14.377359	0.000295	2.947744	0.499361	0.000029
 926	9.2037e+01	9.1965	14.406280	0.000291	2.906803	0.492426	0.000029
 927	9.2137e+01	9.2105	14.442126	0.000360	3.602799	0.610331	0.000036
 928	9.2237e+01	9.2202	14.468196	0.000262	2.620217	0.443877	0.000026
 929	9.2336e+01	9.2298	14.502413	0.000344	3.439035	0.582588	0.000034
 930	9.2436e+01	9.2361	14.529705	0.000274	2.743040	0.464684	0.000027
 931	9.2535e+01	9.2512	14.558626	0.000291	2.906803	0.492426	0.000029
 932	9.2635e+01	9.2584	14.588362	0.000299	2.988685	0.506297	0.000030
 933	9.2734e+01	9.2671	14.620543	0.000323	3.234331	0.547910	0.000032
 934	9.2834e+01	9.2783	14.647834	0.000274	2.743040	0.464684	0.000027
 935	9.2933e+01	9.2902	14.683273	0.000356	3.561858	0.603395	0.000036
 936	9.3032e+01	9.2993	14.711380	0.000282	2.824922	0.478555	0.000028
 937	9.3132e+01	9.3073	14.742745	0.000315	3.152449	0.534039	0.000032
 938	9.3231e+01	9.3188	14.772074	0.000295	2.947744	0.499361	0.000029
 939	9.3331e+01	9.3281	14.806291	0.000344	3.439035	0.582588	0.000034
 940	9.3430e+01	9.3387	14.836841	0.000307	3.070567	0.520168	0.000031
 941	9.3530e+01	9.3516	14.871466	0.000348	3.479976	0.589524	0.000035
 942	9.3629e+01	9.3575	14.903238	0.000319	3.193390	0.540975	0.000032
 943	9.3729e+01	9.3696	14.934196	0.000311	3.111508	0.527104	0.000031
 944	9.3829e+01	9.3768	14.969635	0.000356	3.561858	0.603395	0.000036
 945	9.3928e+01	9.3876	15.002223	0.000328	3.275272	0.554846	0.000033
 946	9.4028e+01	9.3994	15.034403	0.000323	3.234331	0.547910	0.000032
 947	9.4127e+01	9.4092	15.067397	0.000332	3.316212	0.561782	0.000033
 948	9.4227e+01	9.4196	15.101614	0.000344	3.439035	0.582588	0.000034
 949	9.4326e+01	9.4287	15.129721	0.000282	2.824922	0.478555	0.000028
 950	9.4425e+01	9.4367	15.168826	0.000393	3.930326	0.665815	0.000039
 951	9.4525e+01	9.4495	15.199784	0.000311	3.111508	0.527104	0.000031
 952	9.4624e+01	9.4582	15.231556	0.000319	3.193390	0.540975	0.000032
 953	9.4724e+01	9.4666	15.269032	0.000377	3.766562	0.638073	0.000038
 954	9.4823e+01	9.4765	15.301619	0.000328	3.275272	0.554846	0.000033
 955	9.4923e+01	9.4900	15.335836	0.000344	3.439035	0.582588	0.000034
 956	9.5022e+01	9.4991	15.365979	0.000303	3.029626	0.513233	0.000030
 957	9.5122e+01	9.5056	15.403455	0.000377	3.766562	0.638073	0.000038
 958	9.5222e+01	9.5172	15.435635	0.000323	3.234331	0.547910	0.000032
 959	9.5321e+01	9.5300	15.465371	0.000299	2.988685	0.506297	0.000030
 960	9.5421e+01	9.5374	15.496736	0.000315	3.152449	0.534039	0.000032
 961	9.5520e+01	9.5466	15.528102	0.000315	3.152449	0.534039	0.000032
 962	9.5620e+01	9.5587	15.558652	0.000307	3.070567	0.520168	0.000031
 963	9.5719e+01	9.5685	15.590425	0.000319	3.193390	0.540975	0.000032
 964	9.5819e+01	9.5777	15.621791	0.000315	3.152449	0.534039	0.000032
 965	9.5918e+01	9.5886	15.658044	0.000364	3.643740	0.617266	0.000036
 966	9.6017e+01	9.5996	15.689817	0.000319	3.193390	0.540975	0.000032
 967	9.6117e+01	9.6069	15.720775	0.000311	3.111508	0.527104	0.000031
 968	9.6216e+01	9.6167	15.752140	0.000315	3.152449	0.534039	0.000032
 969	9.6316e+01	9.6252	15.785950	0.000340	3.398094	0.575653	0.000034
 970	9.6415e+01	9.6356	15.818944	0.000332	3.316212	0.561782	0.000033
 971	9.6515e+01	9.6465	15.847866	0.000291	2.906803	0.492426	0.000029
 972	9.6615e+01	9.6587	15.878824	0.000311	3.111508	0.527104	0.000031
 973	9.6714e+01	9.6667	15.911411	0.000328	3.275272	0.554846	0.000033
 974	9.6814e+01	9.6759	15.942369	0.000311	3.111508	0.527104	0.000031
 975	9.6913e+01	9.6879	15.974142	0.000319	3.193390	0.540975	0.000032
 976	9.7013e+01	9.6958	16.011617	0.000377	3.766562	0.638073	0.000038
 977	9.7112e+01	9.7053	16.042168	0.000307	3.070567	0.520168	0.000031
 978	9.7212e+01	9.7182	16.076792	0.000348	3.479976	0.589524	0.000035
 979	9.7311e+01	9.7257	16.110194	0.000336	3.357153	0.568717	0.000034
 980	9.7410e+01	9.7382	16.143596	0.000336	3.357153	0.568717	0.000034
 981	9.7510e+01	9.7449	16.179035	0.000356	3.561858	0.603395	0.000036
 982	9.7609e+01	9.7571	16.212437	0.000336	3.357153	0.568717	0.000034
 983	9.7709e+01	9.7669	16.246654	0.000344	3.439035	0.582588	0.000034
 984	9.7808e+01	9.7760	16.279649	0.000332	3.316212	0.561782	0.000033
 985	9.7908e+01	9.7882	16.311829	0.000323	3.234331	0.547910	0.000032
 986	9.8007e+01	9.7950	16.346453	0.000348	3.479976	0.589524	0.000035
 987	9.8107e+01	9.8072	16.376189	0.000299	2.988685	0.506297	0.000030
 988	9.8207e+01	9.8184	16.410813	0.000348	3.479976	0.589524	0.000035
 989	9.8306e+01	9.8255	16.450325	0.000397	3.971267	0.672751	0.000040
 990	9.8406e+01	9.8368	16.477210	0.000270	2.702099	0.457748	0.000027
 991	9.8505e+01	9.8463	16.513871	0.000368	3.684680	0.624202	0.000037
 992	9.8605e+01	9.8542	16.552568	0.000389	3.889385	0.658880	0.000039
 993	9.8704e+01	9.8647	16.582712	0.000303	3.029626	0.513233	0.000030
 994	9.8803e+01	9.8737	16.617743	0.000352	3.520917	0.596459	0.000035
 995	9.8903e+01	9.8849	16.647072	0.000295	2.947744	0.499361	0.000029
 996	9.9002e+01	9.8954	16.682103	0.000352	3.520917	0.596459	0.000035
 997	9.9102e+01	9.9073	16.712654	0.000307	3.070567	0.520168	0.000031
 998	9.9201e+01	9.9146	16.746871	0.000344	3.439035	0.582588	0.000034
 999	9.9301e+01	9.9253	16.779865	0.000332	3.316212	0.561782	0.000033
1000	9.9400e+01	9.9365	16.811231	0.000315	3.152449	0.534039	0.000032
1001	9.9500e+01	9.9451	16.842596	0.000315	3.152449	0.534039	0.000032
1002	9.9600e+01	9.9561	16.877628	0.000352	3.520917	0.596459	0.000035
1003	9.9699e+01	9.9648	16.905734	0.000282	2.824922	0.478555	0.000028
1004	9.9799e+01	9.9731	16.937914	0.000323	3.234331	0.547910	0.000032
1005	9.9898e+01	9.9855	16.971316	0.000336	3.357153	0.568717	0.000034
1006	9.9998e+01	9.9951	17.002682	0.000315	3.152449	0.534039	0.000032
1007	1.0010e+02	9.9842	16.994128	0.000086	0.859759	0.145647	-0.000009
1008	1.0020e+02	9.9760	16.981093	0.000131	1.310109	0.221938	-0.000013
1009	1.0030e+02	9.9629	16.969687	0.000115	1.146345	0.194196	-0.000011
1010	1.0040e+02	9.9548	16.956652	0.000131	1.310109	0.221938	-0.000013
1011	1.0050e+02	9.9446	16.943617	0.000131	1.310109	0.221938	-0.000013
1012	1.0059e+02	9.9319	16.932212	0.000115	1.146345	0.194196	-0.000011
1013	1.0069e+02	9.9260	16.916732	0.000156	1.555754	0.263552	-0.000016
1014	1.0079e+02	9.9170	16.905327	0.000115	1.146345	0.194196	-0.000011
1015	1.0089e+02	9.9073	16.890255	0.000151	1.514813	0.256616	-0.000015
1016	1.0099e+02	9.8951	16.874776	0.000156	1.555754	0.263552	-0.000016
1017	1.0109e+02	9.8896	16.862149	0.000127	1.269168	0.215003	-0.000013
1018	1.0119e+02	9.8755	16.847077	0.000151	1.514813	0.256616	-0.000015
1019	1.0129e+02	9.8668	16.833227	0.000139	1.391990	0.235810	-0.000014
1020	1.0139e+02	9.8548	16.817748	0.000156	1.555754	0.263552	-0.000016
1021	1.0149e+02	9.8426	16.805528	0.000123	1.228227	0.208067	-0.000012
1022	1.0159e+02	9.8352	16.785976	0.000197	1.965163	0.332908	-0.000020
1023	1.0169e+02	9.8273	16.771719	0.000143	1.432931	0.242745	-0.000014
1024	1.0179e+02	9.8151	16.753795	0.000180	1.801399	0.305165	-0.000018
1025	1.0189e+02	9.8066	16.736687	0.000172	1.719518	0.291294	-0.000017
1026	1.0199e+02	9.7961	16.714283	0.000225	2.251749	0.381457	-0.000023
1027	1.0209e+02	9.7866	16.697990	0.000164	1.637636	0.277423	-0.000016
1028	1.0219e+02	9.7766	16.683733	0.000143	1.432931	0.242745	-0.000014
1029	1.0229e+02	9.7669	16.662551	0.000213	2.128926	0.360650	-0.000021
1030	1.0239e+02	9.7559	16.647072	0.000156	1.555754	0.263552	-0.000016
1031	1.0248e+02	9.7474	16.623039	0.000242	2.415513	0.409199	-0.000024
1032	1.0258e+02	9.7348	16.605523	0.000176	1.760458	0.298230	-0.000018
1033	1.0268e+02	9.7271	16.586785	0.000188	1.883281	0.319036	-0.000019
1034	1.0278e+02	9.7174	16.568862	0.000180	1.801399	0.305165	-0.000018
1035	1.0288e+02	9.7070	16.549310	0.000197	1.965163	0.332908	-0.000020
1036	1.0298e+02	9.6958	16.526906	0.000225	2.251749	0.381457	-0.000023
1037	1.0308e+02	9.6857	16.509390	0.000176	1.760458	0.298230	-0.000018
1038	1.0318e+02	9.6771	16.488208	0.000213	2.128926	0.360650	-0.000021
1039	1.0328e+02	9.6660	16.469470	0.000188	1.883281	0.319036	-0.000019
1040	1.0338e+02	9.6582	16.447881	0.000217	2.169867	0.367585	-0.000022
1041	1.0348e+02	9.6429	16.429551	0.000184	1.842340	0.312101	-0.000018
1042	1.0358e+02	9.6363	16.411628	0.000180	1.801399	0.305165	-0.000018
1043	1.0368e+02	9.6290	16.390446	0.000213	2.128926	0.360650	-0.000021
1044	1.0378e+02	9.6167	16.375782	0.000147	1.473872	0.249681	-0.000015
1045	1.0388e+02	9.6063	16.357859	0.000180	1.801399	0.305165	-0.000018
1046	1.0398e+02	9.5947	16.337084	0.000209	2.087986	0.353714	-0.000021
1047	1.0408e+02	9.5876	16.316310	0.000209	2.087986	0.353714	-0.000021
1048	1.0418e+02	9.5760	16.299609	0.000168	1.678577	0.284359	-0.000017
1049	1.0428e+02	9.5677	16.278427	0.000213	2.128926	0.360650	-0.000021
1050	1.0438e+02	9.5597	16.261726	0.000168	1.678577	0.284359	-0.000017
1051	1.0447e+02	9.5473	16.241766	0.000201	2.006104	0.339843	-0.000020
1052	1.0457e+02	9.5361	16.223435	0.000184	1.842340	0.312101	-0.000018
1053	1.0467e+02	9.5264	16.205512	0.000180	1.801399	0.305165	-0.000018
1054	1.0477e+02	9.5178	16.188404	0.000172	1.719518	0.291294	-0.000017
1055	1.0487e+02	9.5084	16.166815	0.000217	2.169867	0.367585	-0.000022
1056	1.0497e+02	9.4991	16.146448	0.000205	2.047045	0.346779	-0.000020
1057	1.0507e+02	9.4904	16.128525	0.000180	1.801399	0.305165	-0.000018
1058	1.0517e+02	9.4746	16.112638	0.000160	1.596695	0.270487	-0.000016
1059	1.0527e+02	9.4723	16.089420	0.000233	2.333631	0.395328	-0.000023
1060	1.0537e+02	9.4558	16.074755	0.000147	1.473872	0.249681	-0.000015
1061	1.0547e+02	9.4482	16.051537	0.000233	2.333631	0.395328	-0.000023
1062	1.0557e+02	9.4386	16.030355	0.000213	2.128926	0.360650	-0.000021
1063	1.0567e+02	9.4289	16.006322	0.000242	2.415513	0.409199	-0.000024
1064	1.0577e+02	9.4193	15.987991	0.000184	1.842340	0.312101	-0.000018
1065	1.0587e+02	9.4068	15.963958	0.000242	2.415513	0.409199	-0.000024
1066	1.0597e+02	9.4014	15.946035	0.000180	1.801399	0.305165	-0.000018
1067	1.0607e+02	9.3872	15.926483	0.000197	1.965163	0.332908	-0.000020
1068	1.0617e+02	9.3774	15.903264	0.000233	2.333631	0.395328	-0.000023
1069	1.0627e+02	9.3671	15.882082	0.000213	2.128926	0.360650	-0.000021
1070	1.0637e+02	9.3586	15.860493	0.000217	2.169867	0.367585	-0.000022
1071	1.0647e+02	9.3512	15.838904	0.000217	2.169867	0.367585	-0.000022
1072	1.0656e+02	9.3369	15.816908	0.000221	2.210808	0.374521	-0.000022
1073	1.0666e+02	9.3287	15.796948	0.000201	2.006104	0.339843	-0.000020
1074	1.0676e+02	9.3182	15.773322	0.000237	2.374572	0.402263	-0.000024
1075	1.0686e+02	9.3076	15.749696	0.000237	2.374572	0.402263	-0.000024
1076	1.0696e+02	9.2979	15.730551	0.000192	1.924222	0.325972	-0.000019
1077	1.0706e+02	9.2857	15.709777	0.000209	2.087986	0.353714	-0.000021
1078	1.0716e+02	9.2776	15.685336	0.000246	2.456454	0.416135	-0.000025
1079	1.0726e+02	9.2659	15.668228	0.000172	1.719518	0.291294	-0.000017
1080	1.0736e+02	9.2599	15.645824	0.000225	2.251749	0.381457	-0.000023
1081	1.0746e+02	9.2496	15.626271	0.000197	1.965163	0.332908	-0.000020
1082	1.0756e+02	9.2393	15.608756	0.000176	1.760458	0.298230	-0.000018
1083	1.0766e+02	9.2310	15.586759	0.000221	2.210808	0.374521	-0.000022
1084	1.0776e+02	9.2188	15.568429	0.000184	1.842340	0.312101	-0.000018
1085	1.0786e+02	9.2090	15.547247	0.000213	2.128926	0.360650	-0.000021
1086	1.0796e+02	9.2002	15.530138	0.000172	1.719518	0.291294	-0.000017
1087	1.0806e+02	9.1906	15.507735	0.000225	2.251749	0.381457	-0.000023
1088	1.0816e+02	9.1807	15.486960	0.000209	2.087986	0.353714	-0.000021
1089	1.0826e+02	9.1681	15.467000	0.000201	2.006104	0.339843	-0.000020
1090	1.0836e+02	9.1595	15.442560	0.000246	2.456454	0.416135	-0.000025
1091	1.0845e+02	9.1492	15.429932	0.000127	1.269168	0.215003	-0.000013
1092	1.0855e+02	9.1396	15.406306	0.000237	2.374572	0.402263	-0.000024
1093	1.0865e+02	9.1327	15.390013	0.000164	1.637636	0.277423	-0.000016
1094	1.0875e+02	9.1196	15.367609	0.000225	2.251749	0.381457	-0.000023
1095	1.0885e+02	9.1102	15.347242	0.000205	2.047045	0.346779	-0.000020
1096	1.0895e+02	9.0993	15.327282	0.000201	2.006104	0.339843	-0.000020
1097	1.0905e+02	9.0911	15.306915	0.000205	2.047045	0.346779	-0.000020
1098	1.0915e+02	9.0791	15.288992	0.000180	1.801399	0.305165	-0.000018
1099	1.0925e+02	9.0690	15.268625	0.000205	2.047045	0.346779	-0.000020
1100	1.0935e+02	9.0617	15.246221	0.000225	2.251749	0.381457	-0.000023
1101	1.0945e+02	9.0503	15.228705	0.000176	1.760458	0.298230	-0.000018
1102	1.0955e+02	9.0395	15.207116	0.000217	2.169867	0.367585	-0.000022
1103	1.0965e+02	9.0302	15.187563	0.000197	1.965163	0.332908	-0.000020
1104	1.0975e+02	9.0188	15.165160	0.000225	2.251749	0.381457	-0.000023
1105	1.0985e+02	9.0100	15.145607	0.000197	1.965163	0.332908	-0.000020
1106	1.0995e+02	8.9992	15.125647	0.000201	2.006104	0.339843	-0.000020
1107	1.1005e+02	8.9865	15.108539	0.000172	1.719518	0.291294	-0.000017
1108	1.1015e+02	8.9818	15.091431	0.000172	1.719518	0.291294	-0.000017
1109	1.1025e+02	8.9726	15.069841	0.000217	2.169867	0.367585	-0.000022
1110	1.1035e+02	8.9619	15.052733	0.000172	1.719518	0.291294	-0.000017
1111	1.1044e+02	8.9520	15.033181	0.000197	1.965163	0.332908	-0.000020
1112	1.1054e+02	8.9414	15.015665	0.000176	1.760458	0.298230	-0.000018
1113	1.1064e+02	8.9307	14.994890	0.000209	2.087986	0.353714	-0.000021
1114	1.1074e+02	8.9194	14.974931	0.000201	2.006104	0.339843	-0.000020
1115	1.1084e+02	8.9101	14.962710	0.000123	1.228227	0.208067	-0.000012
1116	1.1094e+02	8.9001	14.939492	0.000233	2.333631	0.395328	-0.000023
1117	1.1104e+02	8.8883	14.923198	0.000164	1.637636	0.277423	-0.000016
1118	1.1114e+02	8.8801	14.901609	0.000217	2.169867	0.367585	-0.000022
1119	1.1124e+02	8.8708	14.882056	0.000197	1.965163	0.332908	-0.000020
1120	1.1134e+02	8.8592	14.862911	0.000192	1.924222	0.325972	-0.000019
1121	1.1144e+02	8.8477	14.850284	0.000127	1.269168	0.215003	-0.000013
1122	1.1154e+02	8.8398	14.831546	0.000188	1.883281	0.319036	-0.000019
1123	1.1164e+02	8.8293	14.812808	0.000188	1.883281	0.319036	-0.000019
1124	1.1174e+02	8.8212	14.792441	0.000205	2.047045	0.346779	-0.000020
1125	1.1184e+02	8.8116	14.773703	0.000188	1.883281	0.319036	-0.000019
1126	1.1194e+02	8.8009	14.755373	0.000184	1.842340	0.312101	-0.000018
1127	1.1204e+02	8.7923	14.731747	0.000237	2.374572	0.402263	-0.000024
1128	1.1214e+02	8.7818	14.713824	0.000180	1.801399	0.305165	-0.000018
1129	1.1224e+02	8.7708	14.690605	0.000233	2.333631	0.395328	-0.000023
1130	1.1234e+02	8.7629	14.669831	0.000209	2.087986	0.353714	-0.000021
1131	1.1244e+02	8.7518	14.650279	0.000197	1.965163	0.332908	-0.000020
1132	1.1253e+02	8.7431	14.629504	0.000209	2.087986	0.353714	-0.000021
1133	1.1263e+02	8.7299	14.609544	0.000201	2.006104	0.339843	-0.000020
1134	1.1273e+02	8.7240	14.590399	0.000192	1.924222	0.325972	-0.000019
1135	1.1283e+02	8.7109	14.568403	0.000221	2.210808	0.374521	-0.000022
1136	1.1293e+02	8.7026	14.542740	0.000258	2.579276	0.436941	-0.000026
1137	1.1303e+02	8.6930	14.523188	0.000197	1.965163	0.332908	-0.000020
1138	1.1313e+02	8.6781	14.502821	0.000205	2.047045	0.346779	-0.000020
1139	1.1323e+02	8.6707	14.477973	0.000250	2.497395	0.423070	-0.000025
1140	1.1333e+02	8.6591	14.458420	0.000197	1.965163	0.332908	-0.000020
1141	1.1343e+02	8.6534	14.435609	0.000229	2.292690	0.388392	-0.000023
1142	1.1353e+02	8.6419	14.414020	0.000217	2.169867	0.367585	-0.000022
1143	1.1363e+02	8.6358	14.394875	0.000192	1.924222	0.325972	-0.000019
1144	1.1373e+02	8.6244	14.372064	0.000229	2.292690	0.388392	-0.000023
1145	1.1383e+02	8.6104	14.352104	0.000201	2.006104	0.339843	-0.000020
1146	1.1393e+02	8.6015	14.331737	0.000205	2.047045	0.346779	-0.000020
1147	1.1403e+02	8.5950	14.312999	0.000188	1.883281	0.319036	-0.000019
1148	1.1413e+02	8.5851	14.288966	0.000242	2.415513	0.409199	-0.000024
1149	1.1423e+02	8.5721	14.269413	0.000197	1.965163	0.332908	-0.000020
1150	1.1433e+02	8.5610	14.250675	0.000188	1.883281	0.319036	-0.000019
1151	1.1442e+02	8.5503	14.229086	0.000217	2.169867	0.367585	-0.000022
1152	1.1452e+02	8.5437	14.209534	0.000197	1.965163	0.332908	-0.000020
1153	1.1462e+02	8.5337	14.188352	0.000213	2.128926	0.360650	-0.000021
1154	1.1472e+02	8.5229	14.167170	0.000213	2.128926	0.360650	-0.000021
1155	1.1482e+02	8.5134	14.146803	0.000205	2.047045	0.346779	-0.000020
1156	1.1492e+02	8.5025	14.126436	0.000205	2.047045	0.346779	-0.000020
1157	1.1502e+02	8.4929	14.106069	0.000205	2.047045	0.346779	-0.000020
1158	1.1512e+02	8.4835	14.086109	0.000201	2.006104	0.339843	-0.000020
1159	1.1522e+02	8.4728	14.065335	0.000209	2.087986	0.353714	-0.000021
1160	1.1532e+02	8.4637	14.043745	0.000217	2.169867	0.367585	-0.000022
1161	1.1542e+02	8.4534	14.022564	0.000213	2.128926	0.360650	-0.000021
1162	1.1552e+02	8.4449	13.998530	0.000242	2.415513	0.409199	-0.000024
1163	1.1562e+02	8.4335	13.976127	0.000225	2.251749	0.381457	-0.000023
1164	1.1572e+02	8.4218	13.952908	0.000233	2.333631	0.395328	-0.000023
1165	1.1582e+02	8.4170	13.932541	0.000205	2.047045	0.346779	-0.000020
1166	1.1592e+02	8.4026	13.910137	0.000225	2.251749	0.381457	-0.000023
1167	1.1602e+02	8.3939	13.885697	0.000246	2.456454	0.416135	-0.000025
1168	1.1612e+02	8.3838	13.862071	0.000237	2.374572	0.402263	-0.000024
1169	1.1622e+02	8.3720	13.837223	0.000250	2.497395	0.423070	-0.000025
1170	1.1632e+02	8.3643	13.809524	0.000278	2.783981	0.471619	-0.000028
1171	1.1642e+02	8.3530	13.789564	0.000201	2.006104	0.339843	-0.000020
1172	1.1651e+02	8.3433	13.767975	0.000217	2.169867	0.367585	-0.000022
1173	1.1661e+02	8.3318	13.741905	0.000262	2.620217	0.443877	-0.000026
1174	1.1671e+02	8.3232	13.717464	0.000246	2.456454	0.416135	-0.000025
1175	1.1681e+02	8.3143	13.694653	0.000229	2.292690	0.388392	-0.000023
1176	1.1691e+02	8.3031	13.669398	0.000254	2.538335	0.430006	-0.000025
1177	1.1701e+02	8.2961	13.645364	0.000242	2.415513	0.409199	-0.000024
1178	1.1711e+02	8.2844	13.618480	0.000270	2.702099	0.457748	-0.000027
1179	1.1721e+02	8.2746	13.596076	0.000225	2.251749	0.381457	-0.000023
1180	1.1731e+02	8.2647	13.571228	0.000250	2.497395	0.423070	-0.000025
1181	1.1741e+02	8.2540	13.543529	0.000278	2.783981	0.471619	-0.000028
1182	1.1751e+02	8.2426	13.523569	0.000201	2.006104	0.339843	-0.000020
1183	1.1761e+02	8.2324	13.495870	0.000278	2.783981	0.471619	-0.000028
1184	1.1771e+02	8.2242	13.473059	0.000229	2.292690	0.388392	-0.000023
1185	1.1781e+02	8.2163	13.451062	0.000221	2.210808	0.374521	-0.000022
1186	1.1791e+02	8.2038	13.427844	0.000233	2.333631	0.395328	-0.000023
1187	1.1801e+02	8.1968	13.404625	0.000233	2.333631	0.395328	-0.000023
1188	1.1811e+02	8.1860	13.380592	0.000242	2.415513	0.409199	-0.000024
1189	1.1821e+02	8.1738	13.356151	0.000246	2.456454	0.416135	-0.000025
1190	1.1831e+02	8.1646	13.332933	0.000233	2.333631	0.395328	-0.000023
1191	1.1841e+02	8.1548	13.301567	0.000315	3.152449	0.534039	-0.000032
1192	1.1850e+02	8.1455	13.276312	0.000254	2.538335	0.430006	-0.000025
1193	1.1860e+02	8.1339	13.246983	0.000295	2.947744	0.499361	-0.000029
1194	1.1870e+02	8.1243	13.218062	0.000291	2.906803	0.492426	-0.000029
1195	1.1880e+02	8.1161	13.194029	0.000242	2.415513	0.409199	-0.000024
1196	1.1890e+02	8.1049	13.165922	0.000282	2.824922	0.478555	-0.000028
1197	1.1900e+02	8.0957	13.140260	0.000258	2.579276	0.436941	-0.000026
1198	1.1910e+02	8.0848	13.117856	0.000225	2.251749	0.381457	-0.000023
1199	1.1920e+02	8.0740	13.091379	0.000266	2.661158	0.450812	-0.000027
1200	1.1930e+02	8.0669	13.063272	0.000282	2.824922	0.478555	-0.000028
1201	1.1940e+02	8.0553	13.034351	0.000291	2.906803	0.492426	-0.000029
1202	1.1950e+02	8.0463	13.008281	0.000262	2.620217	0.443877	-0.000026
1203	1.1960e+02	8.0361	12.979767	0.000287	2.865863	0.485490	-0.000029
1204	1.1970e+02	8.0279	12.950438	0.000295	2.947744	0.499361	-0.000029
1205	1.1980e+02	8.0168	12.924775	0.000258	2.579276	0.436941	-0.000026
1206	1.1990e+02	8.0070	12.898298	0.000266	2.661158	0.450812	-0.000027
1207	1.2000e+02	7.9974	12.871414	0.000270	2.702099	0.457748	-0.000027
1208	1.2010e+02	7.9836	12.845344	0.000262	2.620217	0.443877	-0.000026
1209	1.2020e+02	7.9755	12.815608	0.000299	2.988685	0.506297	-0.000030
1210	1.2030e+02	7.9655	12.792797	0.000229	2.292690	0.388392	-0.000023
1211	1.2039e+02	7.9561	12.764690	0.000282	2.824922	0.478555	-0.000028
1212	1.2049e+02	7.9472	12.739027	0.000258	2.579276	0.436941	-0.000026
1213	1.2059e+02	7.9350	12.715401	0.000237	2.374572	0.402263	-0.000024
1214	1.2069e+02	7.9277	12.693812	0.000217	2.169867	0.367585	-0.000022
1215	1.2079e+02	7.9152	12.665706	0.000282	2.824922	0.478555	-0.000028
1216	1.2089e+02	7.9084	12.641672	0.000242	2.415513	0.409199	-0.000024
1217	1.2099e+02	7.8963	12.618047	0.000237	2.374572	0.402263	-0.000024
1218	1.2109e+02	7.8867	12.591569	0.000266	2.661158	0.450812	-0.000027
1219	1.2119e+02	7.8766	12.564277	0.000274	2.743040	0.464684	-0.000027
1220	1.2129e+02	7.8667	12.541466	0.000229	2.292690	0.388392	-0.000023
1221	1.2139e+02	7.8568	12.517433	0.000242	2.415513	0.409199	-0.000024
1222	1.2149e+02	7.8467	12.488919	0.000287	2.865863	0.485490	-0.000029
1223	1.2159e+02	7.8345	12.464886	0.000242	2.415513	0.409199	-0.000024
1224	1.2169e+02	7.8262	12.440445	0.000246	2.456454	0.416135	-0.000025
1225	1.2179e+02	7.8153	12.412746	0.000278	2.783981	0.471619	-0.000028
1226	1.2189e+02	7.8072	12.390749	0.000221	2.210808	0.374521	-0.000022
1227	1.2199e+02	7.7979	12.367531	0.000233	2.333631	0.395328	-0.000023
1228	1.2209e+02	7.7876	12.338610	0.000291	2.906803	0.492426	-0.000029
1229	1.2219e+02	7.7759	12.309688	0.000291	2.906803	0.492426	-0.000029
1230	1.2229e+02	7.7676	12.287692	0.000221	2.210808	0.374521	-0.000022
1231	1.2239e+02	7.7570	12.258770	0.000291	2.906803	0.492426	-0.000029
1232	1.2248e+02	7.7471	12.230256	0.000287	2.865863	0.485490	-0.000029
1233	1.2258e+02	7.7367	12.204594	0.000258	2.579276	0.436941	-0.000026
1234	1.2268e+02	7.7271	12.175265	0.000295	2.947744	0.499361	-0.000029
1235	1.2278e+02	7.7164	12.151639	0.000237	2.374572	0.402263	-0.000024
1236	1.2288e+02	7.7078	12.122718	0.000291	2.906803	0.492426	-0.000029
1237	1.2298e+02	7.6949	12.100314	0.000225	2.251749	0.381457	-0.000023
1238	1.2308e+02	7.6865	12.071800	0.000287	2.865863	0.485490	-0.000029
1239	1.2318e+02	7.6771	12.045323	0.000266	2.661158	0.450812	-0.000027
1240	1.2328e+02	7.6672	12.018846	0.000266	2.661158	0.450812	-0.000027
1241	1.2338e+02	7.6579	11.991961	0.000270	2.702099	0.457748	-0.000027
1242	1.2348e+02	7.6453	11.962225	0.000299	2.988685	0.506297	-0.000030
1243	1.2358e+02	7.6372	11.936562	0.000258	2.579276	0.436941	-0.000026
1244	1.2368e+02	7.6254	11.908048	0.000287	2.865863	0.485490	-0.000029
1245	1.2378e+02	7.6186	11.883201	0.000250	2.497395	0.423070	-0.000025
1246	1.2388e+02	7.6054	11.858760	0.000246	2.456454	0.416135	-0.000025
1247	1.2398e+02	7.5994	11.829839	0.000291	2.906803	0.492426	-0.000029
1248	1.2408e+02	7.5915	11.805805	0.000242	2.415513	0.409199	-0.000024
1249	1.2418e+02	7.5761	11.782180	0.000237	2.374572	0.402263	-0.000024
1250	1.2428e+02	7.5680	11.757739	0.000246	2.456454	0.416135	-0.000025
1251	1.2438e+02	7.5563	11.733706	0.000242	2.415513	0.409199	-0.000024
1252	1.2447e+02	7.5474	11.707636	0.000262	2.620217	0.443877	-0.000026
1253	1.2457e+02	7.5379	11.685639	0.000221	2.210808	0.374521	-0.000022
1254	1.2467e+02	7.5263	11.660792	0.000250	2.497395	0.423070	-0.000025
1255	1.2477e+02	7.5186	11.634722	0.000262	2.620217	0.443877	-0.000026
1256	1.2487e+02	7.5076	11.609059	0.000258	2.579276	0.436941	-0.000026
1257	1.2497e+02	7.4976	11.584618	0.000246	2.456454	0.416135	-0.000025
1258	1.2507e+02	7.4869	11.560993	0.000237	2.374572	0.402263	-0.000024
1259	1.2517e+02	7.4773	11.535737	0.000254	2.538335	0.430006	-0.000025
1260	1.2527e+02	7.4682	11.509260	0.000266	2.661158	0.450812	-0.000027
1261	1.2537e+02	7.4581	11.485634	0.000237	2.374572	0.402263	-0.000024
1262	1.2547e+02	7.4490	11.462416	0.000233	2.333631	0.395328	-0.000023
1263	1.2557e+02	7.4378	11.435124	0.000274	2.743040	0.464684	-0.000027
1264	1.2567e+02	7.4321	11.409869	0.000254	2.538335	0.430006	-0.000025
1265	1.2577e+02	7.4175	11.391945	0.000180	1.801399	0.305165	-0.000018
1266	1.2587e+02	7.4090	11.365468	0.000266	2.661158	0.450812	-0.000027
1267	1.2597e+02	7.3980	11.336954	0.000287	2.865863	0.485490	-0.000029
1268	1.2607e+02	7.3906	11.312106	0.000250	2.497395	0.423070	-0.000025
1269	1.2617e+02	7.3794	11.290925	0.000213	2.128926	0.360650	-0.000021
1270	1.2627e+02	7.3698	11.265669	0.000254	2.538335	0.430006	-0.000025
1271	1.2636e+02	7.3594	11.243265	0.000225	2.251749	0.381457	-0.000023
1272	1.2646e+02	7.3479	11.223306	0.000201	2.006104	0.339843	-0.000020
1273	1.2656e+02	7.3382	11.195606	0.000278	2.783981	0.471619	-0.000028
1274	1.2666e+02	7.3286	11.167500	0.000282	2.824922	0.478555	-0.000028
1275	1.2676e+02	7.3198	11.143874	0.000237	2.374572	0.402263	-0.000024
1276	1.2686e+02	7.3093	11.122692	0.000213	2.128926	0.360650	-0.000021
1277	1.2696e+02	7.2970	11.099474	0.000233	2.333631	0.395328	-0.000023
1278	1.2706e+02	7.2891	11.077070	0.000225	2.251749	0.381457	-0.000023
1279	1.2716e+02	7.2805	11.053444	0.000237	2.374572	0.402263	-0.000024
1280	1.2726e+02	7.2721	11.032262	0.000213	2.128926	0.360650	-0.000021
1281	1.2736e+02	7.2600	11.010673	0.000217	2.169867	0.367585	-0.000022
1282	1.2746e+02	7.2491	10.987862	0.000229	2.292690	0.388392	-0.000023
1283	1.2756e+02	7.2380	10.963828	0.000242	2.415513	0.409199	-0.000024
1284	1.2766e+02	7.2298	10.940203	0.000237	2.374572	0.402263	-0.000024
1285	1.2776e+02	7.2205	10.916984	0.000233	2.333631	0.395328	-0.000023
1286	1.2786e+02	7.2095	10.896617	0.000205	2.047045	0.346779	-0.000020
1287	1.2796e+02	7.1981	10.876657	0.000201	2.006104	0.339843	-0.000020
1288	1.2806e+02	7.1904	10.852217	0.000246	2.456454	0.416135	-0.000025
1289	1.2816e+02	7.1755	10.828183	0.000242	2.415513	0.409199	-0.000024
1290	1.2826e+02	7.1708	10.804558	0.000237	2.374572	0.402263	-0.000024
1291	1.2835e+02	7.1639	10.781339	0.000233	2.333631	0.395328	-0.000023
1292	1.2845e+02	7.1548	10.759750	0.000217	2.169867	0.367585	-0.000022
1293	1.2855e+02	7.1391	10.737753	0.000221	2.210808	0.374521	-0.000022
1294	1.2865e+02	7.1317	10.713720	0.000242	2.415513	0.409199	-0.000024
1295	1.2875e+02	7.1207	10.686836	0.000270	2.702099	0.457748	-0.000027
1296	1.2885e+02	7.1096	10.661988	0.000250	2.497395	0.423070	-0.000025
1297	1.2895e+02	7.1004	10.634288	0.000278	2.783981	0.471619	-0.000028
1298	1.2905e+02	7.0902	10.612292	0.000221	2.210808	0.374521	-0.000022
1299	1.2915e+02	7.0814	10.586222	0.000262	2.620217	0.443877	-0.000026
1300	1.2925e+02	7.0757	10.560967	0.000254	2.538335	0.430006	-0.000025
1301	1.2935e+02	7.0602	10.538970	0.000221	2.210808	0.374521	-0.000022
1302	1.2945e+02	7.0495	10.515752	0.000233	2.333631	0.395328	-0.000023
1303	1.2955e+02	7.0403	10.488052	0.000278	2.783981	0.471619	-0.000028
1304	1.2965e+02	7.0294	10.465241	0.000229	2.292690	0.388392	-0.000023
1305	1.2975e+02	7.0238	10.439579	0.000258	2.579276	0.436941	-0.000026
1306	1.2985e+02	7.0100	10.408213	0.000315	3.152449	0.534039	-0.000032
1307	1.2995e+02	7.0004	10.387031	0.000213	2.128926	0.360650	-0.000021
1308	1.3005e+02	6.9875	10.361369	0.000258	2.579276	0.436941	-0.000026
1309	1.3015e+02	6.9820	10.338150	0.000233	2.333631	0.395328	-0.000023
1310	1.3025e+02	6.9713	10.308414	0.000299	2.988685	0.506297	-0.000030
1311	1.3034e+02	6.9612	10.283974	0.000246	2.456454	0.416135	-0.000025
1312	1.3044e+02	6.9506	10.257496	0.000266	2.661158	0.450812	-0.000027
1313	1.3054e+02	6.9415	10.237944	0.000197	1.965163	0.332908	-0.000020
1314	1.3064e+02	6.9287	10.213503	0.000246	2.456454	0.416135	-0.000025
1315	1.3074e+02	6.9215	10.190285	0.000233	2.333631	0.395328	-0.000023
1316	1.3084e+02	6.9092	10.168696	0.000217	2.169867	0.367585	-0.000022
1317	1.3094e+02	6.9033	10.141811	0.000270	2.702099	0.457748	-0.000027
1318	1.3104e+02	6.8913	10.120629	0.000213	2.128926	0.360650	-0.000021
1319	1.3114e+02	6.8807	10.094967	0.000258	2.579276	0.436941	-0.000026
1320	1.3124e+02	6.8691	10.067675	0.000274	2.743040	0.464684	-0.000027
1321	1.3134e+02	6.8624	10.045271	0.000225	2.251749	0.381457	-0.000023
1322	1.3144e+02	6.8508	10.020830	0.000246	2.456454	0.416135	-0.000025
1323	1.3154e+02	6.8420	9.994353	0.000266	2.661158	0.450812	-0.000027
1324	1.3164e+02	6.8327	9.968283	0.000262	2.620217	0.443877	-0.000026
1325	1.3174e+02	6.8224	9.949138	0.000192	1.924222	0.325972	-0.000019
1326	1.3184e+02	6.8114	9.924290	0.000250	2.497395	0.423070	-0.000025
1327	1.3194e+02	6.8026	9.895369	0.000291	2.906803	0.492426	-0.000029
1328	1.3204e+02	6.7929	9.871743	0.000237	2.374572	0.402263	-0.000024
1329	1.3214e+02	6.7808	9.848525	0.000233	2.333631	0.395328	-0.000023
1330	1.3224e+02	6.7707	9.822047	0.000266	2.661158	0.450812	-0.000027
1331	1.3234e+02	6.7623	9.795977	0.000262	2.620217	0.443877	-0.000026
1332	1.3243e+02	6.7507	9.767463	0.000287	2.865863	0.485490	-0.000029
1333	1.3253e+02	6.7408	9.739764	0.000278	2.783981	0.471619	-0.000028
1334	1.3263e+02	6.7318	9.713287	0.000266	2.661158	0.450812	-0.000027
1335	1.3273e+02	6.7225	9.685995	0.000274	2.743040	0.464684	-0.000027
1336	1.3283e+02	6.7121	9.657481	0.000287	2.865863	0.485490	-0.000029
1337	1.3293e+02	6.7022	9.629782	0.000278	2.783981	0.471619	-0.000028
1338	1.3303e+02	6.6924	9.601675	0.000282	2.824922	0.478555	-0.000028
1339	1.3313e+02	6.6808	9.578456	0.000233	2.333631	0.395328	-0.000023
1340	1.3323e+02	6.6748	9.551979	0.000266	2.661158	0.450812	-0.000027
1341	1.3333e+02	6.6631	9.523465	0.000287	2.865863	0.485490	-0.000029
1342	1.3343e+02	6.6504	9.493322	0.000303	3.029626	0.513233	-0.000030
1343	1.3353e+02	6.6402	9.467659	0.000258	2.579276	0.436941	-0.000026
1344	1.3363e+02	6.6328	9.437109	0.000307	3.070567	0.520168	-0.000031
1345	1.3373e+02	6.6262	9.411853	0.000254	2.538335	0.430006	-0.000025
1346	1.3383e+02	6.6163	9.383339	0.000287	2.865863	0.485490	-0.000029
1347	1.3393e+02	6.6055	9.356047	0.000274	2.743040	0.464684	-0.000027
1348	1.3403e+02	6.5939	9.328755	0.000274	2.743040	0.464684	-0.000027
1349	1.3413e+02	6.5862	9.301871	0.000270	2.702099	0.457748	-0.000027
1350	1.3423e+02	6.5716	9.272542	0.000295	2.947744	0.499361	-0.000029
1351	1.3432e+02	6.5630	9.243214	0.000295	2.947744	0.499361	-0.000029
1352	1.3442e+02	6.5514	9.217144	0.000262	2.620217	0.443877	-0.000026
1353	1.3452e+02	6.5447	9.191074	0.000262	2.620217	0.443877	-0.000026
1354	1.3462e+02	6.5304	9.164596	0.000266	2.661158	0.450812	-0.000027
1355	1.3472e+02	6.5262	9.133638	0.000311	3.111508	0.527104	-0.000031
1356	1.3482e+02	6.5130	9.106754	0.000270	2.702099	0.457748	-0.000027
1357	1.3492e+02	6.5038	9.072944	0.000340	3.398094	0.575653	-0.000034
1358	1.3502e+02	6.4942	9.051763	0.000213	2.128926	0.360650	-0.000021
1359	1.3512e+02	6.4829	9.017953	0.000340	3.398094	0.575653	-0.000034
1360	1.3522e+02	6.4747	8.988217	0.000299	2.988685	0.506297	-0.000030
1361	1.3532e+02	6.4670	8.956852	0.000315	3.152449	0.534039	-0.000032
1362	1.3542e+02	6.4532	8.927930	0.000291	2.906803	0.492426	-0.000029
1363	1.3552e+02	6.4446	8.898194	0.000299	2.988685	0.506297	-0.000030
1364	1.3562e+02	6.4346	8.866014	0.000323	3.234331	0.547910	-0.000032
1365	1.3572e+02	6.4232	8.836686	0.000295	2.947744	0.499361	-0.000029
1366	1.3582e+02	6.4156	8.804098	0.000328	3.275272	0.554846	-0.000033
1367	1.3592e+02	6.4068	8.775992	0.000282	2.824922	0.478555	-0.000028
1368	1.3602e+02	6.3937	8.746663	0.000295	2.947744	0.499361	-0.000029
1369	1.3612e+02	6.3851	8.715298	0.000315	3.152449	0.534039	-0.000032
1370	1.3622e+02	6.3732	8.686376	0.000291	2.906803	0.492426	-0.000029
1371	1.3631e+02	6.3639	8.655826	0.000307	3.070567	0.520168	-0.000031
1372	1.3641e+02	6.3491	8.625275	0.000307	3.070567	0.520168	-0.000031
1373	1.3651e+02	6.3450	8.592280	0.000332	3.316212	0.561782	-0.000033
1374	1.3661e+02	6.3348	8.559285	0.000332	3.316212	0.561782	-0.000033
1375	1.3671e+02	6.3237	8.532401	0.000270	2.702099	0.457748	-0.000027
1376	1.3681e+02	6.3137	8.500628	0.000319	3.193390	0.540975	-0.000032
1377	1.3691e+02	6.3039	8.471299	0.000295	2.947744	0.499361	-0.000029
1378	1.3701e+02	6.2948	8.446044	0.000254	2.538335	0.430006	-0.000025
1379	1.3711e+02	6.2856	8.417937	0.000282	2.824922	0.478555	-0.000028
1380	1.3721e+02	6.2769	8.385350	0.000328	3.275272	0.554846	-0.000033
1381	1.3731e+02	6.2667	8.358465	0.000270	2.702099	0.457748	-0.000027
1382	1.3741e+02	6.2553	8.327100	0.000315	3.152449	0.534039	-0.000032
1383	1.3751e+02	6.2452	8.301030	0.000262	2.620217	0.443877	-0.000026
1384	1.3761e+02	6.2357	8.268443	0.000328	3.275272	0.554846	-0.000033
1385	1.3771e+02	6.2279	8.244817	0.000237	2.374572	0.402263	-0.000024
1386	1.3781e+02	6.2158	8.214674	0.000303	3.029626	0.513233	-0.000030
1387	1.3791e+02	6.2049	8.188196	0.000266	2.661158	0.450812	-0.000027
1388	1.3801e+02	6.1959	8.162941	0.000254	2.538335	0.430006	-0.000025
1389	1.3811e+02	6.1858	8.133612	0.000295	2.947744	0.499361	-0.000029
1390	1.3821e+02	6.1767	8.102247	0.000315	3.152449	0.534039	-0.000032
1391	1.3831e+02	6.1658	8.071696	0.000307	3.070567	0.520168	-0.000031
1392	1.3840e+02	6.1549	8.046848	0.000250	2.497395	0.423070	-0.000025
1393	1.3850e+02	6.1452	8.018334	0.000287	2.865863	0.485490	-0.000029
1394	1.3860e+02	6.1373	7.984118	0.000344	3.439035	0.582588	-0.000034
1395	1.3870e+02	6.1282	7.957640	0.000266	2.661158	0.450812	-0.000027
1396	1.3880e+02	6.1155	7.928312	0.000295	2.947744	0.499361	-0.000029
1397	1.3890e+02	6.1056	7.899390	0.000291	2.906803	0.492426	-0.000029
1398	1.3900e+02	6.0952	7.866396	0.000332	3.316212	0.561782	-0.000033
1399	1.3910e+02	6.0876	7.834623	0.000319	3.193390	0.540975	-0.000032
1400	1.3920e+02	6.0775	7.804887	0.000299	2.988685	0.506297	-0.000030
1401	1.3930e+02	6.0674	7.773522	0.000315	3.152449	0.534039	-0.000032
1402	1.3940e+02	6.0549	7.743786	0.000299	2.988685	0.506297	-0.000030
1403	1.3950e+02	6.0462	7.717716	0.000262	2.620217	0.443877	-0.000026
1404	1.3960e+02	6.0329	7.687980	0.000299	2.988685	0.506297	-0.000030
1405	1.3970e+02	6.0268	7.659873	0.000282	2.824922	0.478555	-0.000028
1406	1.3980e+02	6.0168	7.626471	0.000336	3.357153	0.568717	-0.000034
1407	1.3990e+02	6.0049	7.595920	0.000307	3.070567	0.520168	-0.000031
1408	1.4000e+02	5.9963	7.567406	0.000287	2.865863	0.485490	-0.000029
1409	1.4010e+02	5.9875	7.534412	0.000332	3.316212	0.561782	-0.000033
1410	1.4020e+02	5.9762	7.505083	0.000295	2.947744	0.499361	-0.000029
1411	1.4029e+02	5.9672	7.478606	0.000266	2.661158	0.450812	-0.000027
1412	1.4039e+02	5.9568	7.445203	0.000336	3.357153	0.568717	-0.000034
1413	1.4049e+02	5.9469	7.417912	0.000274	2.743040	0.464684	-0.000027
1414	1.4059e+02	5.9339	7.384917	0.000332	3.316212	0.561782	-0.000033
1415	1.4069e+02	5.9258	7.356810	0.000282	2.824922	0.478555	-0.000028
1416	1.4079e+02	5.9185	7.330740	0.000262	2.620217	0.443877	-0.000026
1417	1.4089e+02	5.9074	7.300190	0.000307	3.070567	0.520168	-0.000031
1418	1.4099e+02	5.8974	7.274120	0.000262	2.620217	0.443877	-0.000026
1419	1.4109e+02	5.8830	7.246420	0.000278	2.783981	0.471619	-0.000028
1420	1.4119e+02	5.8784	7.217092	0.000295	2.947744	0.499361	-0.000029
1421	1.4129e+02	5.8670	7.187356	0.000299	2.988685	0.506297	-0.000030
1422	1.4139e+02	5.8566	7.158027	0.000295	2.947744	0.499361	-0.000029
1423	1.4149e+02	5.8465	7.130328	0.000278	2.783981	0.471619	-0.000028
1424	1.4159e+02	5.8373	7.103443	0.000270	2.702099	0.457748	-0.000027
1425	1.4169e+02	5.8272	7.074929	0.000287	2.865863	0.485490	-0.000029
1426	1.4179e+02	5.8155	7.046008	0.000291	2.906803	0.492426	-0.000029
1427	1.4189e+02	5.8088	7.021160	0.000250	2.497395	0.423070	-0.000025
1428	1.4199e+02	5.7996	6.987758	0.000336	3.357153	0.568717	-0.000034
1429	1.4209e+02	5.7867	6.964132	0.000237	2.374572	0.402263	-0.000024
1430	1.4219e+02	5.7768	6.934803	0.000295	2.947744	0.499361	-0.000029
1431	1.4228e+02	5.7693	6.907104	0.000278	2.783981	0.471619	-0.000028
1432	1.4238e+02	5.7543	6.878997	0.000282	2.824922	0.478555	-0.000028
1433	1.4248e+02	5.7446	6.851705	0.000274	2.743040	0.464684	-0.000027
1434	1.4258e+02	5.7384	6.820340	0.000315	3.152449	0.534039	-0.000032
1435	1.4268e+02	5.7269	6.795492	0.000250	2.497395	0.423070	-0.000025
1436	1.4278e+02	5.7156	6.766163	0.000295	2.947744	0.499361	-0.000029
1437	1.4288e+02	5.7043	6.737649	0.000287	2.865863	0.485490	-0.000029
1438	1.4298e+02	5.6968	6.709543	0.000282	2.824922	0.478555	-0.000028
1439	1.4308e+02	5.6921	6.682251	0.000274	2.743040	0.464684	-0.000027
1440	1.4318e+02	5.6776	6.654552	0.000278	2.783981	0.471619	-0.000028
1441	1.4328e+02	5.6664	6.628482	0.000262	2.620217	0.443877	-0.000026
1442	1.4338e+02	5.6561	6.598338	0.000303	3.029626	0.513233	-0.000030
1443	1.4348e+02	5.6495	6.574305	0.000242	2.415513	0.409199	-0.000024
1444	1.4358e+02	5.6364	6.549865	0.000246	2.456454	0.416135	-0.000025
1445	1.4368e+02	5.6280	6.523795	0.000262	2.620217	0.443877	-0.000026
1446	1.4378e+02	5.6178	6.498539	0.000254	2.538335	0.430006	-0.000025
1447	1.4388e+02	5.6065	6.470025	0.000287	2.865863	0.485490	-0.000029
1448	1.4398e+02	5.5983	6.448436	0.000217	2.169867	0.367585	-0.000022
1449	1.4408e+02	5.5886	6.415442	0.000332	3.316212	0.561782	-0.000033
1450	1.4418e+02	5.5788	6.392630	0.000229	2.292690	0.388392	-0.000023
1451	1.4428e+02	5.5672	6.364931	0.000278	2.783981	0.471619	-0.000028
1452	1.4437e+02	5.5566	6.339268	0.000258	2.579276	0.436941	-0.000026
1453	1.4447e+02	5.5489	6.314421	0.000250	2.497395	0.423070	-0.000025
1454	1.4457e+02	5.5408	6.284685	0.000299	2.988685	0.506297	-0.000030
1455	1.4467e+02	5.5288	6.261873	0.000229	2.292690	0.388392	-0.000023
1456	1.4477e+02	5.5172	6.232952	0.000291	2.906803	0.492426	-0.000029
1457	1.4487e+02	5.5099	6.208919	0.000242	2.415513	0.409199	-0.000024
1458	1.4497e+02	5.4966	6.182849	0.000262	2.620217	0.443877	-0.000026
1459	1.4507e+02	5.4879	6.153113	0.000299	2.988685	0.506297	-0.000030
1460	1.4517e+02	5.4772	6.127858	0.000254	2.538335	0.430006	-0.000025
1461	1.4527e+02	5.4696	6.103417	0.000246	2.456454	0.416135	-0.000025
1462	1.4537e+02	5.4574	6.072052	0.000315	3.152449	0.534039	-0.000032
1463	1.4547e+02	5.4514	6.043945	0.000282	2.824922	0.478555	-0.000028
1464	1.4557e+02	5.4385	6.014616	0.000295	2.947744	0.499361	-0.000029
1465	1.4567e+02	5.4297	5.985695	0.000291	2.906803	0.492426	-0.000029
1466	1.4577e+02	5.4198	5.959218	0.000266	2.661158	0.450812	-0.000027
1467	1.4587e+02	5.4087	5.930297	0.000291	2.906803	0.492426	-0.000029
1468	1.4597e+02	5.4002	5.901375	0.000291	2.906803	0.492426	-0.000029
1469	1.4607e+02	5.3881	5.878157	0.000233	2.333631	0.395328	-0.000023
1470	1.4617e+02	5.3805	5.846384	0.000319	3.193390	0.540975	-0.000032
1471	1.4626e+02	5.3727	5.817463	0.000291	2.906803	0.492426	-0.000029
1472	1.4636e+02	5.3565	5.788134	0.000295	2.947744	0.499361	-0.000029
1473	1.4646e+02	5.3474	5.759213	0.000291	2.906803	0.492426	-0.000029
1474	1.4656e+02	5.3389	5.729477	0.000299	2.988685	0.506297	-0.000030
1475	1.4666e+02	5.3298	5.699333	0.000303	3.029626	0.513233	-0.000030
1476	1.4676e+02	5.3179	5.672449	0.000270	2.702099	0.457748	-0.000027
1477	1.4686e+02	5.3099	5.644342	0.000282	2.824922	0.478555	-0.000028
1478	1.4696e+02	5.3014	5.618679	0.000258	2.579276	0.436941	-0.000026
1479	1.4706e+02	5.2916	5.584870	0.000340	3.398094	0.575653	-0.000034
1480	1.4716e+02	5.2767	5.557171	0.000278	2.783981	0.471619	-0.000028
1481	1.4726e+02	5.2688	5.531101	0.000262	2.620217	0.443877	-0.000026
1482	1.4736e+02	5.2592	5.505031	0.000262	2.620217	0.443877	-0.000026
1483	1.4746e+02	5.2493	5.476924	0.000282	2.824922	0.478555	-0.000028
1484	1.4756e+02	5.2395	5.448818	0.000282	2.824922	0.478555	-0.000028
1485	1.4766e+02	5.2287	5.420711	0.000282	2.824922	0.478555	-0.000028
1486	1.4776e+02	5.2236	5.397492	0.000233	2.333631	0.395328	-0.000023
1487	1.4786e+02	5.2069	5.366942	0.000307	3.070567	0.520168	-0.000031
1488	1.4796e+02	5.1998	5.335576	0.000315	3.152449	0.534039	-0.000032
1489	1.4806e+02	5.1894	5.307877	0.000278	2.783981	0.471619	-0.000028
1490	1.4816e+02	5.1824	5.280178	0.000278	2.783981	0.471619	-0.000028
1491	1.4825e+02	5.1685	5.249220	0.000311	3.111508	0.527104	-0.000031
1492	1.4835e+02	5.1594	5.221520	0.000278	2.783981	0.471619	-0.000028
1493	1.4845e+02	5.1495	5.193414	0.000282	2.824922	0.478555	-0.000028
1494	1.4855e+02	5.1389	5.168566	0.000250	2.497395	0.423070	-0.000025
1495	1.4865e+02	5.1295	5.138830	0.000299	2.988685	0.506297	-0.000030
1496	1.4875e+02	5.1199	5.113167	0.000258	2.579276	0.436941	-0.000026
1497	1.4885e+02	5.1091	5.080987	0.000323	3.234331	0.547910	-0.000032
1498	1.4895e+02	5.1002	5.053288	0.000278	2.783981	0.471619	-0.000028
1499	1.4905e+02	5.0905	5.024367	0.000291	2.906803	0.492426	-0.000029
1500	1.4915e+02	5.0794	4.988928	0.000356	3.561858	0.603395	-0.000036
1501	1.4925e+02	5.0715	4.960007	0.000291	2.906803	0.492426	-0.000029
1502	1.4935e+02	5.0605	4.929863	0.000303	3.029626	0.513233	-0.000030
1503	1.4945e+02	5.0497	4.898498	0.000315	3.152449	0.534039	-0.000032
1504	1.4955e+02	5.0418	4.868762	0.000299	2.988685	0.506297	-0.000030
1505	1.4965e+02	5.0312	4.839433	0.000295	2.947744	0.499361	-0.000029
1506	1.4975e+02	5.0205	4.806846	0.000328	3.275272	0.554846	-0.000033
1507	1.4985e+02	5.0076	4.777517	0.000295	2.947744	0.499361	-0.000029
1508	1.4995e+02	5.0018	4.742078	0.000356	3.561858	0.603395	-0.000036
1509	1.5005e+02	4.9905	4.714786	0.000274	2.743040	0.464684	-0.000027
1510	1.5015e+02	4.9825	4.682606	0.000323	3.234331	0.547910	-0.000032
1511	1.5025e+02	4.9729	4.648797	0.000340	3.398094	0.575653	-0.000034
1512	1.5034e+02	4.9615	4.617024	0.000319	3.193390	0.540975	-0.000032
1513	1.5044e+02	4.9532	4.588103	0.000291	2.906803	0.492426	-0.000029
1514	1.5054e+02	4.9416	4.556330	0.000319	3.193390	0.540975	-0.000032
1515	1.5064e+02	4.9332	4.525372	0.000311	3.111508	0.527104	-0.000031
1516	1.5074e+02	4.9247	4.494821	0.000307	3.070567	0.520168	-0.000031
1517	1.5084e+02	4.9108	4.461012	0.000340	3.398094	0.575653	-0.000034
1518	1.5094e+02	4.9033	4.428017	0.000332	3.316212	0.561782	-0.000033
1519	1.5104e+02	4.8904	4.399503	0.000287	2.865863	0.485490	-0.000029
1520	1.5114e+02	4.8803	4.368953	0.000307	3.070567	0.520168	-0.000031
1521	1.5124e+02	4.8717	4.335550	0.000336	3.357153	0.568717	-0.000034
1522	1.5134e+02	4.8629	4.304185	0.000315	3.152449	0.534039	-0.000032
1523	1.5144e+02	4.8514	4.272412	0.000319	3.193390	0.540975	-0.000032
1524	1.5154e+02	4.8421	4.241454	0.000311	3.111508	0.527104	-0.000031
1525	1.5164e+02	4.8342	4.207238	0.000344	3.439035	0.582588	-0.000034
1526	1.5174e+02	4.8211	4.175872	0.000315	3.152449	0.534039	-0.000032
1527	1.5184e+02	4.8113	4.143692	0.000323	3.234331	0.547910	-0.000032
1528	1.5194e+02	4.8000	4.108661	0.000352	3.520917	0.596459	-0.000035
1529	1.5204e+02	4.7936	4.069556	0.000393	3.930326	0.665815	-0.000039
1530	1.5214e+02	4.7812	4.041449	0.000282	2.824922	0.478555	-0.000028
1531	1.5224e+02	4.7725	4.006418	0.000352	3.520917	0.596459	-0.000035
1532	1.5233e+02	4.7640	3.969349	0.000373	3.725621	0.631137	-0.000037
1533	1.5243e+02	4.7531	3.937577	0.000319	3.193390	0.540975	-0.000032
1534	1.5253e+02	4.7439	3.903360	0.000344	3.439035	0.582588	-0.000034
1535	1.5263e+02	4.7351	3.866292	0.000373	3.725621	0.631137	-0.000037
1536	1.5273e+02	4.7218	3.834519	0.000319	3.193390	0.540975	-0.000032
1537	1.5283e+02	4.7172	3.800302	0.000344	3.439035	0.582588	-0.000034
1538	1.5293e+02	4.6999	3.768530	0.000319	3.193390	0.540975	-0.000032
1539	1.5303e+02	4.6925	3.729832	0.000389	3.889385	0.658880	-0.000039
1540	1.5313e+02	4.6831	3.697245	0.000328	3.275272	0.554846	-0.000033
1541	1.5323e+02	4.6706	3.663028	0.000344	3.439035	0.582588	-0.000034
1542	1.5333e+02	4.6608	3.629218	0.000340	3.398094	0.575653	-0.000034
1543	1.5343e+02	4.6503	3.593372	0.000360	3.602799	0.610331	-0.000036
1544	1.5353e+02	4.6424	3.561192	0.000323	3.234331	0.547910	-0.000032
1545	1.5363e+02	4.6322	3.526161	0.000352	3.520917	0.596459	-0.000035
1546	1.5373e+02	4.6208	3.495610	0.000307	3.070567	0.520168	-0.000031
1547	1.5383e+02	4.6132	3.460579	0.000352	3.520917	0.596459	-0.000035
1548	1.5393e+02	4.6020	3.430435	0.000303	3.029626	0.513233	-0.000030
1549	1.5403e+02	4.5913	3.397848	0.000328	3.275272	0.554846	-0.000033
1550	1.5413e+02	4.5824	3.364038	0.000340	3.398094	0.575653	-0.000034
1551	1.5422e+02	4.5736	3.332673	0.000315	3.152449	0.534039	-0.000032
1552	1.5432e+02	4.5646	3.300086	0.000328	3.275272	0.554846	-0.000033
1553	1.5442e+02	4.5570	3.264647	0.000356	3.561858	0.603395	-0.000036
1554	1.5452e+02	4.5457	3.235726	0.000291	2.906803	0.492426	-0.000029
1555	1.5462e+02	4.5322	3.200694	0.000352	3.520917	0.596459	-0.000035
1556	1.5472e+02	4.5239	3.167292	0.000336	3.357153	0.568717	-0.000034
1557	1.5482e+02	4.5173	3.138371	0.000291	2.906803	0.492426	-0.000029
1558	1.5492e+02	4.5020	3.106598	0.000319	3.193390	0.540975	-0.000032
1559	1.5502e+02	4.4957	3.071567	0.000352	3.520917	0.596459	-0.000035
1560	1.5512e+02	4.4859	3.042238	0.000295	2.947744	0.499361	-0.000029
1561	1.5522e+02	4.4744	3.009650	0.000328	3.275272	0.554846	-0.000033
1562	1.5532e+02	4.4628	2.975434	0.000344	3.439035	0.582588	-0.000034
1563	1.5542e+02	4.4543	2.943254	0.000323	3.234331	0.547910	-0.000032
1564	1.5552e+02	4.4453	2.909037	0.000344	3.439035	0.582588	-0.000034
1565	1.5562e+02	4.4331	2.873191	0.000360	3.602799	0.610331	-0.000036
1566	1.5572e+02	4.4218	2.838974	0.000344	3.439035	0.582588	-0.000034
1567	1.5582e+02	4.4140	2.806794	0.000323	3.234331	0.547910	-0.000032
1568	1.5592e+02	4.4041	2.770948	0.000360	3.602799	0.610331	-0.000036
1569	1.5602e+02	4.3957	2.735102	0.000360	3.602799	0.610331	-0.000036
1570	1.5612e+02	4.3844	2.700885	0.000344	3.439035	0.582588	-0.000034
1571	1.5622e+02	4.3736	2.665039	0.000360	3.602799	0.610331	-0.000036
1572	1.5631e+02	4.3657	2.632044	0.000332	3.316212	0.561782	-0.000033
1573	1.5641e+02	4.3528	2.599049	0.000332	3.316212	0.561782	-0.000033
1574	1.5651e+02	4.3436	2.566054	0.000332	3.316212	0.561782	-0.000033
1575	1.5661e+02	4.3340	2.533467	0.000328	3.275272	0.554846	-0.000033
1576	1.5671e+02	4.3235	2.502509	0.000311	3.111508	0.527104	-0.000031
1577	1.5681e+02	4.3139	2.460553	0.000422	4.216912	0.714364	-0.000042
1578	1.5691e+02	4.3043	2.430817	0.000299	2.988685	0.506297	-0.000030
1579	1.5701e+02	4.2933	2.391712	0.000393	3.930326	0.665815	-0.000039
1580	1.5711e+02	4.2831	2.361568	0.000303	3.029626	0.513233	-0.000030
1581	1.5721e+02	4.2757	2.328166	0.000336	3.357153	0.568717	-0.000034
1582	1.5731e+02	4.2669	2.294357	0.000340	3.398094	0.575653	-0.000034
1583	1.5741e+02	4.2544	2.260140	0.000344	3.439035	0.582588	-0.000034
1584	1.5751e+02	4.2453	2.227553	0.000328	3.275272	0.554846	-0.000033
1585	1.5761e+02	4.2364	2.198224	0.000295	2.947744	0.499361	-0.000029
1586	1.5771e+02	4.2245	2.168488	0.000299	2.988685	0.506297	-0.000030
1587	1.5781e+02	4.2117	2.135086	0.000336	3.357153	0.568717	-0.000034
1588	1.5791e+02	4.2054	2.102906	0.000323	3.234331	0.547910	-0.000032
1589	1.5801e+02	4.1940	2.068282	0.000348	3.479976	0.589524	-0.000035
1590	1.5811e+02	4.1885	2.034472	0.000340	3.398094	0.575653	-0.000034
1591	1.5821e+02	4.1770	2.007995	0.000266	2.661158	0.450812	-0.000027
1592	1.5830e+02	4.1648	1.969705	0.000385	3.848444	0.651944	-0.000038
1593	1.5840e+02	4.1542	1.938340	0.000315	3.152449	0.534039	-0.000032
1594	1.5850e+02	4.1438	1.903308	0.000352	3.520917	0.596459	-0.000035
1595	1.5860e+02	4.1362	1.875201	0.000282	2.824922	0.478555	-0.000028
1596	1.5870e+02	4.1258	1.843021	0.000323	3.234331	0.547910	-0.000032
1597	1.5880e+02	4.1125	1.807990	0.000352	3.520917	0.596459	-0.000035
1598	1.5890e+02	4.1067	1.777847	0.000303	3.029626	0.513233	-0.000030
1599	1.5900e+02	4.0955	1.747296	0.000307	3.070567	0.520168	-0.000031
1600	1.5910e+02	4.0862	1.714301	0.000332	3.316212	0.561782	-0.000033
1601	1.5920e+02	4.0747	1.678862	0.000356	3.561858	0.603395	-0.000036
1602	1.5930e+02	4.0653	1.645460	0.000336	3.357153	0.568717	-0.000034
1603	1.5940e+02	4.0574	1.619390	0.000262	2.620217	0.443877	-0.000026
1604	1.5950e+02	4.0459	1.585988	0.000336	3.357153	0.568717	-0.000034
1605	1.5960e+02	4.0372	1.554623	0.000315	3.152449	0.534039	-0.000032
1606	1.5970e+02	4.0239	1.522035	0.000328	3.275272	0.554846	-0.000033
1607	1.5980e+02	4.0183	1.491485	0.000307	3.070567	0.520168	-0.000031
1608	1.5990e+02	4.0060	1.458897	0.000328	3.275272	0.554846	-0.000033
1609	1.6000e+02	3.9953	1.427532	0.000315	3.152449	0.534039	-0.000032
1610	1.6010e+02	3.9845	1.394537	0.000332	3.316212	0.561782	-0.000033
1611	1.6019e+02	3.9780	1.364801	0.000299	2.988685	0.506297	-0.000030
1612	1.6029e+02	3.9692	1.333436	0.000315	3.152449	0.534039	-0.000032
1613	1.6039e+02	3.9565	1.304107	0.000295	2.947744	0.499361	-0.000029
1614	1.6049e+02	3.9462	1.273149	0.000311	3.111508	0.527104	-0.000031
1615	1.6059e+02	3.9360	1.242598	0.000307	3.070567	0.520168	-0.000031
1616	1.6069e+02	3.9266	1.212862	0.000299	2.988685	0.506297	-0.000030
1617	1.6079e+02	3.9159	1.181904	0.000311	3.111508	0.527104	-0.000031
1618	1.6089e+02	3.9082	1.150946	0.000311	3.111508	0.527104	-0.000031
1619	1.6099e+02	3.8976	1.119174	0.000319	3.193390	0.540975	-0.000032
1620	1.6109e+02	3.8895	1.091474	0.000278	2.783981	0.471619	-0.000028
1621	1.6119e+02	3.8758	1.061738	0.000299	2.988685	0.506297	-0.000030
1622	1.6129e+02	3.8642	1.032002	0.000299	2.988685	0.506297	-0.000030
1623	1.6139e+02	3.8583	1.000637	0.000315	3.152449	0.534039	-0.000032
1624	1.6149e+02	3.8502	0.971716	0.000291	2.906803	0.492426	-0.000029
1625	1.6159e+02	3.8354	0.937499	0.000344	3.439035	0.582588	-0.000034
1626	1.6169e+02	3.8251	0.910614	0.000270	2.702099	0.457748	-0.000027
1627	1.6179e+02	3.8158	0.881693	0.000291	2.906803	0.492426	-0.000029
1628	1.6189e+02	3.8095	0.845847	0.000360	3.602799	0.610331	-0.000036
1629	1.6199e+02	3.7984	0.816111	0.000299	2.988685	0.506297	-0.000030
1630	1.6209e+02	3.7855	0.781894	0.000344	3.439035	0.582588	-0.000034
1631	1.6219e+02	3.7775	0.749307	0.000328	3.275272	0.554846	-0.000033
1632	1.6228e+02	3.7659	0.715905	0.000336	3.357153	0.568717	-0.000034
1633	1.6238e+02	3.7572	0.685354	0.000307	3.070567	0.520168	-0.000031
1634	1.6248e+02	3.7487	0.653174	0.000323	3.234331	0.547910	-0.000032
1635	1.6258e+02	3.7383	0.618957	0.000344	3.439035	0.582588	-0.000034
1636	1.6268e+02	3.7279	0.590443	0.000287	2.865863	0.485490	-0.000029
1637	1.6278e+02	3.7181	0.554597	0.000360	3.602799	0.610331	-0.000036
1638	1.6288e+02	3.7064	0.524046	0.000307	3.070567	0.520168	-0.000031
1639	1.6298e+02	3.6987	0.488200	0.000360	3.602799	0.610331	-0.000036
1640	1.6308e+02	3.6903	0.458464	0.000299	2.988685	0.506297	-0.000030
1641	1.6318e+02	3.6760	0.423025	0.000356	3.561858	0.603395	-0.000036
1642	1.6328e+02	3.6696	0.388808	0.000344	3.439035	0.582588	-0.000034
1643	1.6338e+02	3.6588	0.353777	0.000352	3.520917	0.596459	-0.000035
1644	1.6348e+02	3.6471	0.320782	0.000332	3.316212	0.561782	-0.000033
1645	1.6358e+02	3.6402	0.286565	0.000344	3.439035	0.582588	-0.000034
1646	1.6368e+02	3.6285	0.257237	0.000295	2.947744	0.499361	-0.000029
1647	1.6378e+02	3.6156	0.225464	0.000319	3.193390	0.540975	-0.000032
1648	1.6388e+02	3.6095	0.190840	0.000348	3.479976	0.589524	-0.000035
1649	1.6398e+02	3.5983	0.155809	0.000352	3.520917	0.596459	-0.000035
1650	1.6408e+02	3.5896	0.126480	0.000295	2.947744	0.499361	-0.000029
1651	1.6418e+02	3.5818	0.095522	0.000311	3.111508	0.527104	-0.000031
1652	1.6427e+02	3.5656	0.065378	0.000303	3.029626	0.513233	-0.000030
1653	1.6437e+02	3.5592	0.034013	0.000315	3.152449	0.534039	-0.000032
1654	1.6447e+02	3.5462	-0.003055	0.000373	3.725621	0.631137	-0.000037
1655	1.6457e+02	3.5368	-0.033606	0.000307	3.070567	0.520168	-0.000031
1656	1.6467e+02	3.5273	-0.065378	0.000319	3.193390	0.540975	-0.000032
1657	1.6477e+02	3.5178	-0.098781	0.000336	3.357153	0.568717	-0.000034
1658	1.6487e+02	3.5089	-0.135849	0.000373	3.725621	0.631137	-0.000037
1659	1.6497e+02	3.5000	-0.165992	0.000303	3.029626	0.513233	-0.000030
1660	1.6507e+02	3.4885	-0.196135	0.000303	3.029626	0.513233	-0.000030
1661	1.6517e+02	3.4799	-0.227908	0.000319	3.193390	0.540975	-0.000032
1662	1.6527e+02	3.4702	-0.261718	0.000340	3.398094	0.575653	-0.000034
1663	1.6537e+02	3.4606	-0.294712	0.000332	3.316212	0.561782	-0.000033
1664	1.6547e+02	3.4496	-0.329744	0.000352	3.520917	0.596459	-0.000035
1665	1.6557e+02	3.4385	-0.362331	0.000328	3.275272	0.554846	-0.000033
1666	1.6567e+02	3.4276	-0.395326	0.000332	3.316212	0.561782	-0.000033
1667	1.6577e+02	3.4201	-0.431172	0.000360	3.602799	0.610331	-0.000036
1668	1.6587e+02	3.4123	-0.467018	0.000360	3.602799	0.610331	-0.000036
1669	1.6597e+02	3.3977	-0.500420	0.000336	3.357153	0.568717	-0.000034
1670	1.6607e+02	3.3880	-0.538303	0.000381	3.807503	0.645008	-0.000038
1671	1.6616e+02	3.3794	-0.572927	0.000348	3.479976	0.589524	-0.000035
1672	1.6626e+02	3.3678	-0.608773	0.000360	3.602799	0.610331	-0.000036
1673	1.6636e+02	3.3593	-0.645027	0.000364	3.643740	0.617266	-0.000036
1674	1.6646e+02	3.3495	-0.678836	0.000340	3.398094	0.575653	-0.000034
1675	1.6656e+02	3.3421	-0.715905	0.000373	3.725621	0.631137	-0.000037
1676	1.6666e+02	3.3304	-0.752565	0.000368	3.684680	0.624202	-0.000037
1677	1.6676e+02	3.3218	-0.784338	0.000319	3.193390	0.540975	-0.000032
1678	1.6686e+02	3.3117	-0.819370	0.000352	3.520917	0.596459	-0.000035
1679	1.6696e+02	3.2995	-0.860918	0.000418	4.175971	0.707429	-0.000042
1680	1.6706e+02	3.2907	-0.897172	0.000364	3.643740	0.617266	-0.000036
1681	1.6716e+02	3.2783	-0.930167	0.000332	3.316212	0.561782	-0.000033
1682	1.6726e+02	3.2693	-0.969679	0.000397	3.971267	0.672751	-0.000040
1683	1.6736e+02	3.2593	-1.003488	0.000340	3.398094	0.575653	-0.000034
1684	1.6746e+02	3.2522	-1.041779	0.000385	3.848444	0.651944	-0.000038
1685	1.6756e+02	3.2391	-1.075588	0.000340	3.398094	0.575653	-0.000034
1686	1.6766e+02	3.2291	-1.114286	0.000389	3.889385	0.658880	-0.000039
1687	1.6776e+02	3.2203	-1.149724	0.000356	3.561858	0.603395	-0.000036
1688	1.6786e+02	3.2107	-1.182719	0.000332	3.316212	0.561782	-0.000033
1689	1.6796e+02	3.1992	-1.218565	0.000360	3.602799	0.610331	-0.000036
1690	1.6806e+02	3.1908	-1.254004	0.000356	3.561858	0.603395	-0.000036
1691	1.6816e+02	3.1827	-1.289850	0.000360	3.602799	0.610331	-0.000036
1692	1.6825e+02	3.1713	-1.329770	0.000401	4.012208	0.679686	-0.000040
1693	1.6835e+02	3.1605	-1.367653	0.000381	3.807503	0.645008	-0.000038
1694	1.6845e+02	3.1498	-1.402277	0.000348	3.479976	0.589524	-0.000035
1695	1.6855e+02	3.1423	-1.440974	0.000389	3.889385	0.658880	-0.000039
1696	1.6865e+02	3.1332	-1.484153	0.000434	4.339735	0.735171	-0.000043
1697	1.6875e+02	3.1218	-1.524479	0.000405	4.053148	0.686622	-0.000041
1698	1.6885e+02	3.1115	-1.556660	0.000323	3.234331	0.547910	-0.000032
1699	1.6895e+02	3.1013	-1.599431	0.000430	4.298794	0.728235	-0.000043
1700	1.6905e+02	3.0920	-1.637313	0.000381	3.807503	0.645008	-0.000038
1701	1.6915e+02	3.0787	-1.676826	0.000397	3.971267	0.672751	-0.000040
1702	1.6925e+02	3.0712	-1.713894	0.000373	3.725621	0.631137	-0.000037
1703	1.6935e+02	3.0613	-1.752999	0.000393	3.930326	0.665815	-0.000039
1704	1.6945e+02	3.0517	-1.790882	0.000381	3.807503	0.645008	-0.000038
1705	1.6955e+02	3.0404	-1.829986	0.000393	3.930326	0.665815	-0.000039
1706	1.6965e+02	3.0297	-1.869499	0.000397	3.971267	0.672751	-0.000040
1707	1.6975e+02	3.0200	-1.911862	0.000426	4.257853	0.721300	-0.000043
1708	1.6985e+02	3.0158	-1.947708	0.000360	3.602799	0.610331	-0.000036
1709	1.6995e+02	3.0019	-1.987628	0.000401	4.012208	0.679686	-0.000040
1710	1.7005e+02	2.9905	-2.028362	0.000409	4.094089	0.693558	-0.000041
1711	1.7015e+02	2.9823	-2.069504	0.000414	4.135030	0.700493	-0.000041
1712	1.7024e+02	2.9723	-2.106165	0.000368	3.684680	0.624202	-0.000037
1713	1.7034e+02	2.9607	-2.144048	0.000381	3.807503	0.645008	-0.000038
1714	1.7044e+02	2.9510	-2.178672	0.000348	3.479976	0.589524	-0.000035
1715	1.7054e+02	2.9412	-2.220221	0.000418	4.175971	0.707429	-0.000042
1716	1.7064e+02	2.9329	-2.254437	0.000344	3.439035	0.582588	-0.000034
1717	1.7074e+02	2.9205	-2.294357	0.000401	4.012208	0.679686	-0.000040
1718	1.7084e+02	2.9140	-2.330203	0.000360	3.602799	0.610331	-0.000036
1719	1.7094e+02	2.9016	-2.367271	0.000373	3.725621	0.631137	-0.000037
1720	1.7104e+02	2.8929	-2.403932	0.000368	3.684680	0.624202	-0.000037
1721	1.7114e+02	2.8802	-2.443037	0.000393	3.930326	0.665815	-0.000039
1722	1.7124e+02	2.8712	-2.476032	0.000332	3.316212	0.561782	-0.000033
1723	1.7134e+02	2.8625	-2.513915	0.000381	3.807503	0.645008	-0.000038
1724	1.7144e+02	2.8523	-2.552612	0.000389	3.889385	0.658880	-0.000039
1725	1.7154e+02	2.8416	-2.590088	0.000377	3.766562	0.638073	-0.000038
1726	1.7164e+02	2.8320	-2.626748	0.000368	3.684680	0.624202	-0.000037
1727	1.7174e+02	2.8228	-2.663409	0.000368	3.684680	0.624202	-0.000037
1728	1.7184e+02	2.8115	-2.698848	0.000356	3.561858	0.603395	-0.000036
1729	1.7194e+02	2.8033	-2.739175	0.000405	4.053148	0.686622	-0.000041
1730	1.7204e+02	2.7927	-2.779909	0.000409	4.094089	0.693558	-0.000041
1731	1.7213e+02	2.7823	-2.814126	0.000344	3.439035	0.582588	-0.000034
1732	1.7223e+02	2.7731	-2.852824	0.000389	3.889385	0.658880	-0.000039
1733	1.7233e+02	2.7621	-2.891114	0.000385	3.848444	0.651944	-0.000038
1734	1.7243e+02	2.7517	-2.931441	0.000405	4.053148	0.686622	-0.000041
1735	1.7253e+02	2.7440	-2.970953	0.000397	3.971267	0.672751	-0.000040
1736	1.7263e+02	2.7326	-3.011687	0.000409	4.094089	0.693558	-0.000041
1737	1.7273e+02	2.7207	-3.051199	0.000397	3.971267	0.672751	-0.000040
1738	1.7283e+02	2.7111	-3.090712	0.000397	3.971267	0.672751	-0.000040
1739	1.7293e+02	2.7030	-3.127780	0.000373	3.725621	0.631137	-0.000037
1740	1.7303e+02	2.6931	-3.170551	0.000430	4.298794	0.728235	-0.000043
1741	1.7313e+02	2.6830	-3.205175	0.000348	3.479976	0.589524	-0.000035
1742	1.7323e+02	2.6726	-3.245094	0.000401	4.012208	0.679686	-0.000040
1743	1.7333e+02	2.6601	-3.283385	0.000385	3.848444	0.651944	-0.000038
1744	1.7343e+02	2.6557	-3.321267	0.000381	3.807503	0.645008	-0.000038
1745	1.7353e+02	2.6425	-3.363631	0.000426	4.257853	0.721300	-0.000043
1746	1.7363e+02	2.6340	-3.402329	0.000389	3.889385	0.658880	-0.000039
1747	1.7373e+02	2.6223	-3.442656	0.000405	4.053148	0.686622	-0.000041
1748	1.7383e+02	2.6121	-3.481353	0.000389	3.889385	0.658880	-0.000039
1749	1.7393e+02	2.6008	-3.520051	0.000389	3.889385	0.658880	-0.000039
1750	1.7403e+02	2.5938	-3.557119	0.000373	3.725621	0.631137	-0.000037
1751	1.7413e+02	2.5832	-3.595816	0.000389	3.889385	0.658880	-0.000039
1752	1.7422e+02	2.5734	-3.634107	0.000385	3.848444	0.651944	-0.000038
1753	1.7432e+02	2.5614	-3.665879	0.000319	3.193390	0.540975	-0.000032
1754	1.7442e+02	2.5518	-3.709058	0.000434	4.339735	0.735171	-0.000043
1755	1.7452e+02	2.5413	-3.744089	0.000352	3.520917	0.596459	-0.000035
1756	1.7462e+02	2.5312	-3.779935	0.000360	3.602799	0.610331	-0.000036
1757	1.7472e+02	2.5222	-3.818225	0.000385	3.848444	0.651944	-0.000038
1758	1.7482e+02	2.5100	-3.856516	0.000385	3.848444	0.651944	-0.000038
1759	1.7492e+02	2.5034	-3.892362	0.000360	3.602799	0.610331	-0.000036
1760	1.7502e+02	2.4920	-3.930652	0.000385	3.848444	0.651944	-0.000038
1761	1.7512e+02	2.4831	-3.966905	0.000364	3.643740	0.617266	-0.000036
1762	1.7522e+02	2.4760	-4.004788	0.000381	3.807503	0.645008	-0.000038
1763	1.7532e+02	2.4628	-4.041856	0.000373	3.725621	0.631137	-0.000037
1764	1.7542e+02	2.4538	-4.077703	0.000360	3.602799	0.610331	-0.000036
1765	1.7552e+02	2.4449	-4.117215	0.000397	3.971267	0.672751	-0.000040
1766	1.7562e+02	2.4337	-4.153468	0.000364	3.643740	0.617266	-0.000036
1767	1.7572e+02	2.4227	-4.190536	0.000373	3.725621	0.631137	-0.000037
1768	1.7582e+02	2.4148	-4.225975	0.000356	3.561858	0.603395	-0.000036
1769	1.7592e+02	2.4039	-4.265488	0.000397	3.971267	0.672751	-0.000040
1770	1.7602e+02	2.3946	-4.300112	0.000348	3.479976	0.589524	-0.000035
1771	1.7612e+02	2.3850	-4.340439	0.000405	4.053148	0.686622	-0.000041
1772	1.7621e+02	2.3724	-4.378321	0.000381	3.807503	0.645008	-0.000038
1773	1.7631e+02	2.3655	-4.417426	0.000393	3.930326	0.665815	-0.000039
1774	1.7641e+02	2.3537	-4.450828	0.000336	3.357153	0.568717	-0.000034
1775	1.7651e+02	2.3434	-4.490341	0.000397	3.971267	0.672751	-0.000040
1776	1.7661e+02	2.3357	-4.526594	0.000364	3.643740	0.617266	-0.000036
1777	1.7671e+02	2.3264	-4.562033	0.000356	3.561858	0.603395	-0.000036
1778	1.7681e+02	2.3138	-4.597879	0.000360	3.602799	0.610331	-0.000036
1779	1.7691e+02	2.3055	-4.638206	0.000405	4.053148	0.686622	-0.000041
1780	1.7701e+02	2.2971	-4.665905	0.000278	2.783981	0.471619	-0.000028
1781	1.7711e+02	2.2851	-4.707047	0.000414	4.135030	0.700493	-0.000041
1782	1.7721e+02	2.2767	-4.739227	0.000323	3.234331	0.547910	-0.000032
1783	1.7731e+02	2.2637	-4.775888	0.000368	3.684680	0.624202	-0.000037
1784	1.7741e+02	2.2543	-4.812141	0.000364	3.643740	0.617266	-0.000036
1785	1.7751e+02	2.2446	-4.847173	0.000352	3.520917	0.596459	-0.000035
1786	1.7761e+02	2.2361	-4.881389	0.000344	3.439035	0.582588	-0.000034
1787	1.7771e+02	2.2239	-4.923346	0.000422	4.216912	0.714364	-0.000042
1788	1.7781e+02	2.2153	-4.952674	0.000295	2.947744	0.499361	-0.000029
1789	1.7791e+02	2.2062	-4.988113	0.000356	3.561858	0.603395	-0.000036
1790	1.7801e+02	2.1957	-5.024774	0.000368	3.684680	0.624202	-0.000037
1791	1.7810e+02	2.1868	-5.055325	0.000307	3.070567	0.520168	-0.000031
1792	1.7820e+02	2.1746	-5.093208	0.000381	3.807503	0.645008	-0.000038
1793	1.7830e+02	2.1649	-5.133535	0.000405	4.053148	0.686622	-0.000041
1794	1.7840e+02	2.1552	-5.168159	0.000348	3.479976	0.589524	-0.000035
1795	1.7850e+02	2.1433	-5.206856	0.000389	3.889385	0.658880	-0.000039
1796	1.7860e+02	2.1326	-5.240258	0.000336	3.357153	0.568717	-0.000034
1797	1.7870e+02	2.1243	-5.279770	0.000397	3.971267	0.672751	-0.000040
1798	1.7880e+02	2.1131	-5.318468	0.000389	3.889385	0.658880	-0.000039
1799	1.7890e+02	2.1032	-5.354314	0.000360	3.602799	0.610331	-0.000036
1800	1.7900e+02	2.0945	-5.392197	0.000381	3.807503	0.645008	-0.000038
1801	1.7910e+02	2.0874	-5.426821	0.000348	3.479976	0.589524	-0.000035
1802	1.7920e+02	2.0771	-5.466741	0.000401	4.012208	0.679686	-0.000040
1803	1.7930e+02	2.0672	-5.509104	0.000426	4.257853	0.721300	-0.000043
1804	1.7940e+02	2.0564	-5.544543	0.000356	3.561858	0.603395	-0.000036
1805	1.7950e+02	2.0447	-5.584463	0.000401	4.012208	0.679686	-0.000040
1806	1.7960e+02	2.0351	-5.621531	0.000373	3.725621	0.631137	-0.000037
1807	1.7970e+02	2.0246	-5.657784	0.000364	3.643740	0.617266	-0.000036
1808	1.7980e+02	2.0151	-5.697704	0.000401	4.012208	0.679686	-0.000040
1809	1.7990e+02	2.0069	-5.739253	0.000418	4.175971	0.707429	-0.000042
1810	1.8000e+02	1.9958	-5.777136	0.000381	3.807503	0.645008	-0.000038
1811	1.8009e+02	1.9854	-5.811760	0.000348	3.479976	0.589524	-0.000035
1812	1.8019e+02	1.9749	-5.849643	0.000381	3.807503	0.645008	-0.000038
1813	1.8029e+02	1.9678	-5.892821	0.000434	4.339735	0.735171	-0.000043
1814	1.8039e+02	1.9543	-5.929889	0.000373	3.725621	0.631137	-0.000037
1815	1.8049e+02	1.9466	-5.970623	0.000409	4.094089	0.693558	-0.000041
1816	1.8059e+02	1.9369	-6.002396	0.000319	3.193390	0.540975	-0.000032
1817	1.8069e+02	1.9260	-6.042316	0.000401	4.012208	0.679686	-0.000040
1818	1.8079e+02	1.9150	-6.079384	0.000373	3.725621	0.631137	-0.000037
1819	1.8089e+02	1.9063	-6.117267	0.000381	3.807503	0.645008	-0.000038
1820	1.8099e+02	1.8985	-6.151076	0.000340	3.398094	0.575653	-0.000034
1821	1.8109e+02	1.8884	-6.189774	0.000389	3.889385	0.658880	-0.000039
1822	1.8119e+02	1.8766	-6.226842	0.000373	3.725621	0.631137	-0.000037
1823	1.8129e+02	1.8649	-6.268798	0.000422	4.216912	0.714364	-0.000042
1824	1.8139e+02	1.8577	-6.304644	0.000360	3.602799	0.610331	-0.000036
1825	1.8149e+02	1.8473	-6.343342	0.000389	3.889385	0.658880	-0.000039
1826	1.8159e+02	1.8354	-6.382447	0.000393	3.930326	0.665815	-0.000039
1827	1.8169e+02	1.8246	-6.422366	0.000401	4.012208	0.679686	-0.000040
1828	1.8179e+02	1.8153	-6.460657	0.000385	3.848444	0.651944	-0.000038
1829	1.8189e+02	1.8067	-6.491207	0.000307	3.070567	0.520168	-0.000031
1830	1.8199e+02	1.7983	-6.530312	0.000393	3.930326	0.665815	-0.000039
1831	1.8209e+02	1.7866	-6.569417	0.000393	3.930326	0.665815	-0.000039
1832	1.8218e+02	1.7772	-6.608929	0.000397	3.971267	0.672751	-0.000040
1833	1.8228e+02	1.7683	-6.646812	0.000381	3.807503	0.645008	-0.000038
1834	1.8238e+02	1.7583	-6.687954	0.000414	4.135030	0.700493	-0.000041
1835	1.8248e+02	1.7481	-6.733169	0.000454	4.544439	0.769849	-0.000045
1836	1.8258e+02	1.7380	-6.771052	0.000381	3.807503	0.645008	-0.000038
1837	1.8268e+02	1.7265	-6.812601	0.000418	4.175971	0.707429	-0.000042
1838	1.8278e+02	1.7197	-6.855371	0.000430	4.298794	0.728235	-0.000043
1839	1.8288e+02	1.7067	-6.894884	0.000397	3.971267	0.672751	-0.000040
1840	1.8298e+02	1.6950	-6.933989	0.000393	3.930326	0.665815	-0.000039
1841	1.8308e+02	1.6865	-6.975130	0.000414	4.135030	0.700493	-0.000041
1842	1.8318e+02	1.6759	-7.019123	0.000442	4.421617	0.749042	-0.000044
1843	1.8328e+02	1.6689	-7.054155	0.000352	3.520917	0.596459	-0.000035
1844	1.8338e+02	1.6564	-7.096926	0.000430	4.298794	0.728235	-0.000043
1845	1.8348e+02	1.6467	-7.142141	0.000454	4.544439	0.769849	-0.000045
1846	1.8358e+02	1.6363	-7.177987	0.000360	3.602799	0.610331	-0.000036
1847	1.8368e+02	1.6265	-7.224424	0.000467	4.667262	0.790656	-0.000047
1848	1.8378e+02	1.6193	-7.265158	0.000409	4.094089	0.693558	-0.000041
1849	1.8388e+02	1.6080	-7.307929	0.000430	4.298794	0.728235	-0.000043
1850	1.8398e+02	1.5951	-7.347849	0.000401	4.012208	0.679686	-0.000040
1851	1.8407e+02	1.5897	-7.391027	0.000434	4.339735	0.735171	-0.000043
1852	1.8417e+02	1.5791	-7.430946	0.000401	4.012208	0.679686	-0.000040
1853	1.8427e+02	1.5685	-7.470459	0.000397	3.971267	0.672751	-0.000040
1854	1.8437e+02	1.5553	-7.512822	0.000426	4.257853	0.721300	-0.000043
1855	1.8447e+02	1.5482	-7.556815	0.000442	4.421617	0.749042	-0.000044
1856	1.8457e+02	1.5377	-7.597550	0.000409	4.094089	0.693558	-0.000041
1857	1.8467e+02	1.5269	-7.639913	0.000426	4.257853	0.721300	-0.000043
1858	1.8477e+02	1.5195	-7.679833	0.000401	4.012208	0.679686	-0.000040
1859	1.8487e+02	1.5058	-7.722604	0.000430	4.298794	0.728235	-0.000043
1860	1.8497e+02	1.4983	-7.763745	0.000414	4.135030	0.700493	-0.000041
1861	1.8507e+02	1.4870	-7.806924	0.000434	4.339735	0.735171	-0.000043
1862	1.8517e+02	1.4761	-7.852139	0.000454	4.544439	0.769849	-0.000045
1863	1.8527e+02	1.4704	-7.897761	0.000459	4.585380	0.776784	-0.000046
1864	1.8537e+02	1.4578	-7.940939	0.000434	4.339735	0.735171	-0.000043
1865	1.8547e+02	1.4487	-7.985340	0.000446	4.462557	0.755978	-0.000045
1866	1.8557e+02	1.4391	-8.027703	0.000426	4.257853	0.721300	-0.000043
1867	1.8567e+02	1.4298	-8.074548	0.000471	4.708203	0.797591	-0.000047
1868	1.8577e+02	1.4203	-8.117726	0.000434	4.339735	0.735171	-0.000043
1869	1.8587e+02	1.4084	-8.160497	0.000430	4.298794	0.728235	-0.000043
1870	1.8597e+02	1.3998	-8.203268	0.000430	4.298794	0.728235	-0.000043
1871	1.8606e+02	1.3870	-8.247668	0.000446	4.462557	0.755978	-0.000045
1872	1.8616e+02	1.3763	-8.294920	0.000475	4.749144	0.804527	-0.000047
1873	1.8626e+02	1.3686	-8.336469	0.000418	4.175971	0.707429	-0.000042
1874	1.8636e+02	1.3603	-8.381684	0.000454	4.544439	0.769849	-0.000045
1875	1.8646e+02	1.3478	-8.430158	0.000487	4.871966	0.825333	-0.000049
1876	1.8656e+02	1.3365	-8.473743	0.000438	4.380676	0.742107	-0.000044
1877	1.8666e+02	1.3282	-8.519773	0.000463	4.626321	0.783720	-0.000046
1878	1.8676e+02	1.3171	-8.567432	0.000479	4.790085	0.811462	-0.000048
1879	1.8686e+02	1.3090	-8.607759	0.000405	4.053148	0.686622	-0.000041
1880	1.8696e+02	1.2986	-8.649715	0.000422	4.216912	0.714364	-0.000042
1881	1.8706e+02	1.2901	-8.695745	0.000463	4.626321	0.783720	-0.000046
1882	1.8716e+02	1.2815	-8.734035	0.000385	3.848444	0.651944	-0.000038
1883	1.8726e+02	1.2709	-8.782102	0.000483	4.831025	0.818398	-0.000048
1884	1.8736e+02	1.2588	-8.821207	0.000393	3.930326	0.665815	-0.000039
1885	1.8746e+02	1.2509	-8.861941	0.000409	4.094089	0.693558	-0.000041
1886	1.8756e+02	1.2374	-8.904305	0.000426	4.257853	0.721300	-0.000043
1887	1.8766e+02	1.2279	-8.949520	0.000454	4.544439	0.769849	-0.000045
1888	1.8776e+02	1.2219	-8.991476	0.000422	4.216912	0.714364	-0.000042
1889	1.8786e+02	1.2096	-9.033432	0.000422	4.216912	0.714364	-0.000042
1890	1.8796e+02	1.2011	-9.075796	0.000426	4.257853	0.721300	-0.000043
1891	1.8806e+02	1.1896	-9.117752	0.000422	4.216912	0.714364	-0.000042
1892	1.8815e+02	1.1817	-9.159301	0.000418	4.175971	0.707429	-0.000042
1893	1.8825e+02	1.1692	-9.205738	0.000467	4.667262	0.790656	-0.000047
1894	1.8835e+02	1.1594	-9.246880	0.000414	4.135030	0.700493	-0.000041
1895	1.8845e+02	1.1517	-9.290058	0.000434	4.339735	0.735171	-0.000043
1896	1.8855e+02	1.1409	-9.331607	0.000418	4.175971	0.707429	-0.000042
1897	1.8865e+02	1.1303	-9.373563	0.000422	4.216912	0.714364	-0.000042
1898	1.8875e+02	1.1193	-9.419185	0.000459	4.585380	0.776784	-0.000046
1899	1.8885e+02	1.1115	-9.459512	0.000405	4.053148	0.686622	-0.000041
1900	1.8895e+02	1.1018	-9.505542	0.000463	4.626321	0.783720	-0.000046
1901	1.8905e+02	1.0907	-9.549535	0.000442	4.421617	0.749042	-0.000044
1902	1.8915e+02	1.0781	-9.596379	0.000471	4.708203	0.797591	-0.000047
1903	1.8925e+02	1.0704	-9.642817	0.000467	4.667262	0.790656	-0.000047
1904	1.8935e+02	1.0593	-9.687217	0.000446	4.462557	0.755978	-0.000045
1905	1.8945e+02	1.0531	-9.730803	0.000438	4.380676	0.742107	-0.000044
1906	1.8955e+02	1.0389	-9.778054	0.000475	4.749144	0.804527	-0.000047
1907	1.8965e+02	1.0352	-9.822455	0.000446	4.462557	0.755978	-0.000045
1908	1.8975e+02	1.0209	-9.863189	0.000409	4.094089	0.693558	-0.000041
1909	1.8985e+02	1.0097	-9.908404	0.000454	4.544439	0.769849	-0.000045
1910	1.8995e+02	1.0004	-9.953212	0.000450	4.503498	0.762913	-0.000045
1911	1.9004e+02	0.9910	-9.995983	0.000430	4.298794	0.728235	-0.000043
1912	1.9014e+02	0.9807	-10.040790	0.000450	4.503498	0.762913	-0.000045
1913	1.9024e+02	0.9700	-10.090893	0.000504	5.035730	0.853076	-0.000050
1914	1.9034e+02	0.9614	-10.133664	0.000430	4.298794	0.728235	-0.000043
1915	1.9044e+02	0.9542	-10.175213	0.000418	4.175971	0.707429	-0.000042
1916	1.9054e+02	0.9436	-10.220428	0.000454	4.544439	0.769849	-0.000045
1917	1.9064e+02	0.9321	-10.260755	0.000405	4.053148	0.686622	-0.000041
1918	1.9074e+02	0.9204	-10.312080	0.000516	5.158553	0.873882	-0.000052
1919	1.9084e+02	0.9137	-10.348334	0.000364	3.643740	0.617266	-0.000036
1920	1.9094e+02	0.8986	-10.392327	0.000442	4.421617	0.749042	-0.000044
1921	1.9104e+02	0.8904	-10.436320	0.000442	4.421617	0.749042	-0.000044
1922	1.9114e+02	0.8829	-10.475832	0.000397	3.971267	0.672751	-0.000040
1923	1.9124e+02	0.8714	-10.518603	0.000430	4.298794	0.728235	-0.000043
1924	1.9134e+02	0.8614	-10.565040	0.000467	4.667262	0.790656	-0.000047
1925	1.9144e+02	0.8530	-10.606182	0.000414	4.135030	0.700493	-0.000041
1926	1.9154e+02	0.8466	-10.647731	0.000418	4.175971	0.707429	-0.000042
1927	1.9164e+02	0.8288	-10.692946	0.000454	4.544439	0.769849	-0.000045
1928	1.9174e+02	0.8221	-10.736939	0.000442	4.421617	0.749042	-0.000044
1929	1.9184e+02	0.8102	-10.777266	0.000405	4.053148	0.686622	-0.000041
1930	1.9194e+02	0.8017	-10.818814	0.000418	4.175971	0.707429	-0.000042
1931	1.9203e+02	0.7934	-10.862400	0.000438	4.380676	0.742107	-0.000044
1932	1.9213e+02	0.7845	-10.905986	0.000438	4.380676	0.742107	-0.000044
1933	1.9223e+02	0.7710	-10.947127	0.000414	4.135030	0.700493	-0.000041
1934	1.9233e+02	0.7617	-10.987047	0.000401	4.012208	0.679686	-0.000040
1935	1.9243e+02	0.7513	-11.034706	0.000479	4.790085	0.811462	-0.000048
1936	1.9253e+02	0.7414	-11.072182	0.000377	3.766562	0.638073	-0.000038
1937	1.9263e+02	0.7320	-11.116175	0.000442	4.421617	0.749042	-0.000044
1938	1.9273e+02	0.7229	-11.160168	0.000442	4.421617	0.749042	-0.000044
1939	1.9283e+02	0.7114	-11.201716	0.000418	4.175971	0.707429	-0.000042
1940	1.9293e+02	0.7028	-11.245709	0.000442	4.421617	0.749042	-0.000044
1941	1.9303e+02	0.6928	-11.288480	0.000430	4.298794	0.728235	-0.000043
1942	1.9313e+02	0.6832	-11.330844	0.000426	4.257853	0.721300	-0.000043
1943	1.9323e+02	0.6736	-11.374837	0.000442	4.421617	0.749042	-0.000044
1944	1.9333e+02	0.6651	-11.415571	0.000409	4.094089	0.693558	-0.000041
1945	1.9343e+02	0.6526	-11.456713	0.000414	4.135030	0.700493	-0.000041
1946	1.9353e+02	0.6415	-11.495003	0.000385	3.848444	0.651944	-0.000038
1947	1.9363e+02	0.6306	-11.537774	0.000430	4.298794	0.728235	-0.000043
1948	1.9373e+02	0.6258	-11.577694	0.000401	4.012208	0.679686	-0.000040
1949	1.9383e+02	0.6125	-11.619650	0.000422	4.216912	0.714364	-0.000042
1950	1.9393e+02	0.6039	-11.661199	0.000418	4.175971	0.707429	-0.000042
1951	1.9403e+02	0.5941	-11.699896	0.000389	3.889385	0.658880	-0.000039
1952	1.9412e+02	0.5827	-11.745519	0.000459	4.585380	0.776784	-0.000046
1953	1.9422e+02	0.5736	-11.785031	0.000397	3.971267	0.672751	-0.000040
1954	1.9432e+02	0.5634	-11.824543	0.000397	3.971267	0.672751	-0.000040
1955	1.9442e+02	0.5542	-11.869758	0.000454	4.544439	0.769849	-0.000045
1956	1.9452e+02	0.5450	-11.905604	0.000360	3.602799	0.610331	-0.000036
1957	1.9462e+02	0.5331	-11.950412	0.000450	4.503498	0.762913	-0.000045
1958	1.9472e+02	0.5231	-11.984222	0.000340	3.398094	0.575653	-0.000034
1959	1.9482e+02	0.5105	-12.025770	0.000418	4.175971	0.707429	-0.000042
1960	1.9492e+02	0.5074	-12.066912	0.000414	4.135030	0.700493	-0.000041
1961	1.9502e+02	0.4917	-12.109683	0.000430	4.298794	0.728235	-0.000043
1962	1.9512e+02	0.4853	-12.150010	0.000405	4.053148	0.686622	-0.000041
1963	1.9522e+02	0.4734	-12.191966	0.000422	4.216912	0.714364	-0.000042
1964	1.9532e+02	0.4652	-12.235552	0.000438	4.380676	0.742107	-0.000044
1965	1.9542e+02	0.4519	-12.278730	0.000434	4.339735	0.735171	-0.000043
1966	1.9552e+02	0.4444	-12.324760	0.000463	4.626321	0.783720	-0.000046
1967	1.9562e+02	0.4301	-12.367531	0.000430	4.298794	0.728235	-0.000043
1968	1.9572e+02	0.4253	-12.408672	0.000414	4.135030	0.700493	-0.000041
1969	1.9582e+02	0.4143	-12.452258	0.000438	4.380676	0.742107	-0.000044
1970	1.9592e+02	0.4028	-12.492585	0.000405	4.053148	0.686622	-0.000041
1971	1.9601e+02	0.3924	-12.534541	0.000422	4.216912	0.714364	-0.000042
1972	1.9611e+02	0.3854	-12.583015	0.000487	4.871966	0.825333	-0.000049
1973	1.9621e+02	0.3764	-12.626601	0.000438	4.380676	0.742107	-0.000044
1974	1.9631e+02	0.3643	-12.665298	0.000389	3.889385	0.658880	-0.000039
1975	1.9641e+02	0.3541	-12.714179	0.000491	4.912907	0.832269	-0.000049
1976	1.9651e+02	0.3422	-12.756136	0.000422	4.216912	0.714364	-0.000042
1977	1.9661e+02	0.3328	-12.796055	0.000401	4.012208	0.679686	-0.000040
1978	1.9671e+02	0.3244	-12.843714	0.000479	4.790085	0.811462	-0.000048
1979	1.9681e+02	0.3152	-12.886078	0.000426	4.257853	0.721300	-0.000043
1980	1.9691e+02	0.3060	-12.927220	0.000414	4.135030	0.700493	-0.000041
1981	1.9701e+02	0.2952	-12.973657	0.000467	4.667262	0.790656	-0.000047
1982	1.9711e+02	0.2857	-13.020094	0.000467	4.667262	0.790656	-0.000047
1983	1.9721e+02	0.2742	-13.063272	0.000434	4.339735	0.735171	-0.000043
1984	1.9731e+02	0.2664	-13.102784	0.000397	3.971267	0.672751	-0.000040
1985	1.9741e+02	0.2541	-13.143518	0.000409	4.094089	0.693558	-0.000041
1986	1.9751e+02	0.2462	-13.184253	0.000409	4.094089	0.693558	-0.000041
1987	1.9761e+02	0.2345	-13.227431	0.000434	4.339735	0.735171	-0.000043
1988	1.9771e+02	0.2255	-13.268165	0.000409	4.094089	0.693558	-0.000041
1989	1.9781e+02	0.2171	-13.314195	0.000463	4.626321	0.783720	-0.000046
1990	1.9791e+02	0.2048	-13.358188	0.000442	4.421617	0.749042	-0.000044
1991	1.9800e+02	0.1956	-13.398922	0.000409	4.094089	0.693558	-0.000041
1992	1.9810e+02	0.1842	-13.442508	0.000438	4.380676	0.742107	-0.000044
1993	1.9820e+02	0.1775	-13.486908	0.000446	4.462557	0.755978	-0.000045
1994	1.9830e+02	0.1659	-13.532123	0.000454	4.544439	0.769849	-0.000045
1995	1.9840e+02	0.1576	-13.569599	0.000377	3.766562	0.638073	-0.000038
1996	1.9850e+02	0.1456	-13.613999	0.000446	4.462557	0.755978	-0.000045
1997	1.9860e+02	0.1357	-13.656770	0.000430	4.298794	0.728235	-0.000043
1998	1.9870e+02	0.1245	-13.696282	0.000397	3.971267	0.672751	-0.000040
1999	1.9880e+02	0.1160	-13.744756	0.000487	4.871966	0.825333	-0.000049
2000	1.9890e+02	0.1044	-13.786712	0.000422	4.216912	0.714364	-0.000042
2001	1.9900e+02	0.0949	-13.829891	0.000434	4.339735	0.735171	-0.000043
2002	1.9910e+02	0.0862	-13.874698	0.000450	4.503498	0.762913	-0.000045
2003	1.9920e+02	0.0751	-13.922765	0.000483	4.831025	0.818398	-0.000048
2004	1.9930e+02	0.0649	-13.968387	0.000459	4.585380	0.776784	-0.000046
2005	1.9940e+02	0.0552	-14.014009	0.000459	4.585380	0.776784	-0.000046
2006	1.9950e+02	0.0466	-14.058817	0.000450	4.503498	0.762913	-0.000045
2007	1.9960e+02	0.0349	-14.109735	0.000512	5.117612	0.866947	-0.000051
2008	1.9970e+02	0.0234	-14.151691	0.000422	4.216912	0.714364	-0.000042
2009	1.9980e+02	0.0163	-14.196499	0.000450	4.503498	0.762913	-0.000045
2010	1.9990e+02	0.0034	-14.241714	0.000454	4.544439	0.769849	-0.000045
2011	2.0000e+02	-0.0027	-14.284892	0.000454	4.544439	0.769849	-0.000043

PMax (uC/cm2):	3.40e+01
Pr (uC/cm2):	2.71e+00
-Pr (uC/cm2):	0.00e+00
PLoss (uC/cm2):	0.00e+00
C (Max-Eff) (nF):	3.40e-01
K (Eff):	5.76e+02
Vert. (+/-Pr) Shift (uC/cm2):	1.36e+00
Offset (uC/cm2):	1.70e+01

A (Loop Area - uC/cm2·Volts):	-2.74e-02



Hysteresis Version: 5.48.1 - Radiant Technologies, Inc., 1999 - 9/12/24

