»»»»»»»»»»»»»»»»»»»»»»»»»»»»»»»»»»»» Hysteresis ««««««««««««««««««««««««««««««««««««
»»»  Executed Version:	5.48.1
»»»  Vision Version:	5.48.4 (R)
»»»  Vision Compiled:	9/18/24
»»»  Driver Version:	5.47.0
»»»  Windows Version:	Windows 8 or 8.1
»»»  Processor Information:	x86 (AMD or Intel) - 32 Processors
»»»  Tester Name:	PMF21124-494 (100V)
»»»  Tester S/N:	PMF21124-494
»»»  Internal Amp Type:	100V RevK 270k
»»»  Internal Amp S/N:	iAB2-596/K     
»»»  Execution Count:	1
»»»»»»»»»»»»»»»»»»»»»»»»»»»»»»»»»»»»»»»»»»««««««««««««««««««««««««««««««««««««««««««

Stored:	6/30/2025 - 11:48:44
Configured:	06/30/25 10:19:58 AM
Executed:	06/30/25 11:48:15 AM

»»»»»»»»»»»»»»»»»»»»»»»»»»»»»»»»»»» Sample Info ««««««««««««««««««««««««««««««««««««
Sample Name:	
Lot Name:	
Wafer Name:	
Die Row/Column:	0/0
Capacitor Number:	0
Sample Area (cm2):	1.00e-04
Sample Thickness (microns):	1.50e-01

Amplifier:	Internal

»»»»»»»»»»»»»»»»»»»»»»»»»»»»»»»»»»» Tester Info «««««««««««««««««««««««««««««««««««
Tester Name:	PMF21124-494 (100V)
Tester Serial Number:	PMF21124-494
Return Signal Amp. Level:	1.9 [Index: 2]

»»»»»»»»»»»»»»»»»»»»»»»»»»»»»»»» Hysteresis Info ««««««««««««««««««««««««««««««««««
Task Name:	Hyst-1804
Volts:	10.00
Field:	666.67 (kV/cm)
DCBias:	0.00
DCField:	0.00 (kV/cm)
Hysteresis Period (ms):	2.00e+02
Preset:	Enabled
Preset Delay (ms):	1.00e+03
Profile:	Standard Monopolar

»»»»»»»»»»»»»»»»»»»»»»»»»»»»»»»»»»»»»» Data «««««««««««««««««««««««««««««««««««««««
Points:	2011

Valid Data

Point	Time (ms)	Drive Voltage	Measured Polarization (uC/cm2)	Capacitance (uF)	Normalized Capacitance (uF/cm2)	Dielectric Constant	Instantaneous Current (mA)
   1	0.0000e+00	-0.0031	-18.415346	0.000430	4.299368	0.728333	0.000043
   2	9.9500e-02	0.0056	-18.372575	0.000430	4.299368	0.728333	0.000043
   3	1.9900e-01	0.0160	-18.324101	0.000487	4.872617	0.825444	0.000049
   4	2.9850e-01	0.0253	-18.276035	0.000483	4.831671	0.818507	0.000048
   5	3.9800e-01	0.0352	-18.227153	0.000491	4.913563	0.832380	0.000049
   6	4.9750e-01	0.0465	-18.180716	0.000467	4.667885	0.790761	0.000047
   7	5.9700e-01	0.0571	-18.134687	0.000463	4.626939	0.783825	0.000046
   8	6.9650e-01	0.0655	-18.088657	0.000463	4.626939	0.783825	0.000046
   9	7.9600e-01	0.0749	-18.042220	0.000467	4.667885	0.790761	0.000047
  10	8.9550e-01	0.0861	-17.989265	0.000532	5.323027	0.901745	0.000053
  11	9.9500e-01	0.0960	-17.947716	0.000418	4.176529	0.707523	0.000042
  12	1.0945e+00	0.1032	-17.902501	0.000455	4.545046	0.769952	0.000045
  13	1.1940e+00	0.1145	-17.854842	0.000479	4.790724	0.811571	0.000048
  14	1.2935e+00	0.1277	-17.809627	0.000455	4.545046	0.769952	0.000045
  15	1.3930e+00	0.1369	-17.766042	0.000438	4.381261	0.742206	0.000044
  16	1.4925e+00	0.1463	-17.719197	0.000471	4.708832	0.797698	0.000047
  17	1.5920e+00	0.1578	-17.673168	0.000463	4.626939	0.783825	0.000046
  18	1.6915e+00	0.1646	-17.626323	0.000471	4.708832	0.797698	0.000047
  19	1.7910e+00	0.1734	-17.583960	0.000426	4.258422	0.721396	0.000043
  20	1.8905e+00	0.1853	-17.542818	0.000414	4.135582	0.700587	0.000041
  21	1.9900e+00	0.1940	-17.491900	0.000512	5.118295	0.867063	0.000051
  22	2.0895e+00	0.2057	-17.450759	0.000414	4.135582	0.700587	0.000041
  23	2.1890e+00	0.2141	-17.403914	0.000471	4.708832	0.797698	0.000047
  24	2.2885e+00	0.2249	-17.360736	0.000434	4.340314	0.735269	0.000043
  25	2.3880e+00	0.2305	-17.312262	0.000487	4.872617	0.825444	0.000049
  26	2.4875e+00	0.2450	-17.266232	0.000463	4.626939	0.783825	0.000046
  27	2.5870e+00	0.2589	-17.225498	0.000409	4.094636	0.693650	0.000041
  28	2.6865e+00	0.2671	-17.181098	0.000446	4.463153	0.756079	0.000045
  29	2.7860e+00	0.2738	-17.142400	0.000389	3.889904	0.658968	0.000039
  30	2.8855e+00	0.2858	-17.089446	0.000532	5.323027	0.901745	0.000053
  31	2.9850e+00	0.2935	-17.049119	0.000405	4.053690	0.686714	0.000041
  32	3.0845e+00	0.3044	-17.001867	0.000475	4.749778	0.804634	0.000047
  33	3.1840e+00	0.3131	-16.956652	0.000455	4.545046	0.769952	0.000045
  34	3.2835e+00	0.3263	-16.915510	0.000414	4.135582	0.700587	0.000041
  35	3.3830e+00	0.3370	-16.865815	0.000500	4.995456	0.846253	0.000050
  36	3.4825e+00	0.3457	-16.822636	0.000434	4.340314	0.735269	0.000043
  37	3.5820e+00	0.3565	-16.781087	0.000418	4.176529	0.707523	0.000042
  38	3.6815e+00	0.3625	-16.731799	0.000495	4.954510	0.839317	0.000050
  39	3.7810e+00	0.3732	-16.691879	0.000401	4.012743	0.679777	0.000040
  40	3.8805e+00	0.3844	-16.641776	0.000504	5.036402	0.853190	0.000050
  41	3.9800e+00	0.3945	-16.598598	0.000434	4.340314	0.735269	0.000043
  42	4.0795e+00	0.4031	-16.557456	0.000414	4.135582	0.700587	0.000041
  43	4.1790e+00	0.4137	-16.510205	0.000475	4.749778	0.804634	0.000047
  44	4.2785e+00	0.4245	-16.471507	0.000389	3.889904	0.658968	0.000039
  45	4.3780e+00	0.4336	-16.424663	0.000471	4.708832	0.797698	0.000047
  46	4.4775e+00	0.4446	-16.379855	0.000450	4.504100	0.763015	0.000045
  47	4.5770e+00	0.4545	-16.335455	0.000446	4.463153	0.756079	0.000045
  48	4.6765e+00	0.4647	-16.292684	0.000430	4.299368	0.728333	0.000043
  49	4.7760e+00	0.4726	-16.248691	0.000442	4.422207	0.749142	0.000044
  50	4.8755e+00	0.4832	-16.202254	0.000467	4.667885	0.790761	0.000047
  51	4.9750e+00	0.4926	-16.156631	0.000459	4.585992	0.776888	0.000046
  52	5.0745e+00	0.5075	-16.113860	0.000430	4.299368	0.728333	0.000043
  53	5.1740e+00	0.5150	-16.069053	0.000450	4.504100	0.763015	0.000045
  54	5.2735e+00	0.5244	-16.025874	0.000434	4.340314	0.735269	0.000043
  55	5.3730e+00	0.5320	-15.981474	0.000446	4.463153	0.756079	0.000045
  56	5.4725e+00	0.5441	-15.938296	0.000434	4.340314	0.735269	0.000043
  57	5.5720e+00	0.5550	-15.895932	0.000426	4.258422	0.721396	0.000043
  58	5.6715e+00	0.5632	-15.853976	0.000422	4.217475	0.714460	0.000042
  59	5.7710e+00	0.5721	-15.813649	0.000405	4.053690	0.686714	0.000041
  60	5.8705e+00	0.5794	-15.768026	0.000459	4.585992	0.776888	0.000046
  61	5.9700e+00	0.5900	-15.728514	0.000397	3.971797	0.672841	0.000040
  62	6.0695e+00	0.6019	-15.682892	0.000459	4.585992	0.776888	0.000046
  63	6.1690e+00	0.6126	-15.643380	0.000397	3.971797	0.672841	0.000040
  64	6.2685e+00	0.6242	-15.599794	0.000438	4.381261	0.742206	0.000044
  65	6.3680e+00	0.6325	-15.554986	0.000450	4.504100	0.763015	0.000045
  66	6.4675e+00	0.6425	-15.513845	0.000414	4.135582	0.700587	0.000041
  67	6.5670e+00	0.6539	-15.469852	0.000442	4.422207	0.749142	0.000044
  68	6.6665e+00	0.6615	-15.429932	0.000401	4.012743	0.679777	0.000040
  69	6.7660e+00	0.6711	-15.385532	0.000446	4.463153	0.756079	0.000045
  70	6.8655e+00	0.6814	-15.343983	0.000418	4.176529	0.707523	0.000042
  71	6.9650e+00	0.6934	-15.304063	0.000401	4.012743	0.679777	0.000040
  72	7.0645e+00	0.7003	-15.256404	0.000479	4.790724	0.811571	0.000048
  73	7.1640e+00	0.7124	-15.218114	0.000385	3.848958	0.652031	0.000038
  74	7.2635e+00	0.7220	-15.177380	0.000409	4.094636	0.693650	0.000041
  75	7.3630e+00	0.7323	-15.134201	0.000434	4.340314	0.735269	0.000043
  76	7.4625e+00	0.7407	-15.095097	0.000393	3.930851	0.665904	0.000039
  77	7.5620e+00	0.7510	-15.049474	0.000459	4.585992	0.776888	0.000046
  78	7.6615e+00	0.7680	-15.007925	0.000418	4.176529	0.707523	0.000042
  79	7.7610e+00	0.7709	-14.963932	0.000442	4.422207	0.749142	0.000044
  80	7.8605e+00	0.7862	-14.923198	0.000409	4.094636	0.693650	0.000041
  81	7.9600e+00	0.7910	-14.881649	0.000418	4.176529	0.707523	0.000042
  82	8.0595e+00	0.8024	-14.839285	0.000426	4.258422	0.721396	0.000043
  83	8.1590e+00	0.8132	-14.793256	0.000463	4.626939	0.783825	0.000046
  84	8.2585e+00	0.8216	-14.751299	0.000422	4.217475	0.714460	0.000042
  85	8.3580e+00	0.8313	-14.707306	0.000442	4.422207	0.749142	0.000044
  86	8.4575e+00	0.8421	-14.663313	0.000442	4.422207	0.749142	0.000044
  87	8.5570e+00	0.8511	-14.621765	0.000418	4.176529	0.707523	0.000042
  88	8.6565e+00	0.8613	-14.578586	0.000434	4.340314	0.735269	0.000043
  89	8.7560e+00	0.8705	-14.535408	0.000434	4.340314	0.735269	0.000043
  90	8.8555e+00	0.8822	-14.491008	0.000446	4.463153	0.756079	0.000045
  91	8.9550e+00	0.8923	-14.451903	0.000393	3.930851	0.665904	0.000039
  92	9.0545e+00	0.9028	-14.407910	0.000442	4.422207	0.749142	0.000044
  93	9.1540e+00	0.9093	-14.358621	0.000495	4.954510	0.839317	0.000050
  94	9.2535e+00	0.9198	-14.314628	0.000442	4.422207	0.749142	0.000044
  95	9.3530e+00	0.9312	-14.271857	0.000430	4.299368	0.728333	0.000043
  96	9.4525e+00	0.9414	-14.228272	0.000438	4.381261	0.742206	0.000044
  97	9.5520e+00	0.9523	-14.182649	0.000459	4.585992	0.776888	0.000046
  98	9.6515e+00	0.9583	-14.134176	0.000487	4.872617	0.825444	0.000049
  99	9.7510e+00	0.9693	-14.092219	0.000422	4.217475	0.714460	0.000042
 100	9.8505e+00	0.9801	-14.049856	0.000426	4.258422	0.721396	0.000043
 101	9.9500e+00	0.9905	-14.001382	0.000487	4.872617	0.825444	0.000049
 102	1.0050e+01	0.9998	-13.957796	0.000438	4.381261	0.742206	0.000044
 103	1.0149e+01	1.0152	-13.912989	0.000450	4.504100	0.763015	0.000045
 104	1.0248e+01	1.0207	-13.866551	0.000467	4.667885	0.790761	0.000047
 105	1.0348e+01	1.0304	-13.823373	0.000434	4.340314	0.735269	0.000043
 106	1.0447e+01	1.0374	-13.775307	0.000483	4.831671	0.818507	0.000048
 107	1.0547e+01	1.0510	-13.728870	0.000467	4.667885	0.790761	0.000047
 108	1.0646e+01	1.0610	-13.684469	0.000446	4.463153	0.756079	0.000045
 109	1.0746e+01	1.0711	-13.637625	0.000471	4.708832	0.797698	0.000047
 110	1.0845e+01	1.0784	-13.594039	0.000438	4.381261	0.742206	0.000044
 111	1.0945e+01	1.0920	-13.546788	0.000475	4.749778	0.804634	0.000047
 112	1.1044e+01	1.1008	-13.499536	0.000475	4.749778	0.804634	0.000047
 113	1.1144e+01	1.1124	-13.454321	0.000455	4.545046	0.769952	0.000045
 114	1.1243e+01	1.1194	-13.410735	0.000438	4.381261	0.742206	0.000044
 115	1.1343e+01	1.1288	-13.365927	0.000450	4.504100	0.763015	0.000045
 116	1.1443e+01	1.1391	-13.317454	0.000487	4.872617	0.825444	0.000049
 117	1.1542e+01	1.1520	-13.275090	0.000426	4.258422	0.721396	0.000043
 118	1.1642e+01	1.1607	-13.224580	0.000508	5.077349	0.860126	0.000051
 119	1.1741e+01	1.1694	-13.178957	0.000459	4.585992	0.776888	0.000046
 120	1.1841e+01	1.1794	-13.134964	0.000442	4.422207	0.749142	0.000044
 121	1.1940e+01	1.1942	-13.086083	0.000491	4.913563	0.832380	0.000049
 122	1.2040e+01	1.2010	-13.042090	0.000442	4.422207	0.749142	0.000044
 123	1.2139e+01	1.2092	-12.996875	0.000455	4.545046	0.769952	0.000045
 124	1.2239e+01	1.2173	-12.950845	0.000463	4.626939	0.783825	0.000046
 125	1.2338e+01	1.2305	-12.901964	0.000491	4.913563	0.832380	0.000049
 126	1.2438e+01	1.2419	-12.855120	0.000471	4.708832	0.797698	0.000047
 127	1.2537e+01	1.2493	-12.810312	0.000450	4.504100	0.763015	0.000045
 128	1.2636e+01	1.2579	-12.766727	0.000438	4.381261	0.742206	0.000044
 129	1.2736e+01	1.2683	-12.722326	0.000446	4.463153	0.756079	0.000045
 130	1.2835e+01	1.2785	-12.674260	0.000483	4.831671	0.818507	0.000048
 131	1.2935e+01	1.2893	-12.626601	0.000479	4.790724	0.811571	0.000048
 132	1.3034e+01	1.2987	-12.582608	0.000442	4.422207	0.749142	0.000044
 133	1.3134e+01	1.3082	-12.532097	0.000508	5.077349	0.860126	0.000051
 134	1.3233e+01	1.3186	-12.490956	0.000414	4.135582	0.700587	0.000041
 135	1.3333e+01	1.3322	-12.443704	0.000475	4.749778	0.804634	0.000047
 136	1.3432e+01	1.3413	-12.394823	0.000491	4.913563	0.832380	0.000049
 137	1.3532e+01	1.3495	-12.349200	0.000459	4.585992	0.776888	0.000046
 138	1.3632e+01	1.3602	-12.302763	0.000467	4.667885	0.790761	0.000047
 139	1.3731e+01	1.3693	-12.258770	0.000442	4.422207	0.749142	0.000044
 140	1.3831e+01	1.3793	-12.212333	0.000467	4.667885	0.790761	0.000047
 141	1.3930e+01	1.3869	-12.163452	0.000491	4.913563	0.832380	0.000049
 142	1.4030e+01	1.4013	-12.114978	0.000487	4.872617	0.825444	0.000049
 143	1.4129e+01	1.4109	-12.068541	0.000467	4.667885	0.790761	0.000047
 144	1.4229e+01	1.4184	-12.018031	0.000508	5.077349	0.860126	0.000051
 145	1.4328e+01	1.4304	-11.972409	0.000459	4.585992	0.776888	0.000046
 146	1.4428e+01	1.4392	-11.923935	0.000487	4.872617	0.825444	0.000049
 147	1.4527e+01	1.4468	-11.875868	0.000483	4.831671	0.818507	0.000048
 148	1.4627e+01	1.4591	-11.825765	0.000504	5.036402	0.853190	0.000050
 149	1.4726e+01	1.4676	-11.782994	0.000430	4.299368	0.728333	0.000043
 150	1.4825e+01	1.4778	-11.734521	0.000487	4.872617	0.825444	0.000049
 151	1.4925e+01	1.4898	-11.690935	0.000438	4.381261	0.742206	0.000044
 152	1.5024e+01	1.4986	-11.635129	0.000561	5.609651	0.950301	0.000056
 153	1.5124e+01	1.5091	-11.592765	0.000426	4.258422	0.721396	0.000043
 154	1.5223e+01	1.5175	-11.543884	0.000491	4.913563	0.832380	0.000049
 155	1.5323e+01	1.5286	-11.493374	0.000508	5.077349	0.860126	0.000051
 156	1.5422e+01	1.5382	-11.450195	0.000434	4.340314	0.735269	0.000043
 157	1.5522e+01	1.5488	-11.401722	0.000487	4.872617	0.825444	0.000049
 158	1.5621e+01	1.5600	-11.351211	0.000508	5.077349	0.860126	0.000051
 159	1.5721e+01	1.5665	-11.304367	0.000471	4.708832	0.797698	0.000047
 160	1.5820e+01	1.5739	-11.256708	0.000479	4.790724	0.811571	0.000048
 161	1.5920e+01	1.5864	-11.207827	0.000491	4.913563	0.832380	0.000049
 162	1.6020e+01	1.5984	-11.160982	0.000471	4.708832	0.797698	0.000047
 163	1.6119e+01	1.6102	-11.118619	0.000426	4.258422	0.721396	0.000043
 164	1.6218e+01	1.6164	-11.070960	0.000479	4.790724	0.811571	0.000048
 165	1.6318e+01	1.6277	-11.022078	0.000491	4.913563	0.832380	0.000049
 166	1.6418e+01	1.6374	-10.974419	0.000479	4.790724	0.811571	0.000048
 167	1.6517e+01	1.6466	-10.929204	0.000455	4.545046	0.769952	0.000045
 168	1.6616e+01	1.6563	-10.882360	0.000471	4.708832	0.797698	0.000047
 169	1.6716e+01	1.6654	-10.838774	0.000438	4.381261	0.742206	0.000044
 170	1.6816e+01	1.6764	-10.789078	0.000500	4.995456	0.846253	0.000050
 171	1.6915e+01	1.6878	-10.742234	0.000471	4.708832	0.797698	0.000047
 172	1.7015e+01	1.6953	-10.693760	0.000487	4.872617	0.825444	0.000049
 173	1.7114e+01	1.7054	-10.646509	0.000475	4.749778	0.804634	0.000047
 174	1.7213e+01	1.7180	-10.605774	0.000409	4.094636	0.693650	0.000041
 175	1.7313e+01	1.7279	-10.558930	0.000471	4.708832	0.797698	0.000047
 176	1.7413e+01	1.7371	-10.509234	0.000500	4.995456	0.846253	0.000050
 177	1.7512e+01	1.7455	-10.467685	0.000418	4.176529	0.707523	0.000042
 178	1.7611e+01	1.7536	-10.417175	0.000508	5.077349	0.860126	0.000051
 179	1.7711e+01	1.7684	-10.376440	0.000409	4.094636	0.693650	0.000041
 180	1.7811e+01	1.7764	-10.332447	0.000442	4.422207	0.749142	0.000044
 181	1.7910e+01	1.7870	-10.282752	0.000500	4.995456	0.846253	0.000050
 182	1.8009e+01	1.7965	-10.242832	0.000401	4.012743	0.679777	0.000040
 183	1.8109e+01	1.8093	-10.198839	0.000442	4.422207	0.749142	0.000044
 184	1.8209e+01	1.8169	-10.156068	0.000430	4.299368	0.728333	0.000043
 185	1.8308e+01	1.8265	-10.112483	0.000438	4.381261	0.742206	0.000044
 186	1.8407e+01	1.8382	-10.067267	0.000455	4.545046	0.769952	0.000045
 187	1.8507e+01	1.8458	-10.027348	0.000401	4.012743	0.679777	0.000040
 188	1.8607e+01	1.8600	-9.980911	0.000467	4.667885	0.790761	0.000047
 189	1.8706e+01	1.8666	-9.935289	0.000459	4.585992	0.776888	0.000046
 190	1.8805e+01	1.8768	-9.892110	0.000434	4.340314	0.735269	0.000043
 191	1.8905e+01	1.8852	-9.851783	0.000405	4.053690	0.686714	0.000041
 192	1.9005e+01	1.8977	-9.806161	0.000459	4.585992	0.776888	0.000046
 193	1.9104e+01	1.9054	-9.765834	0.000405	4.053690	0.686714	0.000041
 194	1.9203e+01	1.9161	-9.726729	0.000393	3.930851	0.665904	0.000039
 195	1.9303e+01	1.9261	-9.682736	0.000442	4.422207	0.749142	0.000044
 196	1.9402e+01	1.9382	-9.635892	0.000471	4.708832	0.797698	0.000047
 197	1.9502e+01	1.9456	-9.594750	0.000414	4.135582	0.700587	0.000041
 198	1.9602e+01	1.9571	-9.555238	0.000397	3.971797	0.672841	0.000040
 199	1.9701e+01	1.9662	-9.513282	0.000422	4.217475	0.714460	0.000042
 200	1.9800e+01	1.9773	-9.466437	0.000471	4.708832	0.797698	0.000047
 201	1.9900e+01	1.9848	-9.427332	0.000393	3.930851	0.665904	0.000039
 202	2.0000e+01	1.9962	-9.385783	0.000418	4.176529	0.707523	0.000042
 203	2.0099e+01	2.0068	-9.338532	0.000475	4.749778	0.804634	0.000047
 204	2.0198e+01	2.0189	-9.298612	0.000401	4.012743	0.679777	0.000040
 205	2.0298e+01	2.0281	-9.255434	0.000434	4.340314	0.735269	0.000043
 206	2.0398e+01	2.0359	-9.211848	0.000438	4.381261	0.742206	0.000044
 207	2.0497e+01	2.0440	-9.167855	0.000442	4.422207	0.749142	0.000044
 208	2.0596e+01	2.0554	-9.131602	0.000364	3.644226	0.617349	0.000036
 209	2.0696e+01	2.0657	-9.086387	0.000455	4.545046	0.769952	0.000045
 210	2.0796e+01	2.0789	-9.041579	0.000450	4.504100	0.763015	0.000045
 211	2.0895e+01	2.0831	-9.001252	0.000405	4.053690	0.686714	0.000041
 212	2.0994e+01	2.0989	-8.962147	0.000393	3.930851	0.665904	0.000039
 213	2.1094e+01	2.1049	-8.917339	0.000450	4.504100	0.763015	0.000045
 214	2.1194e+01	2.1157	-8.876605	0.000409	4.094636	0.693650	0.000041
 215	2.1293e+01	2.1254	-8.836686	0.000401	4.012743	0.679777	0.000040
 216	2.1392e+01	2.1366	-8.792693	0.000442	4.422207	0.749142	0.000044
 217	2.1492e+01	2.1439	-8.751551	0.000414	4.135582	0.700587	0.000041
 218	2.1591e+01	2.1587	-8.714483	0.000373	3.726119	0.631222	0.000037
 219	2.1691e+01	2.1652	-8.667231	0.000475	4.749778	0.804634	0.000047
 220	2.1791e+01	2.1732	-8.627312	0.000401	4.012743	0.679777	0.000040
 221	2.1890e+01	2.1854	-8.586577	0.000409	4.094636	0.693650	0.000041
 222	2.1989e+01	2.1960	-8.544621	0.000422	4.217475	0.714460	0.000042
 223	2.2089e+01	2.2066	-8.503479	0.000414	4.135582	0.700587	0.000041
 224	2.2189e+01	2.2163	-8.461116	0.000426	4.258422	0.721396	0.000043
 225	2.2288e+01	2.2243	-8.422418	0.000389	3.889904	0.658968	0.000039
 226	2.2387e+01	2.2333	-8.383721	0.000389	3.889904	0.658968	0.000039
 227	2.2487e+01	2.2443	-8.343801	0.000401	4.012743	0.679777	0.000040
 228	2.2587e+01	2.2541	-8.306326	0.000377	3.767065	0.638158	0.000038
 229	2.2686e+01	2.2635	-8.265999	0.000405	4.053690	0.686714	0.000041
 230	2.2785e+01	2.2736	-8.229745	0.000364	3.644226	0.617349	0.000036
 231	2.2885e+01	2.2831	-8.186974	0.000430	4.299368	0.728333	0.000043
 232	2.2985e+01	2.2939	-8.149906	0.000373	3.726119	0.631222	0.000037
 233	2.3084e+01	2.3051	-8.104284	0.000459	4.585992	0.776888	0.000046
 234	2.3183e+01	2.3122	-8.065586	0.000389	3.889904	0.658968	0.000039
 235	2.3283e+01	2.3269	-8.023630	0.000422	4.217475	0.714460	0.000042
 236	2.3383e+01	2.3357	-7.985340	0.000385	3.848958	0.652031	0.000038
 237	2.3482e+01	2.3434	-7.948679	0.000369	3.685173	0.624285	0.000037
 238	2.3581e+01	2.3524	-7.906723	0.000422	4.217475	0.714460	0.000042
 239	2.3681e+01	2.3647	-7.868025	0.000389	3.889904	0.658968	0.000039
 240	2.3780e+01	2.3734	-7.828920	0.000393	3.930851	0.665904	0.000039
 241	2.3880e+01	2.3846	-7.789815	0.000393	3.930851	0.665904	0.000039
 242	2.3980e+01	2.3936	-7.749896	0.000401	4.012743	0.679777	0.000040
 243	2.4079e+01	2.4073	-7.714050	0.000360	3.603280	0.610412	0.000036
 244	2.4178e+01	2.4129	-7.676981	0.000373	3.726119	0.631222	0.000037
 245	2.4278e+01	2.4266	-7.637469	0.000397	3.971797	0.672841	0.000040
 246	2.4378e+01	2.4342	-7.594291	0.000434	4.340314	0.735269	0.000043
 247	2.4477e+01	2.4458	-7.558445	0.000360	3.603280	0.610412	0.000036
 248	2.4576e+01	2.4535	-7.519340	0.000393	3.930851	0.665904	0.000039
 249	2.4676e+01	2.4676	-7.477791	0.000418	4.176529	0.707523	0.000042
 250	2.4776e+01	2.4724	-7.437057	0.000409	4.094636	0.693650	0.000041
 251	2.4875e+01	2.4837	-7.392656	0.000446	4.463153	0.756079	0.000045
 252	2.4974e+01	2.4934	-7.357217	0.000356	3.562333	0.603476	0.000036
 253	2.5074e+01	2.5025	-7.315669	0.000418	4.176529	0.707523	0.000042
 254	2.5174e+01	2.5134	-7.276564	0.000393	3.930851	0.665904	0.000039
 255	2.5273e+01	2.5231	-7.237459	0.000393	3.930851	0.665904	0.000039
 256	2.5372e+01	2.5322	-7.199576	0.000381	3.808012	0.645095	0.000038
 257	2.5472e+01	2.5452	-7.160878	0.000389	3.889904	0.658968	0.000039
 258	2.5572e+01	2.5518	-7.120959	0.000401	4.012743	0.679777	0.000040
 259	2.5671e+01	2.5655	-7.083076	0.000381	3.808012	0.645095	0.000038
 260	2.5770e+01	2.5732	-7.036639	0.000467	4.667885	0.790761	0.000047
 261	2.5870e+01	2.5845	-6.998756	0.000381	3.808012	0.645095	0.000038
 262	2.5970e+01	2.5904	-6.956392	0.000426	4.258422	0.721396	0.000043
 263	2.6069e+01	2.6036	-6.917288	0.000393	3.930851	0.665904	0.000039
 264	2.6169e+01	2.6146	-6.873702	0.000438	4.381261	0.742206	0.000044
 265	2.6268e+01	2.6236	-6.838670	0.000352	3.521387	0.596539	0.000035
 266	2.6367e+01	2.6311	-6.792641	0.000463	4.626939	0.783825	0.000046
 267	2.6467e+01	2.6409	-6.750277	0.000426	4.258422	0.721396	0.000043
 268	2.6567e+01	2.6521	-6.706691	0.000438	4.381261	0.742206	0.000044
 269	2.6666e+01	2.6628	-6.667179	0.000397	3.971797	0.672841	0.000040
 270	2.6765e+01	2.6728	-6.624816	0.000426	4.258422	0.721396	0.000043
 271	2.6865e+01	2.6803	-6.583267	0.000418	4.176529	0.707523	0.000042
 272	2.6965e+01	2.6921	-6.542940	0.000405	4.053690	0.686714	0.000041
 273	2.7064e+01	2.7050	-6.499354	0.000438	4.381261	0.742206	0.000044
 274	2.7163e+01	2.7114	-6.456583	0.000430	4.299368	0.728333	0.000043
 275	2.7263e+01	2.7189	-6.415442	0.000414	4.135582	0.700587	0.000041
 276	2.7363e+01	2.7336	-6.370634	0.000450	4.504100	0.763015	0.000045
 277	2.7462e+01	2.7425	-6.329492	0.000414	4.135582	0.700587	0.000041
 278	2.7561e+01	2.7533	-6.289165	0.000405	4.053690	0.686714	0.000041
 279	2.7661e+01	2.7621	-6.243543	0.000459	4.585992	0.776888	0.000046
 280	2.7761e+01	2.7737	-6.204438	0.000393	3.930851	0.665904	0.000039
 281	2.7860e+01	2.7810	-6.160445	0.000442	4.422207	0.749142	0.000044
 282	2.7959e+01	2.7925	-6.117267	0.000434	4.340314	0.735269	0.000043
 283	2.8059e+01	2.8013	-6.076940	0.000405	4.053690	0.686714	0.000041
 284	2.8159e+01	2.8114	-6.032947	0.000442	4.422207	0.749142	0.000044
 285	2.8258e+01	2.8230	-5.996693	0.000364	3.644226	0.617349	0.000036
 286	2.8358e+01	2.8304	-5.948220	0.000487	4.872617	0.825444	0.000049
 287	2.8457e+01	2.8420	-5.904634	0.000438	4.381261	0.742206	0.000044
 288	2.8556e+01	2.8533	-5.866344	0.000385	3.848958	0.652031	0.000038
 289	2.8656e+01	2.8628	-5.819907	0.000467	4.667885	0.790761	0.000047
 290	2.8756e+01	2.8704	-5.783653	0.000364	3.644226	0.617349	0.000036
 291	2.8855e+01	2.8832	-5.741697	0.000422	4.217475	0.714460	0.000042
 292	2.8954e+01	2.8934	-5.695667	0.000463	4.626939	0.783825	0.000046
 293	2.9054e+01	2.9029	-5.652896	0.000430	4.299368	0.728333	0.000043
 294	2.9154e+01	2.9092	-5.610533	0.000426	4.258422	0.721396	0.000043
 295	2.9253e+01	2.9231	-5.569798	0.000409	4.094636	0.693650	0.000041
 296	2.9352e+01	2.9319	-5.520917	0.000491	4.913563	0.832380	0.000049
 297	2.9452e+01	2.9417	-5.481812	0.000393	3.930851	0.665904	0.000039
 298	2.9552e+01	2.9495	-5.440671	0.000414	4.135582	0.700587	0.000041
 299	2.9651e+01	2.9600	-5.395048	0.000459	4.585992	0.776888	0.000046
 300	2.9750e+01	2.9723	-5.355129	0.000401	4.012743	0.679777	0.000040
 301	2.9850e+01	2.9813	-5.313173	0.000422	4.217475	0.714460	0.000042
 302	2.9950e+01	2.9924	-5.271216	0.000422	4.217475	0.714460	0.000042
 303	3.0049e+01	3.0004	-5.227631	0.000438	4.381261	0.742206	0.000044
 304	3.0148e+01	3.0105	-5.184860	0.000430	4.299368	0.728333	0.000043
 305	3.0248e+01	3.0213	-5.143718	0.000414	4.135582	0.700587	0.000041
 306	3.0348e+01	3.0296	-5.102169	0.000418	4.176529	0.707523	0.000042
 307	3.0447e+01	3.0434	-5.060213	0.000422	4.217475	0.714460	0.000042
 308	3.0547e+01	3.0543	-5.014998	0.000455	4.545046	0.769952	0.000045
 309	3.0646e+01	3.0617	-4.972634	0.000426	4.258422	0.721396	0.000043
 310	3.0745e+01	3.0686	-4.924568	0.000483	4.831671	0.818507	0.000048
 311	3.0845e+01	3.0811	-4.884241	0.000405	4.053690	0.686714	0.000041
 312	3.0945e+01	3.0863	-4.841063	0.000434	4.340314	0.735269	0.000043
 313	3.1044e+01	3.1001	-4.794626	0.000467	4.667885	0.790761	0.000047
 314	3.1143e+01	3.1120	-4.750225	0.000446	4.463153	0.756079	0.000045
 315	3.1243e+01	3.1199	-4.709898	0.000405	4.053690	0.686714	0.000041
 316	3.1343e+01	3.1328	-4.666313	0.000438	4.381261	0.742206	0.000044
 317	3.1442e+01	3.1403	-4.621912	0.000446	4.463153	0.756079	0.000045
 318	3.1541e+01	3.1474	-4.580363	0.000418	4.176529	0.707523	0.000042
 319	3.1641e+01	3.1618	-4.537185	0.000434	4.340314	0.735269	0.000043
 320	3.1741e+01	3.1727	-4.490748	0.000467	4.667885	0.790761	0.000047
 321	3.1840e+01	3.1821	-4.449199	0.000418	4.176529	0.707523	0.000042
 322	3.1939e+01	3.1886	-4.407650	0.000418	4.176529	0.707523	0.000042
 323	3.2039e+01	3.2009	-4.362028	0.000459	4.585992	0.776888	0.000046
 324	3.2139e+01	3.2104	-4.318442	0.000438	4.381261	0.742206	0.000044
 325	3.2238e+01	3.2201	-4.276893	0.000418	4.176529	0.707523	0.000042
 326	3.2337e+01	3.2279	-4.230863	0.000463	4.626939	0.783825	0.000046
 327	3.2437e+01	3.2395	-4.188092	0.000430	4.299368	0.728333	0.000043
 328	3.2536e+01	3.2482	-4.144099	0.000442	4.422207	0.749142	0.000044
 329	3.2636e+01	3.2604	-4.102143	0.000422	4.217475	0.714460	0.000042
 330	3.2736e+01	3.2701	-4.056521	0.000459	4.585992	0.776888	0.000046
 331	3.2835e+01	3.2795	-4.013750	0.000430	4.299368	0.728333	0.000043
 332	3.2934e+01	3.2878	-3.970979	0.000430	4.299368	0.728333	0.000043
 333	3.3034e+01	3.2986	-3.929837	0.000414	4.135582	0.700587	0.000041
 334	3.3133e+01	3.3106	-3.888288	0.000418	4.176529	0.707523	0.000042
 335	3.3233e+01	3.3190	-3.847147	0.000414	4.135582	0.700587	0.000041
 336	3.3333e+01	3.3277	-3.803154	0.000442	4.422207	0.749142	0.000044
 337	3.3432e+01	3.3397	-3.761605	0.000418	4.176529	0.707523	0.000042
 338	3.3532e+01	3.3497	-3.718426	0.000434	4.340314	0.735269	0.000043
 339	3.3631e+01	3.3597	-3.676878	0.000418	4.176529	0.707523	0.000042
 340	3.3730e+01	3.3678	-3.636551	0.000405	4.053690	0.686714	0.000041
 341	3.3830e+01	3.3801	-3.588484	0.000483	4.831671	0.818507	0.000048
 342	3.3929e+01	3.3878	-3.551823	0.000369	3.685173	0.624285	0.000037
 343	3.4029e+01	3.4018	-3.505386	0.000467	4.667885	0.790761	0.000047
 344	3.4129e+01	3.4087	-3.466281	0.000393	3.930851	0.665904	0.000039
 345	3.4228e+01	3.4185	-3.424325	0.000422	4.217475	0.714460	0.000042
 346	3.4328e+01	3.4299	-3.386850	0.000377	3.767065	0.638158	0.000038
 347	3.4427e+01	3.4403	-3.344079	0.000430	4.299368	0.728333	0.000043
 348	3.4526e+01	3.4497	-3.310269	0.000340	3.398548	0.575730	0.000034
 349	3.4626e+01	3.4583	-3.267091	0.000434	4.340314	0.735269	0.000043
 350	3.4725e+01	3.4673	-3.223505	0.000438	4.381261	0.742206	0.000044
 351	3.4825e+01	3.4806	-3.183178	0.000405	4.053690	0.686714	0.000041
 352	3.4925e+01	3.4888	-3.145296	0.000381	3.808012	0.645095	0.000038
 353	3.5024e+01	3.4988	-3.106191	0.000393	3.930851	0.665904	0.000039
 354	3.5123e+01	3.5102	-3.068715	0.000377	3.767065	0.638158	0.000038
 355	3.5223e+01	3.5226	-3.030425	0.000385	3.848958	0.652031	0.000038
 356	3.5322e+01	3.5293	-2.989691	0.000409	4.094636	0.693650	0.000041
 357	3.5422e+01	3.5404	-2.952622	0.000373	3.726119	0.631222	0.000037
 358	3.5522e+01	3.5500	-2.911481	0.000414	4.135582	0.700587	0.000041
 359	3.5621e+01	3.5583	-2.870747	0.000409	4.094636	0.693650	0.000041
 360	3.5721e+01	3.5674	-2.835715	0.000352	3.521387	0.596539	0.000035
 361	3.5820e+01	3.5767	-2.801091	0.000348	3.480441	0.589603	0.000035
 362	3.5919e+01	3.5866	-2.759542	0.000418	4.176529	0.707523	0.000042
 363	3.6019e+01	3.5992	-2.720845	0.000389	3.889904	0.658968	0.000039
 364	3.6118e+01	3.6094	-2.681740	0.000393	3.930851	0.665904	0.000039
 365	3.6218e+01	3.6192	-2.645486	0.000364	3.644226	0.617349	0.000036
 366	3.6318e+01	3.6291	-2.605567	0.000401	4.012743	0.679777	0.000040
 367	3.6417e+01	3.6376	-2.568498	0.000373	3.726119	0.631222	0.000037
 368	3.6517e+01	3.6478	-2.529394	0.000393	3.930851	0.665904	0.000039
 369	3.6616e+01	3.6603	-2.489881	0.000397	3.971797	0.672841	0.000040
 370	3.6715e+01	3.6693	-2.454850	0.000352	3.521387	0.596539	0.000035
 371	3.6815e+01	3.6784	-2.414116	0.000409	4.094636	0.693650	0.000041
 372	3.6914e+01	3.6878	-2.379899	0.000344	3.439494	0.582666	0.000034
 373	3.7014e+01	3.6973	-2.338757	0.000414	4.135582	0.700587	0.000041
 374	3.7114e+01	3.7098	-2.302096	0.000369	3.685173	0.624285	0.000037
 375	3.7213e+01	3.7186	-2.265436	0.000369	3.685173	0.624285	0.000037
 376	3.7313e+01	3.7269	-2.230404	0.000352	3.521387	0.596539	0.000035
 377	3.7412e+01	3.7370	-2.190485	0.000401	4.012743	0.679777	0.000040
 378	3.7511e+01	3.7472	-2.154638	0.000360	3.603280	0.610412	0.000036
 379	3.7611e+01	3.7582	-2.113497	0.000414	4.135582	0.700587	0.000041
 380	3.7711e+01	3.7682	-2.079280	0.000344	3.439494	0.582666	0.000034
 381	3.7810e+01	3.7764	-2.039360	0.000401	4.012743	0.679777	0.000040
 382	3.7910e+01	3.7884	-2.005144	0.000344	3.439494	0.582666	0.000034
 383	3.8009e+01	3.7960	-1.966854	0.000385	3.848958	0.652031	0.000038
 384	3.8108e+01	3.8063	-1.930193	0.000369	3.685173	0.624285	0.000037
 385	3.8208e+01	3.8158	-1.895976	0.000344	3.439494	0.582666	0.000034
 386	3.8307e+01	3.8273	-1.854427	0.000418	4.176529	0.707523	0.000042
 387	3.8407e+01	3.8375	-1.819396	0.000352	3.521387	0.596539	0.000035
 388	3.8507e+01	3.8461	-1.782735	0.000369	3.685173	0.624285	0.000037
 389	3.8606e+01	3.8567	-1.743630	0.000393	3.930851	0.665904	0.000039
 390	3.8706e+01	3.8673	-1.709413	0.000344	3.439494	0.582666	0.000034
 391	3.8805e+01	3.8755	-1.672752	0.000369	3.685173	0.624285	0.000037
 392	3.8904e+01	3.8857	-1.636906	0.000360	3.603280	0.610412	0.000036
 393	3.9004e+01	3.8982	-1.603504	0.000336	3.357602	0.568793	0.000034
 394	3.9103e+01	3.9074	-1.570917	0.000328	3.275709	0.554920	0.000033
 395	3.9203e+01	3.9157	-1.535478	0.000356	3.562333	0.603476	0.000036
 396	3.9303e+01	3.9269	-1.500039	0.000356	3.562333	0.603476	0.000036
 397	3.9402e+01	3.9356	-1.463378	0.000369	3.685173	0.624285	0.000037
 398	3.9502e+01	3.9465	-1.432013	0.000315	3.152870	0.534111	0.000032
 399	3.9601e+01	3.9554	-1.391278	0.000409	4.094636	0.693650	0.000041
 400	3.9700e+01	3.9677	-1.355432	0.000360	3.603280	0.610412	0.000036
 401	3.9800e+01	3.9738	-1.319179	0.000364	3.644226	0.617349	0.000036
 402	3.9900e+01	3.9888	-1.286999	0.000323	3.234763	0.547984	0.000032
 403	3.9999e+01	3.9953	-1.249116	0.000381	3.808012	0.645095	0.000038
 404	4.0099e+01	4.0056	-1.217751	0.000315	3.152870	0.534111	0.000032
 405	4.0198e+01	4.0161	-1.182719	0.000352	3.521387	0.596539	0.000035
 406	4.0297e+01	4.0257	-1.148502	0.000344	3.439494	0.582666	0.000034
 407	4.0397e+01	4.0353	-1.111841	0.000369	3.685173	0.624285	0.000037
 408	4.0496e+01	4.0465	-1.080883	0.000311	3.111923	0.527174	0.000031
 409	4.0596e+01	4.0582	-1.044223	0.000369	3.685173	0.624285	0.000037
 410	4.0696e+01	4.0656	-1.011635	0.000328	3.275709	0.554920	0.000033
 411	4.0795e+01	4.0746	-0.977011	0.000348	3.480441	0.589603	0.000035
 412	4.0895e+01	4.0861	-0.939536	0.000377	3.767065	0.638158	0.000038
 413	4.0994e+01	4.0961	-0.906948	0.000328	3.275709	0.554920	0.000033
 414	4.1093e+01	4.1068	-0.871102	0.000360	3.603280	0.610412	0.000036
 415	4.1193e+01	4.1150	-0.838107	0.000332	3.316655	0.561857	0.000033
 416	4.1292e+01	4.1269	-0.801854	0.000364	3.644226	0.617349	0.000036
 417	4.1392e+01	4.1351	-0.769266	0.000328	3.275709	0.554920	0.000033
 418	4.1492e+01	4.1480	-0.731791	0.000377	3.767065	0.638158	0.000038
 419	4.1591e+01	4.1544	-0.689427	0.000426	4.258422	0.721396	0.000043
 420	4.1691e+01	4.1659	-0.662543	0.000270	2.702460	0.457809	0.000027
 421	4.1790e+01	4.1744	-0.625882	0.000369	3.685173	0.624285	0.000037
 422	4.1889e+01	4.1850	-0.592480	0.000336	3.357602	0.568793	0.000034
 423	4.1989e+01	4.1928	-0.555412	0.000373	3.726119	0.631222	0.000037
 424	4.2089e+01	4.2065	-0.522417	0.000332	3.316655	0.561857	0.000033
 425	4.2188e+01	4.2139	-0.487793	0.000348	3.480441	0.589603	0.000035
 426	4.2288e+01	4.2245	-0.450725	0.000373	3.726119	0.631222	0.000037
 427	4.2387e+01	4.2355	-0.416100	0.000348	3.480441	0.589603	0.000035
 428	4.2486e+01	4.2461	-0.377403	0.000389	3.889904	0.658968	0.000039
 429	4.2586e+01	4.2551	-0.339113	0.000385	3.848958	0.652031	0.000038
 430	4.2685e+01	4.2644	-0.306933	0.000323	3.234763	0.547984	0.000032
 431	4.2785e+01	4.2749	-0.267828	0.000393	3.930851	0.665904	0.000039
 432	4.2885e+01	4.2834	-0.229130	0.000389	3.889904	0.658968	0.000039
 433	4.2984e+01	4.2959	-0.192062	0.000373	3.726119	0.631222	0.000037
 434	4.3084e+01	4.3040	-0.158253	0.000340	3.398548	0.575730	0.000034
 435	4.3183e+01	4.3143	-0.120370	0.000381	3.808012	0.645095	0.000038
 436	4.3282e+01	4.3240	-0.079635	0.000409	4.094636	0.693650	0.000041
 437	4.3382e+01	4.3328	-0.044197	0.000356	3.562333	0.603476	0.000036
 438	4.3481e+01	4.3449	-0.009980	0.000344	3.439494	0.582666	0.000034
 439	4.3581e+01	4.3530	0.024644	0.000348	3.480441	0.589603	0.000035
 440	4.3681e+01	4.3642	0.065378	0.000409	4.094636	0.693650	0.000041
 441	4.3780e+01	4.3740	0.105705	0.000405	4.053690	0.686714	0.000041
 442	4.3880e+01	4.3840	0.138700	0.000332	3.316655	0.561857	0.000033
 443	4.3979e+01	4.3948	0.176583	0.000381	3.808012	0.645095	0.000038
 444	4.4078e+01	4.4048	0.214466	0.000381	3.808012	0.645095	0.000038
 445	4.4178e+01	4.4160	0.250312	0.000360	3.603280	0.610412	0.000036
 446	4.4278e+01	4.4228	0.290639	0.000405	4.053690	0.686714	0.000041
 447	4.4377e+01	4.4329	0.326485	0.000360	3.603280	0.610412	0.000036
 448	4.4477e+01	4.4439	0.366405	0.000401	4.012743	0.679777	0.000040
 449	4.4576e+01	4.4539	0.403065	0.000369	3.685173	0.624285	0.000037
 450	4.4675e+01	4.4653	0.442578	0.000397	3.971797	0.672841	0.000040
 451	4.4775e+01	4.4756	0.478831	0.000364	3.644226	0.617349	0.000036
 452	4.4874e+01	4.4836	0.513455	0.000348	3.480441	0.589603	0.000035
 453	4.4974e+01	4.4923	0.555819	0.000426	4.258422	0.721396	0.000043
 454	4.5074e+01	4.5058	0.592480	0.000369	3.685173	0.624285	0.000037
 455	4.5173e+01	4.5139	0.634029	0.000418	4.176529	0.707523	0.000042
 456	4.5273e+01	4.5242	0.667023	0.000332	3.316655	0.561857	0.000033
 457	4.5372e+01	4.5329	0.704092	0.000373	3.726119	0.631222	0.000037
 458	4.5471e+01	4.5432	0.739938	0.000360	3.603280	0.610412	0.000036
 459	4.5571e+01	4.5531	0.781487	0.000418	4.176529	0.707523	0.000042
 460	4.5670e+01	4.5634	0.814074	0.000328	3.275709	0.554920	0.000033
 461	4.5770e+01	4.5727	0.855216	0.000414	4.135582	0.700587	0.000041
 462	4.5870e+01	4.5821	0.895135	0.000401	4.012743	0.679777	0.000040
 463	4.5969e+01	4.5939	0.933833	0.000389	3.889904	0.658968	0.000039
 464	4.6069e+01	4.6035	0.972123	0.000385	3.848958	0.652031	0.000038
 465	4.6168e+01	4.6131	1.009191	0.000373	3.726119	0.631222	0.000037
 466	4.6267e+01	4.6220	1.041779	0.000328	3.275709	0.554920	0.000033
 467	4.6367e+01	4.6341	1.085772	0.000442	4.422207	0.749142	0.000044
 468	4.6467e+01	4.6433	1.123654	0.000381	3.808012	0.645095	0.000038
 469	4.6566e+01	4.6529	1.161130	0.000377	3.767065	0.638158	0.000038
 470	4.6666e+01	4.6622	1.196976	0.000360	3.603280	0.610412	0.000036
 471	4.6765e+01	4.6709	1.234044	0.000373	3.726119	0.631222	0.000037
 472	4.6864e+01	4.6828	1.272334	0.000385	3.848958	0.652031	0.000038
 473	4.6964e+01	4.6960	1.308588	0.000364	3.644226	0.617349	0.000036
 474	4.7063e+01	4.7042	1.350137	0.000418	4.176529	0.707523	0.000042
 475	4.7163e+01	4.7137	1.387612	0.000377	3.767065	0.638158	0.000038
 476	4.7263e+01	4.7212	1.426310	0.000389	3.889904	0.658968	0.000039
 477	4.7362e+01	4.7305	1.465415	0.000393	3.930851	0.665904	0.000039
 478	4.7462e+01	4.7412	1.507778	0.000426	4.258422	0.721396	0.000043
 479	4.7561e+01	4.7515	1.546476	0.000389	3.889904	0.658968	0.000039
 480	4.7660e+01	4.7639	1.582322	0.000360	3.603280	0.610412	0.000036
 481	4.7760e+01	4.7726	1.623056	0.000409	4.094636	0.693650	0.000041
 482	4.7859e+01	4.7831	1.662161	0.000393	3.930851	0.665904	0.000039
 483	4.7959e+01	4.7919	1.699637	0.000377	3.767065	0.638158	0.000038
 484	4.8059e+01	4.8041	1.738742	0.000393	3.930851	0.665904	0.000039
 485	4.8158e+01	4.8129	1.776217	0.000377	3.767065	0.638158	0.000038
 486	4.8258e+01	4.8202	1.814507	0.000385	3.848958	0.652031	0.000038
 487	4.8357e+01	4.8307	1.852390	0.000381	3.808012	0.645095	0.000038
 488	4.8456e+01	4.8421	1.893532	0.000414	4.135582	0.700587	0.000041
 489	4.8556e+01	4.8518	1.931822	0.000385	3.848958	0.652031	0.000038
 490	4.8656e+01	4.8615	1.966854	0.000352	3.521387	0.596539	0.000035
 491	4.8755e+01	4.8713	2.010032	0.000434	4.340314	0.735269	0.000043
 492	4.8855e+01	4.8815	2.047915	0.000381	3.808012	0.645095	0.000038
 493	4.8954e+01	4.8913	2.089056	0.000414	4.135582	0.700587	0.000041
 494	4.9053e+01	4.9028	2.128569	0.000397	3.971797	0.672841	0.000040
 495	4.9153e+01	4.9100	2.169710	0.000414	4.135582	0.700587	0.000041
 496	4.9252e+01	4.9210	2.206778	0.000373	3.726119	0.631222	0.000037
 497	4.9352e+01	4.9323	2.244661	0.000381	3.808012	0.645095	0.000038
 498	4.9452e+01	4.9419	2.286617	0.000422	4.217475	0.714460	0.000042
 499	4.9551e+01	4.9514	2.322056	0.000356	3.562333	0.603476	0.000036
 500	4.9651e+01	4.9625	2.360754	0.000389	3.889904	0.658968	0.000039
 501	4.9750e+01	4.9719	2.395785	0.000352	3.521387	0.596539	0.000035
 502	4.9849e+01	4.9813	2.434483	0.000389	3.889904	0.658968	0.000039
 503	4.9949e+01	4.9912	2.471551	0.000373	3.726119	0.631222	0.000037
 504	5.0048e+01	4.9999	2.507397	0.000360	3.603280	0.610412	0.000036
 505	5.0148e+01	5.0111	2.544873	0.000377	3.767065	0.638158	0.000038
 506	5.0248e+01	5.0224	2.588458	0.000438	4.381261	0.742206	0.000044
 507	5.0347e+01	5.0289	2.623082	0.000348	3.480441	0.589603	0.000035
 508	5.0447e+01	5.0404	2.662595	0.000397	3.971797	0.672841	0.000040
 509	5.0546e+01	5.0492	2.700070	0.000377	3.767065	0.638158	0.000038
 510	5.0645e+01	5.0620	2.739582	0.000397	3.971797	0.672841	0.000040
 511	5.0745e+01	5.0710	2.772170	0.000328	3.275709	0.554920	0.000033
 512	5.0844e+01	5.0799	2.806387	0.000344	3.439494	0.582666	0.000034
 513	5.0944e+01	5.0872	2.847935	0.000418	4.176529	0.707523	0.000042
 514	5.1044e+01	5.1006	2.881745	0.000340	3.398548	0.575730	0.000034
 515	5.1143e+01	5.1125	2.912703	0.000311	3.111923	0.527174	0.000031
 516	5.1242e+01	5.1192	2.949364	0.000369	3.685173	0.624285	0.000037
 517	5.1342e+01	5.1307	2.986432	0.000373	3.726119	0.631222	0.000037
 518	5.1441e+01	5.1383	3.019834	0.000336	3.357602	0.568793	0.000034
 519	5.1541e+01	5.1477	3.057717	0.000381	3.808012	0.645095	0.000038
 520	5.1641e+01	5.1569	3.091526	0.000340	3.398548	0.575730	0.000034
 521	5.1740e+01	5.1713	3.125743	0.000344	3.439494	0.582666	0.000034
 522	5.1840e+01	5.1809	3.161589	0.000360	3.603280	0.610412	0.000036
 523	5.1939e+01	5.1911	3.195399	0.000340	3.398548	0.575730	0.000034
 524	5.2038e+01	5.2013	3.232059	0.000369	3.685173	0.624285	0.000037
 525	5.2138e+01	5.2102	3.264240	0.000323	3.234763	0.547984	0.000032
 526	5.2237e+01	5.2197	3.301715	0.000377	3.767065	0.638158	0.000038
 527	5.2337e+01	5.2297	3.336747	0.000352	3.521387	0.596539	0.000035
 528	5.2437e+01	5.2425	3.368112	0.000315	3.152870	0.534111	0.000032
 529	5.2536e+01	5.2478	3.402329	0.000344	3.439494	0.582666	0.000034
 530	5.2636e+01	5.2595	3.436545	0.000344	3.439494	0.582666	0.000034
 531	5.2735e+01	5.2708	3.469948	0.000336	3.357602	0.568793	0.000034
 532	5.2834e+01	5.2805	3.500498	0.000307	3.070977	0.520238	0.000031
 533	5.2934e+01	5.2903	3.535530	0.000352	3.521387	0.596539	0.000035
 534	5.3033e+01	5.3005	3.570968	0.000356	3.562333	0.603476	0.000036
 535	5.3133e+01	5.3097	3.602741	0.000319	3.193816	0.541047	0.000032
 536	5.3233e+01	5.3205	3.641031	0.000385	3.848958	0.652031	0.000038
 537	5.3332e+01	5.3286	3.671582	0.000307	3.070977	0.520238	0.000031
 538	5.3431e+01	5.3361	3.702540	0.000311	3.111923	0.527174	0.000031
 539	5.3531e+01	5.3496	3.736757	0.000344	3.439494	0.582666	0.000034
 540	5.3630e+01	5.3584	3.772603	0.000360	3.603280	0.610412	0.000036
 541	5.3730e+01	5.3718	3.803561	0.000311	3.111923	0.527174	0.000031
 542	5.3830e+01	5.3780	3.841444	0.000381	3.808012	0.645095	0.000038
 543	5.3929e+01	5.3902	3.871587	0.000303	3.030031	0.513301	0.000030
 544	5.4029e+01	5.4005	3.906619	0.000352	3.521387	0.596539	0.000035
 545	5.4128e+01	5.4092	3.937577	0.000311	3.111923	0.527174	0.000031
 546	5.4227e+01	5.4176	3.973423	0.000360	3.603280	0.610412	0.000036
 547	5.4327e+01	5.4287	4.002752	0.000295	2.948138	0.499428	0.000029
 548	5.4426e+01	5.4430	4.037783	0.000352	3.521387	0.596539	0.000035
 549	5.4526e+01	5.4498	4.065075	0.000274	2.743406	0.464746	0.000027
 550	5.4626e+01	5.4594	4.102143	0.000373	3.726119	0.631222	0.000037
 551	5.4725e+01	5.4704	4.133509	0.000315	3.152870	0.534111	0.000032
 552	5.4825e+01	5.4781	4.168947	0.000356	3.562333	0.603476	0.000036
 553	5.4924e+01	5.4887	4.200720	0.000319	3.193816	0.541047	0.000032
 554	5.5023e+01	5.4941	4.233307	0.000328	3.275709	0.554920	0.000033
 555	5.5123e+01	5.5120	4.267524	0.000344	3.439494	0.582666	0.000034
 556	5.5222e+01	5.5196	4.297260	0.000299	2.989084	0.506365	0.000030
 557	5.5322e+01	5.5257	4.330662	0.000336	3.357602	0.568793	0.000034
 558	5.5422e+01	5.5355	4.364064	0.000336	3.357602	0.568793	0.000034
 559	5.5521e+01	5.5453	4.395837	0.000319	3.193816	0.541047	0.000032
 560	5.5620e+01	5.5566	4.426388	0.000307	3.070977	0.520238	0.000031
 561	5.5720e+01	5.5695	4.458975	0.000328	3.275709	0.554920	0.000033
 562	5.5819e+01	5.5788	4.491155	0.000323	3.234763	0.547984	0.000032
 563	5.5919e+01	5.5891	4.516818	0.000258	2.579621	0.437000	0.000026
 564	5.6019e+01	5.5980	4.549405	0.000328	3.275709	0.554920	0.000033
 565	5.6118e+01	5.6081	4.580771	0.000315	3.152870	0.534111	0.000032
 566	5.6218e+01	5.6179	4.610099	0.000295	2.948138	0.499428	0.000029
 567	5.6317e+01	5.6283	4.644316	0.000344	3.439494	0.582666	0.000034
 568	5.6416e+01	5.6402	4.675274	0.000311	3.111923	0.527174	0.000031
 569	5.6516e+01	5.6489	4.704603	0.000295	2.948138	0.499428	0.000029
 570	5.6615e+01	5.6580	4.738005	0.000336	3.357602	0.568793	0.000034
 571	5.6715e+01	5.6678	4.764482	0.000266	2.661513	0.450873	0.000027
 572	5.6815e+01	5.6792	4.795848	0.000315	3.152870	0.534111	0.000032
 573	5.6914e+01	5.6863	4.824769	0.000291	2.907192	0.492492	0.000029
 574	5.7014e+01	5.6954	4.857764	0.000332	3.316655	0.561857	0.000033
 575	5.7113e+01	5.7070	4.887907	0.000303	3.030031	0.513301	0.000030
 576	5.7212e+01	5.7183	4.920494	0.000328	3.275709	0.554920	0.000033
 577	5.7312e+01	5.7264	4.947379	0.000270	2.702460	0.457809	0.000027
 578	5.7411e+01	5.7373	4.976300	0.000291	2.907192	0.492492	0.000029
 579	5.7511e+01	5.7493	5.008073	0.000319	3.193816	0.541047	0.000032
 580	5.7611e+01	5.7565	5.040253	0.000323	3.234763	0.547984	0.000032
 581	5.7710e+01	5.7675	5.067545	0.000274	2.743406	0.464746	0.000027
 582	5.7809e+01	5.7764	5.097688	0.000303	3.030031	0.513301	0.000030
 583	5.7909e+01	5.7882	5.127832	0.000303	3.030031	0.513301	0.000030
 584	5.8008e+01	5.7981	5.161641	0.000340	3.398548	0.575730	0.000034
 585	5.8108e+01	5.8068	5.190970	0.000295	2.948138	0.499428	0.000029
 586	5.8208e+01	5.8224	5.223965	0.000332	3.316655	0.561857	0.000033
 587	5.8307e+01	5.8276	5.253701	0.000299	2.989084	0.506365	0.000030
 588	5.8407e+01	5.8363	5.287510	0.000340	3.398548	0.575730	0.000034
 589	5.8506e+01	5.8472	5.317653	0.000303	3.030031	0.513301	0.000030
 590	5.8605e+01	5.8569	5.346167	0.000287	2.866245	0.485555	0.000029
 591	5.8705e+01	5.8668	5.379977	0.000340	3.398548	0.575730	0.000034
 592	5.8804e+01	5.8762	5.405639	0.000258	2.579621	0.437000	0.000026
 593	5.8904e+01	5.8842	5.438227	0.000328	3.275709	0.554920	0.000033
 594	5.9004e+01	5.8978	5.468370	0.000303	3.030031	0.513301	0.000030
 595	5.9103e+01	5.9092	5.499735	0.000315	3.152870	0.534111	0.000032
 596	5.9203e+01	5.9171	5.538026	0.000385	3.848958	0.652031	0.000038
 597	5.9302e+01	5.9287	5.567762	0.000299	2.989084	0.506365	0.000030
 598	5.9401e+01	5.9364	5.598720	0.000311	3.111923	0.527174	0.000031
 599	5.9501e+01	5.9471	5.634566	0.000360	3.603280	0.610412	0.000036
 600	5.9600e+01	5.9536	5.668783	0.000344	3.439494	0.582666	0.000034
 601	5.9700e+01	5.9664	5.698926	0.000303	3.030031	0.513301	0.000030
 602	5.9800e+01	5.9742	5.733550	0.000348	3.480441	0.589603	0.000035
 603	5.9899e+01	5.9846	5.767767	0.000344	3.439494	0.582666	0.000034
 604	5.9998e+01	5.9966	5.802391	0.000348	3.480441	0.589603	0.000035
 605	6.0098e+01	6.0033	5.832127	0.000299	2.989084	0.506365	0.000030
 606	6.0197e+01	6.0146	5.863900	0.000319	3.193816	0.541047	0.000032
 607	6.0297e+01	6.0278	5.897709	0.000340	3.398548	0.575730	0.000034
 608	6.0397e+01	6.0357	5.928667	0.000311	3.111923	0.527174	0.000031
 609	6.0496e+01	6.0441	5.962477	0.000340	3.398548	0.575730	0.000034
 610	6.0596e+01	6.0564	5.994657	0.000323	3.234763	0.547984	0.000032
 611	6.0695e+01	6.0690	6.029688	0.000352	3.521387	0.596539	0.000035
 612	6.0794e+01	6.0734	6.064720	0.000352	3.521387	0.596539	0.000035
 613	6.0894e+01	6.0850	6.097714	0.000332	3.316655	0.561857	0.000033
 614	6.0993e+01	6.0963	6.133560	0.000360	3.603280	0.610412	0.000036
 615	6.1093e+01	6.1047	6.167370	0.000340	3.398548	0.575730	0.000034
 616	6.1193e+01	6.1169	6.200772	0.000336	3.357602	0.568793	0.000034
 617	6.1292e+01	6.1242	6.236211	0.000356	3.562333	0.603476	0.000036
 618	6.1392e+01	6.1335	6.268798	0.000328	3.275709	0.554920	0.000033
 619	6.1491e+01	6.1451	6.303015	0.000344	3.439494	0.582666	0.000034
 620	6.1590e+01	6.1553	6.335602	0.000328	3.275709	0.554920	0.000033
 621	6.1690e+01	6.1656	6.367782	0.000323	3.234763	0.547984	0.000032
 622	6.1789e+01	6.1747	6.404851	0.000373	3.726119	0.631222	0.000037
 623	6.1889e+01	6.1846	6.438253	0.000336	3.357602	0.568793	0.000034
 624	6.1989e+01	6.1961	6.469211	0.000311	3.111923	0.527174	0.000031
 625	6.2088e+01	6.2057	6.501798	0.000328	3.275709	0.554920	0.000033
 626	6.2188e+01	6.2130	6.535608	0.000340	3.398548	0.575730	0.000034
 627	6.2287e+01	6.2252	6.571454	0.000360	3.603280	0.610412	0.000036
 628	6.2386e+01	6.2348	6.604448	0.000332	3.316655	0.561857	0.000033
 629	6.2486e+01	6.2457	6.639073	0.000348	3.480441	0.589603	0.000035
 630	6.2586e+01	6.2554	6.671660	0.000328	3.275709	0.554920	0.000033
 631	6.2685e+01	6.2669	6.708728	0.000373	3.726119	0.631222	0.000037
 632	6.2785e+01	6.2762	6.742945	0.000344	3.439494	0.582666	0.000034
 633	6.2884e+01	6.2847	6.777569	0.000348	3.480441	0.589603	0.000035
 634	6.2983e+01	6.2952	6.810156	0.000328	3.275709	0.554920	0.000033
 635	6.3083e+01	6.3055	6.841929	0.000319	3.193816	0.541047	0.000032
 636	6.3182e+01	6.3149	6.876553	0.000348	3.480441	0.589603	0.000035
 637	6.3282e+01	6.3256	6.909548	0.000332	3.316655	0.561857	0.000033
 638	6.3382e+01	6.3330	6.943765	0.000344	3.439494	0.582666	0.000034
 639	6.3481e+01	6.3442	6.978796	0.000352	3.521387	0.596539	0.000035
 640	6.3581e+01	6.3543	7.006903	0.000283	2.825299	0.478619	0.000028
 641	6.3680e+01	6.3657	7.041934	0.000352	3.521387	0.596539	0.000035
 642	6.3779e+01	6.3744	7.079410	0.000377	3.767065	0.638158	0.000038
 643	6.3879e+01	6.3854	7.111183	0.000319	3.193816	0.541047	0.000032
 644	6.3978e+01	6.3934	7.151917	0.000409	4.094636	0.693650	0.000041
 645	6.4078e+01	6.4014	7.183690	0.000319	3.193816	0.541047	0.000032
 646	6.4177e+01	6.4124	7.219943	0.000364	3.644226	0.617349	0.000036
 647	6.4277e+01	6.4223	7.255382	0.000356	3.562333	0.603476	0.000036
 648	6.4376e+01	6.4352	7.287562	0.000323	3.234763	0.547984	0.000032
 649	6.4476e+01	6.4413	7.327481	0.000401	4.012743	0.679777	0.000040
 650	6.4576e+01	6.4530	7.362513	0.000352	3.521387	0.596539	0.000035
 651	6.4675e+01	6.4640	7.395100	0.000328	3.275709	0.554920	0.000033
 652	6.4775e+01	6.4773	7.428502	0.000336	3.357602	0.568793	0.000034
 653	6.4874e+01	6.4840	7.462312	0.000340	3.398548	0.575730	0.000034
 654	6.4974e+01	6.4910	7.501417	0.000393	3.930851	0.665904	0.000039
 655	6.5073e+01	6.5055	7.534819	0.000336	3.357602	0.568793	0.000034
 656	6.5172e+01	6.5121	7.571480	0.000369	3.685173	0.624285	0.000037
 657	6.5272e+01	6.5215	7.602845	0.000315	3.152870	0.534111	0.000032
 658	6.5371e+01	6.5337	7.641950	0.000393	3.930851	0.665904	0.000039
 659	6.5471e+01	6.5443	7.676167	0.000344	3.439494	0.582666	0.000034
 660	6.5570e+01	6.5520	7.713235	0.000373	3.726119	0.631222	0.000037
 661	6.5670e+01	6.5636	7.745008	0.000319	3.193816	0.541047	0.000032
 662	6.5769e+01	6.5708	7.782890	0.000381	3.808012	0.645095	0.000038
 663	6.5869e+01	6.5823	7.818737	0.000360	3.603280	0.610412	0.000036
 664	6.5969e+01	6.5936	7.852546	0.000340	3.398548	0.575730	0.000034
 665	6.6068e+01	6.6025	7.887985	0.000356	3.562333	0.603476	0.000036
 666	6.6168e+01	6.6135	7.919350	0.000315	3.152870	0.534111	0.000032
 667	6.6267e+01	6.6241	7.951938	0.000328	3.275709	0.554920	0.000033
 668	6.6367e+01	6.6329	7.987784	0.000360	3.603280	0.610412	0.000036
 669	6.6466e+01	6.6393	8.024445	0.000369	3.685173	0.624285	0.000037
 670	6.6566e+01	6.6540	8.058254	0.000340	3.398548	0.575730	0.000034
 671	6.6665e+01	6.6637	8.092471	0.000344	3.439494	0.582666	0.000034
 672	6.6764e+01	6.6711	8.129539	0.000373	3.726119	0.631222	0.000037
 673	6.6864e+01	6.6808	8.160090	0.000307	3.070977	0.520238	0.000031
 674	6.6963e+01	6.6936	8.193899	0.000340	3.398548	0.575730	0.000034
 675	6.7063e+01	6.7031	8.224857	0.000311	3.111923	0.527174	0.000031
 676	6.7162e+01	6.7129	8.262740	0.000381	3.808012	0.645095	0.000038
 677	6.7262e+01	6.7233	8.297364	0.000348	3.480441	0.589603	0.000035
 678	6.7362e+01	6.7329	8.330359	0.000332	3.316655	0.561857	0.000033
 679	6.7461e+01	6.7410	8.362946	0.000328	3.275709	0.554920	0.000033
 680	6.7561e+01	6.7499	8.398385	0.000356	3.562333	0.603476	0.000036
 681	6.7660e+01	6.7619	8.428528	0.000303	3.030031	0.513301	0.000030
 682	6.7760e+01	6.7730	8.462745	0.000344	3.439494	0.582666	0.000034
 683	6.7859e+01	6.7815	8.493703	0.000311	3.111923	0.527174	0.000031
 684	6.7959e+01	6.7916	8.524254	0.000307	3.070977	0.520238	0.000031
 685	6.8058e+01	6.8018	8.556841	0.000328	3.275709	0.554920	0.000033
 686	6.8157e+01	6.8121	8.587392	0.000307	3.070977	0.520238	0.000031
 687	6.8257e+01	6.8195	8.617128	0.000299	2.989084	0.506365	0.000030
 688	6.8356e+01	6.8327	8.649308	0.000323	3.234763	0.547984	0.000032
 689	6.8456e+01	6.8456	8.678229	0.000291	2.907192	0.492492	0.000029
 690	6.8555e+01	6.8537	8.712039	0.000340	3.398548	0.575730	0.000034
 691	6.8655e+01	6.8642	8.741367	0.000295	2.948138	0.499428	0.000029
 692	6.8754e+01	6.8688	8.775584	0.000344	3.439494	0.582666	0.000034
 693	6.8854e+01	6.8811	8.803284	0.000278	2.784353	0.471682	0.000028
 694	6.8954e+01	6.8909	8.833427	0.000303	3.030031	0.513301	0.000030
 695	6.9053e+01	6.9026	8.865607	0.000323	3.234763	0.547984	0.000032
 696	6.9153e+01	6.9090	8.898194	0.000328	3.275709	0.554920	0.000033
 697	6.9252e+01	6.9193	8.927116	0.000291	2.907192	0.492492	0.000029
 698	6.9352e+01	6.9334	8.952778	0.000258	2.579621	0.437000	0.000026
 699	6.9451e+01	6.9396	8.984958	0.000323	3.234763	0.547984	0.000032
 700	6.9550e+01	6.9474	9.017138	0.000323	3.234763	0.547984	0.000032
 701	6.9650e+01	6.9626	9.045652	0.000287	2.866245	0.485555	0.000029
 702	6.9749e+01	6.9722	9.076610	0.000311	3.111923	0.527174	0.000031
 703	6.9849e+01	6.9807	9.108383	0.000319	3.193816	0.541047	0.000032
 704	6.9948e+01	6.9933	9.137712	0.000295	2.948138	0.499428	0.000029
 705	7.0048e+01	7.0005	9.163782	0.000262	2.620567	0.443936	0.000026
 706	7.0147e+01	7.0094	9.198406	0.000348	3.480441	0.589603	0.000035
 707	7.0247e+01	7.0226	9.228549	0.000303	3.030031	0.513301	0.000030
 708	7.0347e+01	7.0303	9.250953	0.000225	2.252050	0.381508	0.000023
 709	7.0446e+01	7.0410	9.288836	0.000381	3.808012	0.645095	0.000038
 710	7.0546e+01	7.0496	9.316535	0.000278	2.784353	0.471682	0.000028
 711	7.0645e+01	7.0602	9.346271	0.000299	2.989084	0.506365	0.000030
 712	7.0745e+01	7.0710	9.374785	0.000287	2.866245	0.485555	0.000029
 713	7.0844e+01	7.0797	9.407373	0.000328	3.275709	0.554920	0.000033
 714	7.0944e+01	7.0921	9.436294	0.000291	2.907192	0.492492	0.000029
 715	7.1043e+01	7.1025	9.469289	0.000332	3.316655	0.561857	0.000033
 716	7.1142e+01	7.1107	9.494544	0.000254	2.538674	0.430063	0.000025
 717	7.1242e+01	7.1206	9.525909	0.000315	3.152870	0.534111	0.000032
 718	7.1341e+01	7.1310	9.549942	0.000242	2.415835	0.409254	0.000024
 719	7.1441e+01	7.1392	9.580493	0.000307	3.070977	0.520238	0.000031
 720	7.1540e+01	7.1502	9.611859	0.000315	3.152870	0.534111	0.000032
 721	7.1640e+01	7.1597	9.638743	0.000270	2.702460	0.457809	0.000027
 722	7.1740e+01	7.1688	9.670516	0.000319	3.193816	0.541047	0.000032
 723	7.1839e+01	7.1807	9.696586	0.000262	2.620567	0.443936	0.000026
 724	7.1939e+01	7.1900	9.726729	0.000303	3.030031	0.513301	0.000030
 725	7.2038e+01	7.1999	9.758502	0.000319	3.193816	0.541047	0.000032
 726	7.2138e+01	7.2091	9.787016	0.000287	2.866245	0.485555	0.000029
 727	7.2237e+01	7.2187	9.816752	0.000299	2.989084	0.506365	0.000030
 728	7.2337e+01	7.2299	9.843229	0.000266	2.661513	0.450873	0.000027
 729	7.2436e+01	7.2387	9.871336	0.000283	2.825299	0.478619	0.000028
 730	7.2535e+01	7.2476	9.892518	0.000213	2.129211	0.360698	0.000021
 731	7.2635e+01	7.2607	9.922661	0.000303	3.030031	0.513301	0.000030
 732	7.2734e+01	7.2674	9.950768	0.000283	2.825299	0.478619	0.000028
 733	7.2834e+01	7.2807	9.976837	0.000262	2.620567	0.443936	0.000026
 734	7.2933e+01	7.2887	10.008203	0.000315	3.152870	0.534111	0.000032
 735	7.3033e+01	7.3031	10.032643	0.000246	2.456782	0.416190	0.000025
 736	7.3132e+01	7.3052	10.061157	0.000287	2.866245	0.485555	0.000029
 737	7.3232e+01	7.3194	10.091301	0.000303	3.030031	0.513301	0.000030
 738	7.3332e+01	7.3317	10.120222	0.000291	2.907192	0.492492	0.000029
 739	7.3431e+01	7.3396	10.146699	0.000266	2.661513	0.450873	0.000027
 740	7.3531e+01	7.3508	10.171547	0.000250	2.497728	0.423127	0.000025
 741	7.3630e+01	7.3590	10.197210	0.000258	2.579621	0.437000	0.000026
 742	7.3730e+01	7.3678	10.224909	0.000278	2.784353	0.471682	0.000028
 743	7.3829e+01	7.3766	10.256274	0.000315	3.152870	0.534111	0.000032
 744	7.3928e+01	7.3913	10.277049	0.000209	2.088264	0.353762	0.000021
 745	7.4028e+01	7.3985	10.305970	0.000291	2.907192	0.492492	0.000029
 746	7.4127e+01	7.4102	10.331633	0.000258	2.579621	0.437000	0.000026
 747	7.4227e+01	7.4209	10.359739	0.000283	2.825299	0.478619	0.000028
 748	7.4326e+01	7.4282	10.388661	0.000291	2.907192	0.492492	0.000029
 749	7.4426e+01	7.4387	10.415138	0.000266	2.661513	0.450873	0.000027
 750	7.4525e+01	7.4470	10.443652	0.000287	2.866245	0.485555	0.000029
 751	7.4625e+01	7.4596	10.471351	0.000278	2.784353	0.471682	0.000028
 752	7.4725e+01	7.4692	10.499458	0.000283	2.825299	0.478619	0.000028
 753	7.4824e+01	7.4779	10.529194	0.000299	2.989084	0.506365	0.000030
 754	7.4924e+01	7.4886	10.557301	0.000283	2.825299	0.478619	0.000028
 755	7.5023e+01	7.5017	10.584593	0.000274	2.743406	0.464746	0.000027
 756	7.5123e+01	7.5063	10.610255	0.000258	2.579621	0.437000	0.000026
 757	7.5222e+01	7.5188	10.635918	0.000258	2.579621	0.437000	0.000026
 758	7.5322e+01	7.5272	10.665654	0.000299	2.989084	0.506365	0.000030
 759	7.5421e+01	7.5397	10.693760	0.000283	2.825299	0.478619	0.000028
 760	7.5520e+01	7.5457	10.723496	0.000299	2.989084	0.506365	0.000030
 761	7.5620e+01	7.5605	10.753640	0.000303	3.030031	0.513301	0.000030
 762	7.5719e+01	7.5663	10.781746	0.000283	2.825299	0.478619	0.000028
 763	7.5819e+01	7.5744	10.805780	0.000242	2.415835	0.409254	0.000024
 764	7.5918e+01	7.5881	10.839589	0.000340	3.398548	0.575730	0.000034
 765	7.6018e+01	7.5972	10.866066	0.000266	2.661513	0.450873	0.000027
 766	7.6118e+01	7.6098	10.896210	0.000303	3.030031	0.513301	0.000030
 767	7.6217e+01	7.6169	10.927575	0.000315	3.152870	0.534111	0.000032
 768	7.6317e+01	7.6273	10.956496	0.000291	2.907192	0.492492	0.000029
 769	7.6416e+01	7.6370	10.987862	0.000315	3.152870	0.534111	0.000032
 770	7.6516e+01	7.6479	11.015968	0.000283	2.825299	0.478619	0.000028
 771	7.6615e+01	7.6572	11.046112	0.000303	3.030031	0.513301	0.000030
 772	7.6715e+01	7.6678	11.078292	0.000323	3.234763	0.547984	0.000032
 773	7.6814e+01	7.6756	11.110472	0.000323	3.234763	0.547984	0.000032
 774	7.6913e+01	7.6867	11.136949	0.000266	2.661513	0.450873	0.000027
 775	7.7013e+01	7.6991	11.169536	0.000328	3.275709	0.554920	0.000033
 776	7.7112e+01	7.7054	11.197236	0.000278	2.784353	0.471682	0.000028
 777	7.7212e+01	7.7181	11.225750	0.000287	2.866245	0.485555	0.000029
 778	7.7311e+01	7.7308	11.258337	0.000328	3.275709	0.554920	0.000033
 779	7.7411e+01	7.7364	11.288073	0.000299	2.989084	0.506365	0.000030
 780	7.7510e+01	7.7483	11.319846	0.000319	3.193816	0.541047	0.000032
 781	7.7610e+01	7.7588	11.349582	0.000299	2.989084	0.506365	0.000030
 782	7.7710e+01	7.7679	11.383391	0.000340	3.398548	0.575730	0.000034
 783	7.7809e+01	7.7760	11.411091	0.000278	2.784353	0.471682	0.000028
 784	7.7909e+01	7.7859	11.444900	0.000340	3.398548	0.575730	0.000034
 785	7.8008e+01	7.7979	11.477080	0.000323	3.234763	0.547984	0.000032
 786	7.8108e+01	7.8066	11.509260	0.000323	3.234763	0.547984	0.000032
 787	7.8207e+01	7.8185	11.536959	0.000278	2.784353	0.471682	0.000028
 788	7.8306e+01	7.8251	11.567103	0.000303	3.030031	0.513301	0.000030
 789	7.8406e+01	7.8371	11.598468	0.000315	3.152870	0.534111	0.000032
 790	7.8505e+01	7.8471	11.628611	0.000303	3.030031	0.513301	0.000030
 791	7.8605e+01	7.8564	11.660792	0.000323	3.234763	0.547984	0.000032
 792	7.8704e+01	7.8682	11.690120	0.000295	2.948138	0.499428	0.000029
 793	7.8804e+01	7.8774	11.722300	0.000323	3.234763	0.547984	0.000032
 794	7.8903e+01	7.8862	11.753258	0.000311	3.111923	0.527174	0.000031
 795	7.9003e+01	7.8989	11.785031	0.000319	3.193816	0.541047	0.000032
 796	7.9103e+01	7.9067	11.817618	0.000328	3.275709	0.554920	0.000033
 797	7.9202e+01	7.9159	11.848169	0.000307	3.070977	0.520238	0.000031
 798	7.9302e+01	7.9235	11.879127	0.000311	3.111923	0.527174	0.000031
 799	7.9401e+01	7.9365	11.909271	0.000303	3.030031	0.513301	0.000030
 800	7.9501e+01	7.9436	11.941043	0.000319	3.193816	0.541047	0.000032
 801	7.9600e+01	7.9560	11.973223	0.000323	3.234763	0.547984	0.000032
 802	7.9700e+01	7.9652	12.006218	0.000332	3.316655	0.561857	0.000033
 803	7.9799e+01	7.9765	12.040027	0.000340	3.398548	0.575730	0.000034
 804	7.9898e+01	7.9854	12.068134	0.000283	2.825299	0.478619	0.000028
 805	7.9998e+01	7.9958	12.101129	0.000332	3.316655	0.561857	0.000033
 806	8.0097e+01	8.0078	12.130865	0.000299	2.989084	0.506365	0.000030
 807	8.0197e+01	8.0148	12.162230	0.000315	3.152870	0.534111	0.000032
 808	8.0296e+01	8.0242	12.191559	0.000295	2.948138	0.499428	0.000029
 809	8.0396e+01	8.0371	12.228220	0.000369	3.685173	0.624285	0.000037
 810	8.0496e+01	8.0472	12.259585	0.000315	3.152870	0.534111	0.000032
 811	8.0595e+01	8.0572	12.295839	0.000364	3.644226	0.617349	0.000036
 812	8.0695e+01	8.0641	12.325575	0.000299	2.989084	0.506365	0.000030
 813	8.0794e+01	8.0746	12.354089	0.000287	2.866245	0.485555	0.000029
 814	8.0894e+01	8.0875	12.390749	0.000369	3.685173	0.624285	0.000037
 815	8.0993e+01	8.0965	12.423744	0.000332	3.316655	0.561857	0.000033
 816	8.1093e+01	8.1033	12.456739	0.000332	3.316655	0.561857	0.000033
 817	8.1192e+01	8.1139	12.486068	0.000295	2.948138	0.499428	0.000029
 818	8.1291e+01	8.1232	12.521099	0.000352	3.521387	0.596539	0.000035
 819	8.1391e+01	8.1365	12.553686	0.000328	3.275709	0.554920	0.000033
 820	8.1490e+01	8.1449	12.583422	0.000299	2.989084	0.506365	0.000030
 821	8.1590e+01	8.1544	12.617639	0.000344	3.439494	0.582666	0.000034
 822	8.1689e+01	8.1659	12.650634	0.000332	3.316655	0.561857	0.000033
 823	8.1789e+01	8.1742	12.684851	0.000344	3.439494	0.582666	0.000034
 824	8.1888e+01	8.1845	12.718253	0.000336	3.357602	0.568793	0.000034
 825	8.1988e+01	8.1977	12.750026	0.000319	3.193816	0.541047	0.000032
 826	8.2088e+01	8.2053	12.787501	0.000377	3.767065	0.638158	0.000038
 827	8.2187e+01	8.2157	12.816015	0.000287	2.866245	0.485555	0.000029
 828	8.2287e+01	8.2263	12.849824	0.000340	3.398548	0.575730	0.000034
 829	8.2386e+01	8.2348	12.884041	0.000344	3.439494	0.582666	0.000034
 830	8.2486e+01	8.2433	12.916221	0.000323	3.234763	0.547984	0.000032
 831	8.2585e+01	8.2576	12.946772	0.000307	3.070977	0.520238	0.000031
 832	8.2684e+01	8.2669	12.985877	0.000393	3.930851	0.665904	0.000039
 833	8.2784e+01	8.2712	13.012354	0.000266	2.661513	0.450873	0.000027
 834	8.2883e+01	8.2870	13.051459	0.000393	3.930851	0.665904	0.000039
 835	8.2983e+01	8.2948	13.082010	0.000307	3.070977	0.520238	0.000031
 836	8.3082e+01	8.3024	13.112560	0.000307	3.070977	0.520238	0.000031
 837	8.3182e+01	8.3149	13.143518	0.000311	3.111923	0.527174	0.000031
 838	8.3281e+01	8.3262	13.173662	0.000303	3.030031	0.513301	0.000030
 839	8.3381e+01	8.3363	13.209508	0.000360	3.603280	0.610412	0.000036
 840	8.3481e+01	8.3448	13.241688	0.000323	3.234763	0.547984	0.000032
 841	8.3580e+01	8.3545	13.274275	0.000328	3.275709	0.554920	0.000033
 842	8.3680e+01	8.3643	13.304826	0.000307	3.070977	0.520238	0.000031
 843	8.3779e+01	8.3729	13.342709	0.000381	3.808012	0.645095	0.000038
 844	8.3879e+01	8.3828	13.372445	0.000299	2.989084	0.506365	0.000030
 845	8.3978e+01	8.3947	13.404625	0.000323	3.234763	0.547984	0.000032
 846	8.4078e+01	8.4054	13.435583	0.000311	3.111923	0.527174	0.000031
 847	8.4177e+01	8.4134	13.463690	0.000283	2.825299	0.478619	0.000028
 848	8.4276e+01	8.4244	13.496684	0.000332	3.316655	0.561857	0.000033
 849	8.4376e+01	8.4332	13.526828	0.000303	3.030031	0.513301	0.000030
 850	8.4475e+01	8.4406	13.553305	0.000266	2.661513	0.450873	0.000027
 851	8.4575e+01	8.4546	13.588337	0.000352	3.521387	0.596539	0.000035
 852	8.4674e+01	8.4611	13.616850	0.000287	2.866245	0.485555	0.000029
 853	8.4774e+01	8.4717	13.644550	0.000278	2.784353	0.471682	0.000028
 854	8.4874e+01	8.4851	13.674286	0.000299	2.989084	0.506365	0.000030
 855	8.4973e+01	8.4949	13.709317	0.000352	3.521387	0.596539	0.000035
 856	8.5073e+01	8.5030	13.733758	0.000246	2.456782	0.416190	0.000025
 857	8.5172e+01	8.5142	13.764308	0.000307	3.070977	0.520238	0.000031
 858	8.5272e+01	8.5203	13.796896	0.000328	3.275709	0.554920	0.000033
 859	8.5371e+01	8.5355	13.822966	0.000262	2.620567	0.443936	0.000026
 860	8.5471e+01	8.5439	13.855146	0.000323	3.234763	0.547984	0.000032
 861	8.5570e+01	8.5540	13.883253	0.000283	2.825299	0.478619	0.000028
 862	8.5669e+01	8.5645	13.911766	0.000287	2.866245	0.485555	0.000029
 863	8.5769e+01	8.5722	13.942725	0.000311	3.111923	0.527174	0.000031
 864	8.5868e+01	8.5840	13.970424	0.000278	2.784353	0.471682	0.000028
 865	8.5968e+01	8.5913	13.998123	0.000278	2.784353	0.471682	0.000028
 866	8.6067e+01	8.6028	14.027452	0.000295	2.948138	0.499428	0.000029
 867	8.6167e+01	8.6125	14.054744	0.000274	2.743406	0.464746	0.000027
 868	8.6266e+01	8.6250	14.082443	0.000278	2.784353	0.471682	0.000028
 869	8.6366e+01	8.6309	14.115030	0.000328	3.275709	0.554920	0.000033
 870	8.6466e+01	8.6440	14.145988	0.000311	3.111923	0.527174	0.000031
 871	8.6565e+01	8.6526	14.174095	0.000283	2.825299	0.478619	0.000028
 872	8.6665e+01	8.6605	14.203424	0.000295	2.948138	0.499428	0.000029
 873	8.6764e+01	8.6710	14.233567	0.000303	3.030031	0.513301	0.000030
 874	8.6864e+01	8.6828	14.261674	0.000283	2.825299	0.478619	0.000028
 875	8.6963e+01	8.6931	14.288966	0.000274	2.743406	0.464746	0.000027
 876	8.7063e+01	8.7036	14.320738	0.000319	3.193816	0.541047	0.000032
 877	8.7162e+01	8.7139	14.350067	0.000295	2.948138	0.499428	0.000029
 878	8.7261e+01	8.7231	14.375322	0.000254	2.538674	0.430063	0.000025
 879	8.7361e+01	8.7325	14.408724	0.000336	3.357602	0.568793	0.000034
 880	8.7460e+01	8.7421	14.435202	0.000266	2.661513	0.450873	0.000027
 881	8.7560e+01	8.7487	14.460457	0.000254	2.538674	0.430063	0.000025
 882	8.7659e+01	8.7616	14.490193	0.000299	2.989084	0.506365	0.000030
 883	8.7759e+01	8.7710	14.518300	0.000283	2.825299	0.478619	0.000028
 884	8.7859e+01	8.7845	14.546406	0.000283	2.825299	0.478619	0.000028
 885	8.7958e+01	8.7905	14.573698	0.000274	2.743406	0.464746	0.000027
 886	8.8058e+01	8.8045	14.604656	0.000311	3.111923	0.527174	0.000031
 887	8.8157e+01	8.8101	14.632355	0.000278	2.784353	0.471682	0.000028
 888	8.8257e+01	8.8233	14.662906	0.000307	3.070977	0.520238	0.000031
 889	8.8356e+01	8.8311	14.693457	0.000307	3.070977	0.520238	0.000031
 890	8.8456e+01	8.8409	14.720341	0.000270	2.702460	0.457809	0.000027
 891	8.8555e+01	8.8503	14.743967	0.000237	2.374889	0.402317	0.000024
 892	8.8654e+01	8.8593	14.777777	0.000340	3.398548	0.575730	0.000034
 893	8.8754e+01	8.8726	14.804254	0.000266	2.661513	0.450873	0.000027
 894	8.8853e+01	8.8788	14.833583	0.000295	2.948138	0.499428	0.000029
 895	8.8953e+01	8.8927	14.858838	0.000254	2.538674	0.430063	0.000025
 896	8.9052e+01	8.9017	14.884908	0.000262	2.620567	0.443936	0.000026
 897	8.9152e+01	8.9080	14.913422	0.000287	2.866245	0.485555	0.000029
 898	8.9251e+01	8.9178	14.938270	0.000250	2.497728	0.423127	0.000025
 899	8.9351e+01	8.9291	14.969228	0.000311	3.111923	0.527174	0.000031
 900	8.9451e+01	8.9411	14.994076	0.000250	2.497728	0.423127	0.000025
 901	8.9550e+01	8.9523	15.020146	0.000262	2.620567	0.443936	0.000026
 902	8.9650e+01	8.9602	15.051511	0.000315	3.152870	0.534111	0.000032
 903	8.9749e+01	8.9722	15.077988	0.000266	2.661513	0.450873	0.000027
 904	8.9849e+01	8.9805	15.104058	0.000262	2.620567	0.443936	0.000026
 905	8.9948e+01	8.9911	15.133794	0.000299	2.989084	0.506365	0.000030
 906	9.0047e+01	9.0039	15.162308	0.000287	2.866245	0.485555	0.000029
 907	9.0147e+01	9.0121	15.189600	0.000274	2.743406	0.464746	0.000027
 908	9.0246e+01	9.0204	15.215670	0.000262	2.620567	0.443936	0.000026
 909	9.0346e+01	9.0298	15.240518	0.000250	2.497728	0.423127	0.000025
 910	9.0445e+01	9.0402	15.268217	0.000278	2.784353	0.471682	0.000028
 911	9.0545e+01	9.0511	15.294287	0.000262	2.620567	0.443936	0.000026
 912	9.0644e+01	9.0594	15.321986	0.000278	2.784353	0.471682	0.000028
 913	9.0744e+01	9.0688	15.346834	0.000250	2.497728	0.423127	0.000025
 914	9.0844e+01	9.0805	15.374534	0.000278	2.784353	0.471682	0.000028
 915	9.0943e+01	9.0910	15.401418	0.000270	2.702460	0.457809	0.000027
 916	9.1043e+01	9.1003	15.430747	0.000295	2.948138	0.499428	0.000029
 917	9.1142e+01	9.1100	15.456817	0.000262	2.620567	0.443936	0.000026
 918	9.1242e+01	9.1203	15.485738	0.000291	2.907192	0.492492	0.000029
 919	9.1341e+01	9.1290	15.515067	0.000295	2.948138	0.499428	0.000029
 920	9.1441e+01	9.1386	15.544803	0.000299	2.989084	0.506365	0.000030
 921	9.1540e+01	9.1523	15.571280	0.000266	2.661513	0.450873	0.000027
 922	9.1639e+01	9.1596	15.600609	0.000295	2.948138	0.499428	0.000029
 923	9.1739e+01	9.1694	15.633603	0.000332	3.316655	0.561857	0.000033
 924	9.1838e+01	9.1779	15.658859	0.000254	2.538674	0.430063	0.000025
 925	9.1938e+01	9.1877	15.684521	0.000258	2.579621	0.437000	0.000026
 926	9.2037e+01	9.1997	15.712628	0.000283	2.825299	0.478619	0.000028
 927	9.2137e+01	9.2071	15.743586	0.000311	3.111923	0.527174	0.000031
 928	9.2237e+01	9.2191	15.766804	0.000233	2.333943	0.395381	0.000023
 929	9.2336e+01	9.2280	15.799392	0.000328	3.275709	0.554920	0.000033
 930	9.2436e+01	9.2371	15.829943	0.000307	3.070977	0.520238	0.000031
 931	9.2535e+01	9.2509	15.861308	0.000315	3.152870	0.534111	0.000032
 932	9.2635e+01	9.2578	15.889415	0.000283	2.825299	0.478619	0.000028
 933	9.2734e+01	9.2676	15.922817	0.000336	3.357602	0.568793	0.000034
 934	9.2834e+01	9.2812	15.953367	0.000307	3.070977	0.520238	0.000031
 935	9.2933e+01	9.2878	15.986362	0.000332	3.316655	0.561857	0.000033
 936	9.3032e+01	9.2988	16.014469	0.000283	2.825299	0.478619	0.000028
 937	9.3132e+01	9.3082	16.045834	0.000315	3.152870	0.534111	0.000032
 938	9.3231e+01	9.3216	16.073941	0.000283	2.825299	0.478619	0.000028
 939	9.3331e+01	9.3279	16.106935	0.000332	3.316655	0.561857	0.000033
 940	9.3430e+01	9.3378	16.141560	0.000348	3.480441	0.589603	0.000035
 941	9.3530e+01	9.3478	16.169666	0.000283	2.825299	0.478619	0.000028
 942	9.3629e+01	9.3594	16.198180	0.000287	2.866245	0.485555	0.000029
 943	9.3729e+01	9.3720	16.232804	0.000348	3.480441	0.589603	0.000035
 944	9.3829e+01	9.3772	16.266614	0.000340	3.398548	0.575730	0.000034
 945	9.3928e+01	9.3874	16.296757	0.000303	3.030031	0.513301	0.000030
 946	9.4028e+01	9.3995	16.328937	0.000323	3.234763	0.547984	0.000032
 947	9.4127e+01	9.4082	16.364783	0.000360	3.603280	0.610412	0.000036
 948	9.4227e+01	9.4174	16.394112	0.000295	2.948138	0.499428	0.000029
 949	9.4326e+01	9.4257	16.422626	0.000287	2.866245	0.485555	0.000029
 950	9.4425e+01	9.4366	16.460509	0.000381	3.808012	0.645095	0.000038
 951	9.4525e+01	9.4485	16.493911	0.000336	3.357602	0.568793	0.000034
 952	9.4624e+01	9.4564	16.520796	0.000270	2.702460	0.457809	0.000027
 953	9.4724e+01	9.4691	16.556642	0.000360	3.603280	0.610412	0.000036
 954	9.4823e+01	9.4761	16.588414	0.000319	3.193816	0.541047	0.000032
 955	9.4923e+01	9.4910	16.619372	0.000311	3.111923	0.527174	0.000031
 956	9.5022e+01	9.4984	16.656033	0.000369	3.685173	0.624285	0.000037
 957	9.5122e+01	9.5081	16.690250	0.000344	3.439494	0.582666	0.000034
 958	9.5222e+01	9.5184	16.719171	0.000291	2.907192	0.492492	0.000029
 959	9.5321e+01	9.5283	16.754610	0.000356	3.562333	0.603476	0.000036
 960	9.5421e+01	9.5376	16.786383	0.000319	3.193816	0.541047	0.000032
 961	9.5520e+01	9.5459	16.817748	0.000315	3.152870	0.534111	0.000032
 962	9.5620e+01	9.5562	16.851558	0.000340	3.398548	0.575730	0.000034
 963	9.5719e+01	9.5674	16.882923	0.000315	3.152870	0.534111	0.000032
 964	9.5819e+01	9.5778	16.919177	0.000364	3.644226	0.617349	0.000036
 965	9.5918e+01	9.5850	16.952986	0.000340	3.398548	0.575730	0.000034
 966	9.6017e+01	9.5959	16.986388	0.000336	3.357602	0.568793	0.000034
 967	9.6117e+01	9.6083	17.019383	0.000332	3.316655	0.561857	0.000033
 968	9.6216e+01	9.6151	17.054822	0.000356	3.562333	0.603476	0.000036
 969	9.6316e+01	9.6265	17.087816	0.000332	3.316655	0.561857	0.000033
 970	9.6415e+01	9.6381	17.125292	0.000377	3.767065	0.638158	0.000038
 971	9.6515e+01	9.6460	17.156657	0.000315	3.152870	0.534111	0.000032
 972	9.6615e+01	9.6569	17.193318	0.000369	3.685173	0.624285	0.000037
 973	9.6714e+01	9.6674	17.223461	0.000303	3.030031	0.513301	0.000030
 974	9.6814e+01	9.6767	17.257271	0.000340	3.398548	0.575730	0.000034
 975	9.6913e+01	9.6880	17.291080	0.000340	3.398548	0.575730	0.000034
 976	9.7013e+01	9.6973	17.327741	0.000369	3.685173	0.624285	0.000037
 977	9.7112e+01	9.7063	17.364402	0.000369	3.685173	0.624285	0.000037
 978	9.7212e+01	9.7181	17.393731	0.000295	2.948138	0.499428	0.000029
 979	9.7311e+01	9.7266	17.432021	0.000385	3.848958	0.652031	0.000038
 980	9.7410e+01	9.7358	17.470718	0.000389	3.889904	0.658968	0.000039
 981	9.7510e+01	9.7470	17.506565	0.000360	3.603280	0.610412	0.000036
 982	9.7609e+01	9.7565	17.542411	0.000360	3.603280	0.610412	0.000036
 983	9.7709e+01	9.7659	17.577849	0.000356	3.562333	0.603476	0.000036
 984	9.7808e+01	9.7757	17.611659	0.000340	3.398548	0.575730	0.000034
 985	9.7908e+01	9.7877	17.649134	0.000377	3.767065	0.638158	0.000038
 986	9.8007e+01	9.7949	17.682536	0.000336	3.357602	0.568793	0.000034
 987	9.8107e+01	9.8062	17.719605	0.000373	3.726119	0.631222	0.000037
 988	9.8207e+01	9.8175	17.753414	0.000340	3.398548	0.575730	0.000034
 989	9.8306e+01	9.8235	17.790482	0.000373	3.726119	0.631222	0.000037
 990	9.8406e+01	9.8332	17.828365	0.000381	3.808012	0.645095	0.000038
 991	9.8505e+01	9.8426	17.865433	0.000373	3.726119	0.631222	0.000037
 992	9.8605e+01	9.8566	17.901279	0.000360	3.603280	0.610412	0.000036
 993	9.8704e+01	9.8660	17.935496	0.000344	3.439494	0.582666	0.000034
 994	9.8803e+01	9.8756	17.976230	0.000409	4.094636	0.693650	0.000041
 995	9.8903e+01	9.8854	18.012077	0.000360	3.603280	0.610412	0.000036
 996	9.9002e+01	9.8939	18.045071	0.000332	3.316655	0.561857	0.000033
 997	9.9102e+01	9.9042	18.085806	0.000409	4.094636	0.693650	0.000041
 998	9.9201e+01	9.9146	18.119615	0.000340	3.398548	0.575730	0.000034
 999	9.9301e+01	9.9268	18.157498	0.000381	3.808012	0.645095	0.000038
1000	9.9400e+01	9.9348	18.193751	0.000364	3.644226	0.617349	0.000036
1001	9.9500e+01	9.9427	18.229598	0.000360	3.603280	0.610412	0.000036
1002	9.9600e+01	9.9582	18.267888	0.000385	3.848958	0.652031	0.000038
1003	9.9699e+01	9.9667	18.305771	0.000381	3.808012	0.645095	0.000038
1004	9.9799e+01	9.9732	18.340395	0.000348	3.480441	0.589603	0.000035
1005	9.9898e+01	9.9822	18.375019	0.000348	3.480441	0.589603	0.000035
1006	9.9998e+01	9.9934	18.415346	0.000405	4.053690	0.686714	0.000041
1007	1.0010e+02	9.9836	18.406792	0.000086	0.859874	0.145667	-0.000009
1008	1.0020e+02	9.9734	18.391720	0.000152	1.515015	0.256651	-0.000015
1009	1.0030e+02	9.9651	18.381129	0.000106	1.064605	0.180349	-0.000011
1010	1.0040e+02	9.9531	18.365650	0.000156	1.555962	0.263587	-0.000016
1011	1.0050e+02	9.9447	18.355874	0.000098	0.982713	0.166476	-0.000010
1012	1.0059e+02	9.9342	18.345283	0.000106	1.064605	0.180349	-0.000011
1013	1.0069e+02	9.9244	18.329804	0.000156	1.555962	0.263587	-0.000016
1014	1.0079e+02	9.9148	18.314732	0.000152	1.515015	0.256651	-0.000015
1015	1.0089e+02	9.9042	18.297216	0.000176	1.760694	0.298270	-0.000018
1016	1.0099e+02	9.8975	18.283367	0.000139	1.392176	0.235841	-0.000014
1017	1.0109e+02	9.8855	18.267073	0.000164	1.637854	0.277460	-0.000016
1018	1.0119e+02	9.8756	18.252409	0.000147	1.474069	0.249714	-0.000015
1019	1.0129e+02	9.8666	18.236522	0.000160	1.596908	0.270524	-0.000016
1020	1.0139e+02	9.8603	18.218192	0.000184	1.842586	0.312143	-0.000018
1021	1.0149e+02	9.8462	18.201084	0.000172	1.719747	0.291333	-0.000017
1022	1.0159e+02	9.8347	18.182753	0.000184	1.842586	0.312143	-0.000018
1023	1.0169e+02	9.8242	18.165237	0.000176	1.760694	0.298270	-0.000018
1024	1.0179e+02	9.8175	18.152202	0.000131	1.310284	0.221968	-0.000013
1025	1.0189e+02	9.8074	18.135094	0.000172	1.719747	0.291333	-0.000017
1026	1.0199e+02	9.7962	18.114727	0.000205	2.047318	0.346825	-0.000020
1027	1.0209e+02	9.7884	18.097211	0.000176	1.760694	0.298270	-0.000018
1028	1.0219e+02	9.7756	18.078881	0.000184	1.842586	0.312143	-0.000018
1029	1.0229e+02	9.7646	18.054848	0.000242	2.415835	0.409254	-0.000024
1030	1.0239e+02	9.7571	18.038554	0.000164	1.637854	0.277460	-0.000016
1031	1.0248e+02	9.7477	18.019001	0.000197	1.965425	0.332952	-0.000020
1032	1.0258e+02	9.7352	18.000264	0.000188	1.883533	0.319079	-0.000019
1033	1.0268e+02	9.7237	17.979489	0.000209	2.088264	0.353762	-0.000021
1034	1.0278e+02	9.7172	17.960751	0.000188	1.883533	0.319079	-0.000019
1035	1.0288e+02	9.7086	17.938755	0.000221	2.211104	0.374571	-0.000022
1036	1.0298e+02	9.6960	17.915944	0.000229	2.292996	0.388444	-0.000023
1037	1.0308e+02	9.6899	17.896391	0.000197	1.965425	0.332952	-0.000020
1038	1.0318e+02	9.6784	17.878061	0.000184	1.842586	0.312143	-0.000018
1039	1.0328e+02	9.6670	17.857286	0.000209	2.088264	0.353762	-0.000021
1040	1.0338e+02	9.6554	17.836105	0.000213	2.129211	0.360698	-0.000021
1041	1.0348e+02	9.6460	17.817774	0.000184	1.842586	0.312143	-0.000018
1042	1.0358e+02	9.6375	17.795778	0.000221	2.211104	0.374571	-0.000022
1043	1.0368e+02	9.6252	17.776225	0.000197	1.965425	0.332952	-0.000020
1044	1.0378e+02	9.6167	17.753414	0.000229	2.292996	0.388444	-0.000023
1045	1.0388e+02	9.6088	17.735491	0.000180	1.801640	0.305206	-0.000018
1046	1.0398e+02	9.5962	17.714309	0.000213	2.129211	0.360698	-0.000021
1047	1.0408e+02	9.5850	17.690276	0.000242	2.415835	0.409254	-0.000024
1048	1.0418e+02	9.5767	17.668279	0.000221	2.211104	0.374571	-0.000022
1049	1.0428e+02	9.5646	17.649949	0.000184	1.842586	0.312143	-0.000018
1050	1.0438e+02	9.5563	17.623879	0.000262	2.620567	0.443936	-0.000026
1051	1.0447e+02	9.5477	17.601475	0.000225	2.252050	0.381508	-0.000023
1052	1.0457e+02	9.5370	17.577849	0.000237	2.374889	0.402317	-0.000024
1053	1.0467e+02	9.5233	17.553816	0.000242	2.415835	0.409254	-0.000024
1054	1.0477e+02	9.5184	17.534671	0.000192	1.924479	0.326016	-0.000019
1055	1.0487e+02	9.5100	17.515933	0.000188	1.883533	0.319079	-0.000019
1056	1.0497e+02	9.4965	17.491085	0.000250	2.497728	0.423127	-0.000025
1057	1.0507e+02	9.4873	17.471126	0.000201	2.006372	0.339889	-0.000020
1058	1.0517e+02	9.4767	17.449537	0.000217	2.170157	0.367635	-0.000022
1059	1.0527e+02	9.4650	17.427133	0.000225	2.252050	0.381508	-0.000023
1060	1.0537e+02	9.4563	17.402692	0.000246	2.456782	0.416190	-0.000025
1061	1.0547e+02	9.4462	17.381918	0.000209	2.088264	0.353762	-0.000021
1062	1.0557e+02	9.4369	17.355848	0.000262	2.620567	0.443936	-0.000026
1063	1.0567e+02	9.4266	17.328556	0.000274	2.743406	0.464746	-0.000027
1064	1.0577e+02	9.4165	17.304523	0.000242	2.415835	0.409254	-0.000024
1065	1.0587e+02	9.4107	17.278045	0.000266	2.661513	0.450873	-0.000027
1066	1.0597e+02	9.3982	17.251568	0.000266	2.661513	0.450873	-0.000027
1067	1.0607e+02	9.3879	17.229164	0.000225	2.252050	0.381508	-0.000023
1068	1.0617e+02	9.3799	17.203502	0.000258	2.579621	0.437000	-0.000026
1069	1.0627e+02	9.3678	17.181912	0.000217	2.170157	0.367635	-0.000022
1070	1.0637e+02	9.3580	17.157065	0.000250	2.497728	0.423127	-0.000025
1071	1.0647e+02	9.3473	17.131809	0.000254	2.538674	0.430063	-0.000025
1072	1.0656e+02	9.3385	17.108998	0.000229	2.292996	0.388444	-0.000023
1073	1.0666e+02	9.3286	17.082928	0.000262	2.620567	0.443936	-0.000026
1074	1.0676e+02	9.3203	17.055636	0.000274	2.743406	0.464746	-0.000027
1075	1.0686e+02	9.3093	17.033232	0.000225	2.252050	0.381508	-0.000023
1076	1.0696e+02	9.2976	17.007977	0.000254	2.538674	0.430063	-0.000025
1077	1.0706e+02	9.2893	16.977427	0.000307	3.070977	0.520238	-0.000031
1078	1.0716e+02	9.2776	16.955023	0.000225	2.252050	0.381508	-0.000023
1079	1.0726e+02	9.2691	16.928953	0.000262	2.620567	0.443936	-0.000026
1080	1.0736e+02	9.2572	16.903290	0.000258	2.579621	0.437000	-0.000026
1081	1.0746e+02	9.2448	16.877220	0.000262	2.620567	0.443936	-0.000026
1082	1.0756e+02	9.2389	16.849521	0.000278	2.784353	0.471682	-0.000028
1083	1.0766e+02	9.2279	16.825080	0.000246	2.456782	0.416190	-0.000025
1084	1.0776e+02	9.2188	16.799010	0.000262	2.620567	0.443936	-0.000026
1085	1.0786e+02	9.2078	16.773348	0.000258	2.579621	0.437000	-0.000026
1086	1.0796e+02	9.1998	16.744427	0.000291	2.907192	0.492492	-0.000029
1087	1.0806e+02	9.1903	16.724874	0.000197	1.965425	0.332952	-0.000020
1088	1.0816e+02	9.1775	16.694731	0.000303	3.030031	0.513301	-0.000030
1089	1.0826e+02	9.1678	16.672734	0.000221	2.211104	0.374571	-0.000022
1090	1.0836e+02	9.1592	16.647479	0.000254	2.538674	0.430063	-0.000025
1091	1.0845e+02	9.1491	16.621409	0.000262	2.620567	0.443936	-0.000026
1092	1.0855e+02	9.1401	16.596969	0.000246	2.456782	0.416190	-0.000025
1093	1.0865e+02	9.1297	16.571713	0.000254	2.538674	0.430063	-0.000025
1094	1.0875e+02	9.1190	16.546865	0.000250	2.497728	0.423127	-0.000025
1095	1.0885e+02	9.1081	16.522425	0.000246	2.456782	0.416190	-0.000025
1096	1.0895e+02	9.0997	16.499206	0.000233	2.333943	0.395381	-0.000023
1097	1.0905e+02	9.0878	16.471100	0.000283	2.825299	0.478619	-0.000028
1098	1.0915e+02	9.0790	16.447474	0.000237	2.374889	0.402317	-0.000024
1099	1.0925e+02	9.0677	16.420997	0.000266	2.661513	0.450873	-0.000027
1100	1.0935e+02	9.0557	16.399407	0.000217	2.170157	0.367635	-0.000022
1101	1.0945e+02	9.0503	16.374967	0.000246	2.456782	0.416190	-0.000025
1102	1.0955e+02	9.0420	16.354600	0.000205	2.047318	0.346825	-0.000020
1103	1.0965e+02	9.0305	16.326493	0.000283	2.825299	0.478619	-0.000028
1104	1.0975e+02	9.0168	16.302867	0.000237	2.374889	0.402317	-0.000024
1105	1.0985e+02	9.0088	16.281278	0.000217	2.170157	0.367635	-0.000022
1106	1.0995e+02	9.0015	16.256838	0.000246	2.456782	0.416190	-0.000025
1107	1.1005e+02	8.9893	16.234841	0.000221	2.211104	0.374571	-0.000022
1108	1.1015e+02	8.9786	16.211623	0.000233	2.333943	0.395381	-0.000023
1109	1.1025e+02	8.9673	16.187589	0.000242	2.415835	0.409254	-0.000024
1110	1.1035e+02	8.9587	16.163556	0.000242	2.415835	0.409254	-0.000024
1111	1.1044e+02	8.9504	16.138301	0.000254	2.538674	0.430063	-0.000025
1112	1.1054e+02	8.9404	16.116712	0.000217	2.170157	0.367635	-0.000022
1113	1.1064e+02	8.9312	16.091049	0.000258	2.579621	0.437000	-0.000026
1114	1.1074e+02	8.9218	16.069053	0.000221	2.211104	0.374571	-0.000022
1115	1.1084e+02	8.9115	16.047056	0.000221	2.211104	0.374571	-0.000022
1116	1.1094e+02	8.9011	16.025060	0.000221	2.211104	0.374571	-0.000022
1117	1.1104e+02	8.8922	15.998990	0.000262	2.620567	0.443936	-0.000026
1118	1.1114e+02	8.8811	15.975771	0.000233	2.333943	0.395381	-0.000023
1119	1.1124e+02	8.8706	15.953775	0.000221	2.211104	0.374571	-0.000022
1120	1.1134e+02	8.8637	15.932593	0.000213	2.129211	0.360698	-0.000021
1121	1.1144e+02	8.8514	15.907338	0.000254	2.538674	0.430063	-0.000025
1122	1.1154e+02	8.8403	15.886156	0.000213	2.129211	0.360698	-0.000021
1123	1.1164e+02	8.8306	15.862530	0.000237	2.374889	0.402317	-0.000024
1124	1.1174e+02	8.8257	15.840126	0.000225	2.252050	0.381508	-0.000023
1125	1.1184e+02	8.8131	15.818130	0.000221	2.211104	0.374571	-0.000022
1126	1.1194e+02	8.8007	15.795726	0.000225	2.252050	0.381508	-0.000023
1127	1.1204e+02	8.7920	15.769656	0.000262	2.620567	0.443936	-0.000026
1128	1.1214e+02	8.7830	15.745623	0.000242	2.415835	0.409254	-0.000024
1129	1.1224e+02	8.7716	15.722404	0.000233	2.333943	0.395381	-0.000023
1130	1.1234e+02	8.7615	15.701630	0.000209	2.088264	0.353762	-0.000021
1131	1.1244e+02	8.7502	15.675560	0.000262	2.620567	0.443936	-0.000026
1132	1.1253e+02	8.7435	15.653563	0.000221	2.211104	0.374571	-0.000022
1133	1.1263e+02	8.7305	15.632789	0.000209	2.088264	0.353762	-0.000021
1134	1.1273e+02	8.7219	15.611607	0.000213	2.129211	0.360698	-0.000021
1135	1.1283e+02	8.7118	15.588388	0.000233	2.333943	0.395381	-0.000023
1136	1.1293e+02	8.7037	15.565577	0.000229	2.292996	0.388444	-0.000023
1137	1.1303e+02	8.6930	15.539100	0.000266	2.661513	0.450873	-0.000027
1138	1.1313e+02	8.6835	15.517918	0.000213	2.129211	0.360698	-0.000021
1139	1.1323e+02	8.6723	15.491441	0.000266	2.661513	0.450873	-0.000027
1140	1.1333e+02	8.6622	15.469852	0.000217	2.170157	0.367635	-0.000022
1141	1.1343e+02	8.6507	15.447448	0.000225	2.252050	0.381508	-0.000023
1142	1.1353e+02	8.6415	15.425044	0.000225	2.252050	0.381508	-0.000023
1143	1.1363e+02	8.6328	15.397752	0.000274	2.743406	0.464746	-0.000027
1144	1.1373e+02	8.6221	15.378607	0.000192	1.924479	0.326016	-0.000019
1145	1.1383e+02	8.6121	15.354574	0.000242	2.415835	0.409254	-0.000024
1146	1.1393e+02	8.6024	15.332577	0.000221	2.211104	0.374571	-0.000022
1147	1.1403e+02	8.5918	15.313432	0.000192	1.924479	0.326016	-0.000019
1148	1.1413e+02	8.5822	15.290214	0.000233	2.333943	0.395381	-0.000023
1149	1.1423e+02	8.5721	15.264958	0.000254	2.538674	0.430063	-0.000025
1150	1.1433e+02	8.5635	15.247850	0.000172	1.719747	0.291333	-0.000017
1151	1.1442e+02	8.5526	15.225039	0.000229	2.292996	0.388444	-0.000023
1152	1.1452e+02	8.5428	15.203450	0.000217	2.170157	0.367635	-0.000022
1153	1.1462e+02	8.5352	15.179417	0.000242	2.415835	0.409254	-0.000024
1154	1.1472e+02	8.5238	15.158642	0.000209	2.088264	0.353762	-0.000021
1155	1.1482e+02	8.5120	15.135831	0.000229	2.292996	0.388444	-0.000023
1156	1.1492e+02	8.5078	15.110983	0.000250	2.497728	0.423127	-0.000025
1157	1.1502e+02	8.4927	15.090208	0.000209	2.088264	0.353762	-0.000021
1158	1.1512e+02	8.4829	15.070249	0.000201	2.006372	0.339889	-0.000020
1159	1.1522e+02	8.4732	15.047030	0.000233	2.333943	0.395381	-0.000023
1160	1.1532e+02	8.4625	15.022997	0.000242	2.415835	0.409254	-0.000024
1161	1.1542e+02	8.4527	15.000186	0.000229	2.292996	0.388444	-0.000023
1162	1.1552e+02	8.4432	14.981041	0.000192	1.924479	0.326016	-0.000019
1163	1.1562e+02	8.4326	14.957415	0.000237	2.374889	0.402317	-0.000024
1164	1.1572e+02	8.4237	14.935826	0.000217	2.170157	0.367635	-0.000022
1165	1.1582e+02	8.4135	14.912607	0.000233	2.333943	0.395381	-0.000023
1166	1.1592e+02	8.4035	14.892647	0.000201	2.006372	0.339889	-0.000020
1167	1.1602e+02	8.3939	14.870244	0.000225	2.252050	0.381508	-0.000023
1168	1.1612e+02	8.3822	14.844581	0.000258	2.579621	0.437000	-0.000026
1169	1.1622e+02	8.3737	14.824621	0.000201	2.006372	0.339889	-0.000020
1170	1.1632e+02	8.3637	14.803439	0.000213	2.129211	0.360698	-0.000021
1171	1.1642e+02	8.3545	14.777369	0.000262	2.620567	0.443936	-0.000026
1172	1.1651e+02	8.3447	14.754558	0.000229	2.292996	0.388444	-0.000023
1173	1.1661e+02	8.3337	14.729710	0.000250	2.497728	0.423127	-0.000025
1174	1.1671e+02	8.3237	14.707306	0.000225	2.252050	0.381508	-0.000023
1175	1.1681e+02	8.3128	14.686532	0.000209	2.088264	0.353762	-0.000021
1176	1.1691e+02	8.3022	14.660869	0.000258	2.579621	0.437000	-0.000026
1177	1.1701e+02	8.2959	14.639280	0.000217	2.170157	0.367635	-0.000022
1178	1.1711e+02	8.2847	14.615247	0.000242	2.415835	0.409254	-0.000024
1179	1.1721e+02	8.2739	14.595287	0.000201	2.006372	0.339889	-0.000020
1180	1.1731e+02	8.2624	14.567995	0.000274	2.743406	0.464746	-0.000027
1181	1.1741e+02	8.2549	14.544369	0.000237	2.374889	0.402317	-0.000024
1182	1.1751e+02	8.2436	14.518707	0.000258	2.579621	0.437000	-0.000026
1183	1.1761e+02	8.2349	14.493044	0.000258	2.579621	0.437000	-0.000026
1184	1.1771e+02	8.2255	14.467789	0.000254	2.538674	0.430063	-0.000025
1185	1.1781e+02	8.2151	14.442534	0.000254	2.538674	0.430063	-0.000025
1186	1.1791e+02	8.2031	14.414020	0.000287	2.866245	0.485555	-0.000029
1187	1.1801e+02	8.1941	14.391209	0.000229	2.292996	0.388444	-0.000023
1188	1.1811e+02	8.1845	14.366361	0.000250	2.497728	0.423127	-0.000025
1189	1.1821e+02	8.1731	14.335810	0.000307	3.070977	0.520238	-0.000031
1190	1.1831e+02	8.1647	14.310555	0.000254	2.538674	0.430063	-0.000025
1191	1.1841e+02	8.1538	14.286522	0.000242	2.415835	0.409254	-0.000024
1192	1.1850e+02	8.1434	14.259230	0.000274	2.743406	0.464746	-0.000027
1193	1.1860e+02	8.1365	14.233974	0.000254	2.538674	0.430063	-0.000025
1194	1.1870e+02	8.1255	14.205053	0.000291	2.907192	0.492492	-0.000029
1195	1.1880e+02	8.1177	14.179798	0.000254	2.538674	0.430063	-0.000025
1196	1.1890e+02	8.1040	14.151691	0.000283	2.825299	0.478619	-0.000028
1197	1.1900e+02	8.0959	14.128473	0.000233	2.333943	0.395381	-0.000023
1198	1.1910e+02	8.0827	14.100773	0.000278	2.784353	0.471682	-0.000028
1199	1.1920e+02	8.0768	14.073889	0.000270	2.702460	0.457809	-0.000027
1200	1.1930e+02	8.0659	14.048634	0.000254	2.538674	0.430063	-0.000025
1201	1.1940e+02	8.0567	14.018898	0.000299	2.989084	0.506365	-0.000030
1202	1.1950e+02	8.0454	13.992013	0.000270	2.702460	0.457809	-0.000027
1203	1.1960e+02	8.0358	13.966758	0.000254	2.538674	0.430063	-0.000025
1204	1.1970e+02	8.0283	13.934985	0.000319	3.193816	0.541047	-0.000032
1205	1.1980e+02	8.0176	13.908915	0.000262	2.620567	0.443936	-0.000026
1206	1.1990e+02	8.0078	13.882438	0.000266	2.661513	0.450873	-0.000027
1207	1.2000e+02	7.9948	13.855961	0.000266	2.661513	0.450873	-0.000027
1208	1.2010e+02	7.9848	13.829076	0.000270	2.702460	0.457809	-0.000027
1209	1.2020e+02	7.9740	13.800562	0.000287	2.866245	0.485555	-0.000029
1210	1.2030e+02	7.9642	13.772455	0.000283	2.825299	0.478619	-0.000028
1211	1.2039e+02	7.9581	13.745163	0.000274	2.743406	0.464746	-0.000027
1212	1.2049e+02	7.9473	13.714613	0.000307	3.070977	0.520238	-0.000031
1213	1.2059e+02	7.9350	13.689357	0.000254	2.538674	0.430063	-0.000025
1214	1.2069e+02	7.9250	13.660029	0.000295	2.948138	0.499428	-0.000029
1215	1.2079e+02	7.9160	13.628663	0.000315	3.152870	0.534111	-0.000032
1216	1.2089e+02	7.9078	13.605038	0.000237	2.374889	0.402317	-0.000024
1217	1.2099e+02	7.9000	13.576116	0.000291	2.907192	0.492492	-0.000029
1218	1.2109e+02	7.8860	13.545566	0.000307	3.070977	0.520238	-0.000031
1219	1.2119e+02	7.8760	13.519903	0.000258	2.579621	0.437000	-0.000026
1220	1.2129e+02	7.8678	13.493426	0.000266	2.661513	0.450873	-0.000027
1221	1.2139e+02	7.8616	13.461653	0.000319	3.193816	0.541047	-0.000032
1222	1.2149e+02	7.8467	13.434361	0.000274	2.743406	0.464746	-0.000027
1223	1.2159e+02	7.8387	13.405440	0.000291	2.907192	0.492492	-0.000029
1224	1.2169e+02	7.8253	13.376518	0.000291	2.907192	0.492492	-0.000029
1225	1.2179e+02	7.8135	13.350856	0.000258	2.579621	0.437000	-0.000026
1226	1.2189e+02	7.8078	13.322749	0.000283	2.825299	0.478619	-0.000028
1227	1.2199e+02	7.8001	13.291384	0.000315	3.152870	0.534111	-0.000032
1228	1.2209e+02	7.7894	13.264907	0.000266	2.661513	0.450873	-0.000027
1229	1.2219e+02	7.7728	13.236800	0.000283	2.825299	0.478619	-0.000028
1230	1.2229e+02	7.7689	13.204620	0.000323	3.234763	0.547984	-0.000032
1231	1.2239e+02	7.7561	13.176106	0.000287	2.866245	0.485555	-0.000029
1232	1.2248e+02	7.7475	13.146370	0.000299	2.989084	0.506365	-0.000030
1233	1.2258e+02	7.7382	13.112968	0.000336	3.357602	0.568793	-0.000034
1234	1.2268e+02	7.7262	13.084046	0.000291	2.907192	0.492492	-0.000029
1235	1.2278e+02	7.7182	13.051866	0.000323	3.234763	0.547984	-0.000032
1236	1.2288e+02	7.7068	13.022538	0.000295	2.948138	0.499428	-0.000029
1237	1.2298e+02	7.6977	12.990358	0.000323	3.234763	0.547984	-0.000032
1238	1.2308e+02	7.6874	12.964288	0.000262	2.620567	0.443936	-0.000026
1239	1.2318e+02	7.6762	12.932108	0.000323	3.234763	0.547984	-0.000032
1240	1.2328e+02	7.6656	12.904816	0.000274	2.743406	0.464746	-0.000027
1241	1.2338e+02	7.6598	12.873450	0.000315	3.152870	0.534111	-0.000032
1242	1.2348e+02	7.6476	12.838012	0.000356	3.562333	0.603476	-0.000036
1243	1.2358e+02	7.6368	12.811127	0.000270	2.702460	0.457809	-0.000027
1244	1.2368e+02	7.6295	12.780576	0.000307	3.070977	0.520238	-0.000031
1245	1.2378e+02	7.6211	12.748804	0.000319	3.193816	0.541047	-0.000032
1246	1.2388e+02	7.6092	12.717438	0.000315	3.152870	0.534111	-0.000032
1247	1.2398e+02	7.5974	12.688517	0.000291	2.907192	0.492492	-0.000029
1248	1.2408e+02	7.5894	12.657151	0.000315	3.152870	0.534111	-0.000032
1249	1.2418e+02	7.5781	12.622935	0.000344	3.439494	0.582666	-0.000034
1250	1.2428e+02	7.5684	12.591569	0.000315	3.152870	0.534111	-0.000032
1251	1.2438e+02	7.5578	12.567943	0.000237	2.374889	0.402317	-0.000024
1252	1.2447e+02	7.5501	12.536578	0.000315	3.152870	0.534111	-0.000032
1253	1.2457e+02	7.5397	12.503991	0.000328	3.275709	0.554920	-0.000033
1254	1.2467e+02	7.5262	12.475477	0.000287	2.866245	0.485555	-0.000029
1255	1.2477e+02	7.5169	12.447370	0.000283	2.825299	0.478619	-0.000028
1256	1.2487e+02	7.5085	12.415597	0.000319	3.193816	0.541047	-0.000032
1257	1.2497e+02	7.4995	12.386269	0.000295	2.948138	0.499428	-0.000029
1258	1.2507e+02	7.4885	12.354903	0.000315	3.152870	0.534111	-0.000032
1259	1.2517e+02	7.4784	12.325575	0.000295	2.948138	0.499428	-0.000029
1260	1.2527e+02	7.4664	12.295024	0.000307	3.070977	0.520238	-0.000031
1261	1.2537e+02	7.4569	12.263659	0.000315	3.152870	0.534111	-0.000032
1262	1.2547e+02	7.4480	12.236774	0.000270	2.702460	0.457809	-0.000027
1263	1.2557e+02	7.4363	12.202150	0.000348	3.480441	0.589603	-0.000035
1264	1.2567e+02	7.4273	12.176080	0.000262	2.620567	0.443936	-0.000026
1265	1.2577e+02	7.4203	12.144307	0.000319	3.193816	0.541047	-0.000032
1266	1.2587e+02	7.4078	12.115386	0.000291	2.907192	0.492492	-0.000029
1267	1.2597e+02	7.4007	12.088501	0.000270	2.702460	0.457809	-0.000027
1268	1.2607e+02	7.3885	12.060395	0.000283	2.825299	0.478619	-0.000028
1269	1.2617e+02	7.3806	12.030251	0.000303	3.030031	0.513301	-0.000030
1270	1.2627e+02	7.3662	12.001737	0.000287	2.866245	0.485555	-0.000029
1271	1.2636e+02	7.3574	11.976482	0.000254	2.538674	0.430063	-0.000025
1272	1.2646e+02	7.3492	11.948375	0.000283	2.825299	0.478619	-0.000028
1273	1.2656e+02	7.3389	11.918232	0.000303	3.030031	0.513301	-0.000030
1274	1.2666e+02	7.3298	11.891347	0.000270	2.702460	0.457809	-0.000027
1275	1.2676e+02	7.3200	11.865685	0.000258	2.579621	0.437000	-0.000026
1276	1.2686e+02	7.3096	11.834319	0.000315	3.152870	0.534111	-0.000032
1277	1.2696e+02	7.2964	11.806213	0.000283	2.825299	0.478619	-0.000028
1278	1.2706e+02	7.2900	11.782180	0.000242	2.415835	0.409254	-0.000024
1279	1.2716e+02	7.2796	11.754073	0.000283	2.825299	0.478619	-0.000028
1280	1.2726e+02	7.2705	11.723930	0.000303	3.030031	0.513301	-0.000030
1281	1.2736e+02	7.2581	11.694194	0.000299	2.989084	0.506365	-0.000030
1282	1.2746e+02	7.2511	11.668124	0.000262	2.620567	0.443936	-0.000026
1283	1.2756e+02	7.2393	11.641239	0.000270	2.702460	0.457809	-0.000027
1284	1.2766e+02	7.2291	11.613132	0.000283	2.825299	0.478619	-0.000028
1285	1.2776e+02	7.2186	11.588285	0.000250	2.497728	0.423127	-0.000025
1286	1.2786e+02	7.2107	11.562215	0.000262	2.620567	0.443936	-0.000026
1287	1.2796e+02	7.2022	11.533293	0.000291	2.907192	0.492492	-0.000029
1288	1.2806e+02	7.1883	11.505187	0.000283	2.825299	0.478619	-0.000028
1289	1.2816e+02	7.1794	11.478302	0.000270	2.702460	0.457809	-0.000027
1290	1.2826e+02	7.1700	11.450603	0.000278	2.784353	0.471682	-0.000028
1291	1.2835e+02	7.1619	11.424533	0.000262	2.620567	0.443936	-0.000026
1292	1.2845e+02	7.1474	11.398056	0.000266	2.661513	0.450873	-0.000027
1293	1.2855e+02	7.1405	11.369134	0.000291	2.907192	0.492492	-0.000029
1294	1.2865e+02	7.1310	11.340620	0.000287	2.866245	0.485555	-0.000029
1295	1.2875e+02	7.1202	11.312514	0.000283	2.825299	0.478619	-0.000028
1296	1.2885e+02	7.1089	11.284814	0.000278	2.784353	0.471682	-0.000028
1297	1.2895e+02	7.1014	11.259152	0.000258	2.579621	0.437000	-0.000026
1298	1.2905e+02	7.0885	11.228601	0.000307	3.070977	0.520238	-0.000031
1299	1.2915e+02	7.0792	11.206197	0.000225	2.252050	0.381508	-0.000023
1300	1.2925e+02	7.0704	11.174017	0.000323	3.234763	0.547984	-0.000032
1301	1.2935e+02	7.0606	11.150799	0.000233	2.333943	0.395381	-0.000023
1302	1.2945e+02	7.0499	11.123914	0.000270	2.702460	0.457809	-0.000027
1303	1.2955e+02	7.0419	11.096215	0.000278	2.784353	0.471682	-0.000028
1304	1.2965e+02	7.0319	11.073404	0.000229	2.292996	0.388444	-0.000023
1305	1.2975e+02	7.0188	11.042446	0.000311	3.111923	0.527174	-0.000031
1306	1.2985e+02	7.0105	11.014746	0.000278	2.784353	0.471682	-0.000028
1307	1.2995e+02	7.0000	10.991120	0.000237	2.374889	0.402317	-0.000024
1308	1.3005e+02	6.9913	10.963014	0.000283	2.825299	0.478619	-0.000028
1309	1.3015e+02	6.9814	10.930834	0.000323	3.234763	0.547984	-0.000032
1310	1.3025e+02	6.9707	10.906393	0.000246	2.456782	0.416190	-0.000025
1311	1.3034e+02	6.9618	10.878694	0.000278	2.784353	0.471682	-0.000028
1312	1.3044e+02	6.9496	10.849773	0.000291	2.907192	0.492492	-0.000029
1313	1.3054e+02	6.9434	10.827369	0.000225	2.252050	0.381508	-0.000023
1314	1.3064e+02	6.9335	10.799669	0.000278	2.784353	0.471682	-0.000028
1315	1.3074e+02	6.9206	10.776451	0.000233	2.333943	0.395381	-0.000023
1316	1.3084e+02	6.9118	10.749159	0.000274	2.743406	0.464746	-0.000027
1317	1.3094e+02	6.8980	10.721867	0.000274	2.743406	0.464746	-0.000027
1318	1.3104e+02	6.8903	10.699056	0.000229	2.292996	0.388444	-0.000023
1319	1.3114e+02	6.8846	10.673393	0.000258	2.579621	0.437000	-0.000026
1320	1.3124e+02	6.8717	10.644879	0.000287	2.866245	0.485555	-0.000029
1321	1.3134e+02	6.8606	10.618809	0.000262	2.620567	0.443936	-0.000026
1322	1.3144e+02	6.8506	10.591110	0.000278	2.784353	0.471682	-0.000028
1323	1.3154e+02	6.8433	10.566262	0.000250	2.497728	0.423127	-0.000025
1324	1.3164e+02	6.8327	10.536526	0.000299	2.989084	0.506365	-0.000030
1325	1.3174e+02	6.8247	10.516974	0.000197	1.965425	0.332952	-0.000020
1326	1.3184e+02	6.8116	10.485608	0.000315	3.152870	0.534111	-0.000032
1327	1.3194e+02	6.8008	10.461575	0.000242	2.415835	0.409254	-0.000024
1328	1.3204e+02	6.7950	10.435098	0.000266	2.661513	0.450873	-0.000027
1329	1.3214e+02	6.7831	10.409028	0.000262	2.620567	0.443936	-0.000026
1330	1.3224e+02	6.7728	10.382958	0.000262	2.620567	0.443936	-0.000026
1331	1.3234e+02	6.7632	10.358925	0.000242	2.415835	0.409254	-0.000024
1332	1.3243e+02	6.7500	10.334484	0.000246	2.456782	0.416190	-0.000025
1333	1.3253e+02	6.7435	10.309229	0.000254	2.538674	0.430063	-0.000025
1334	1.3263e+02	6.7334	10.282344	0.000270	2.702460	0.457809	-0.000027
1335	1.3273e+02	6.7220	10.256682	0.000258	2.579621	0.437000	-0.000026
1336	1.3283e+02	6.7117	10.228168	0.000287	2.866245	0.485555	-0.000029
1337	1.3293e+02	6.7062	10.202098	0.000262	2.620567	0.443936	-0.000026
1338	1.3303e+02	6.6908	10.174806	0.000274	2.743406	0.464746	-0.000027
1339	1.3313e+02	6.6818	10.145070	0.000299	2.989084	0.506365	-0.000030
1340	1.3323e+02	6.6741	10.117778	0.000274	2.743406	0.464746	-0.000027
1341	1.3333e+02	6.6628	10.089671	0.000283	2.825299	0.478619	-0.000028
1342	1.3343e+02	6.6546	10.064823	0.000250	2.497728	0.423127	-0.000025
1343	1.3353e+02	6.6433	10.039161	0.000258	2.579621	0.437000	-0.000026
1344	1.3363e+02	6.6335	10.011054	0.000283	2.825299	0.478619	-0.000028
1345	1.3373e+02	6.6228	9.982540	0.000287	2.866245	0.485555	-0.000029
1346	1.3383e+02	6.6128	9.958507	0.000242	2.415835	0.409254	-0.000024
1347	1.3393e+02	6.6033	9.930808	0.000278	2.784353	0.471682	-0.000028
1348	1.3403e+02	6.5923	9.902294	0.000287	2.866245	0.485555	-0.000029
1349	1.3413e+02	6.5826	9.875002	0.000274	2.743406	0.464746	-0.000027
1350	1.3423e+02	6.5707	9.848932	0.000262	2.620567	0.443936	-0.000026
1351	1.3432e+02	6.5621	9.815937	0.000332	3.316655	0.561857	-0.000033
1352	1.3442e+02	6.5531	9.788238	0.000278	2.784353	0.471682	-0.000028
1353	1.3452e+02	6.5425	9.756058	0.000323	3.234763	0.547984	-0.000032
1354	1.3462e+02	6.5330	9.728766	0.000274	2.743406	0.464746	-0.000027
1355	1.3472e+02	6.5231	9.696993	0.000319	3.193816	0.541047	-0.000032
1356	1.3482e+02	6.5157	9.663591	0.000336	3.357602	0.568793	-0.000034
1357	1.3492e+02	6.5032	9.639558	0.000242	2.415835	0.409254	-0.000024
1358	1.3502e+02	6.4931	9.609414	0.000303	3.030031	0.513301	-0.000030
1359	1.3512e+02	6.4835	9.574790	0.000348	3.480441	0.589603	-0.000035
1360	1.3522e+02	6.4752	9.548720	0.000262	2.620567	0.443936	-0.000026
1361	1.3532e+02	6.4648	9.516540	0.000323	3.234763	0.547984	-0.000032
1362	1.3542e+02	6.4529	9.487619	0.000291	2.907192	0.492492	-0.000029
1363	1.3552e+02	6.4415	9.455846	0.000319	3.193816	0.541047	-0.000032
1364	1.3562e+02	6.4335	9.427332	0.000287	2.866245	0.485555	-0.000029
1365	1.3572e+02	6.4233	9.398411	0.000291	2.907192	0.492492	-0.000029
1366	1.3582e+02	6.4152	9.366638	0.000319	3.193816	0.541047	-0.000032
1367	1.3592e+02	6.4050	9.334051	0.000328	3.275709	0.554920	-0.000033
1368	1.3602e+02	6.3950	9.300649	0.000336	3.357602	0.568793	-0.000034
1369	1.3612e+02	6.3819	9.270098	0.000307	3.070977	0.520238	-0.000031
1370	1.3622e+02	6.3738	9.237103	0.000332	3.316655	0.561857	-0.000033
1371	1.3631e+02	6.3644	9.211441	0.000258	2.579621	0.437000	-0.000026
1372	1.3641e+02	6.3535	9.182112	0.000295	2.948138	0.499428	-0.000029
1373	1.3651e+02	6.3445	9.146266	0.000360	3.603280	0.610412	-0.000036
1374	1.3661e+02	6.3311	9.117752	0.000287	2.866245	0.485555	-0.000029
1375	1.3671e+02	6.3237	9.084350	0.000336	3.357602	0.568793	-0.000034
1376	1.3681e+02	6.3127	9.050540	0.000340	3.398548	0.575730	-0.000034
1377	1.3691e+02	6.3046	9.018768	0.000319	3.193816	0.541047	-0.000032
1378	1.3701e+02	6.2943	8.993105	0.000258	2.579621	0.437000	-0.000026
1379	1.3711e+02	6.2853	8.960925	0.000323	3.234763	0.547984	-0.000032
1380	1.3721e+02	6.2751	8.931596	0.000295	2.948138	0.499428	-0.000029
1381	1.3731e+02	6.2663	8.901046	0.000307	3.070977	0.520238	-0.000031
1382	1.3741e+02	6.2569	8.868866	0.000323	3.234763	0.547984	-0.000032
1383	1.3751e+02	6.2481	8.835056	0.000340	3.398548	0.575730	-0.000034
1384	1.3761e+02	6.2357	8.800432	0.000348	3.480441	0.589603	-0.000035
1385	1.3771e+02	6.2243	8.770696	0.000299	2.989084	0.506365	-0.000030
1386	1.3781e+02	6.2164	8.735665	0.000352	3.521387	0.596539	-0.000035
1387	1.3791e+02	6.2032	8.703485	0.000323	3.234763	0.547984	-0.000032
1388	1.3801e+02	6.1931	8.675378	0.000283	2.825299	0.478619	-0.000028
1389	1.3811e+02	6.1868	8.639125	0.000364	3.644226	0.617349	-0.000036
1390	1.3821e+02	6.1781	8.611018	0.000283	2.825299	0.478619	-0.000028
1391	1.3831e+02	6.1666	8.581689	0.000295	2.948138	0.499428	-0.000029
1392	1.3840e+02	6.1552	8.546658	0.000352	3.521387	0.596539	-0.000035
1393	1.3850e+02	6.1465	8.514885	0.000319	3.193816	0.541047	-0.000032
1394	1.3860e+02	6.1370	8.479854	0.000352	3.521387	0.596539	-0.000035
1395	1.3870e+02	6.1252	8.450525	0.000295	2.948138	0.499428	-0.000029
1396	1.3880e+02	6.1154	8.413864	0.000369	3.685173	0.624285	-0.000037
1397	1.3890e+02	6.1068	8.381684	0.000323	3.234763	0.547984	-0.000032
1398	1.3900e+02	6.0959	8.351541	0.000303	3.030031	0.513301	-0.000030
1399	1.3910e+02	6.0875	8.310399	0.000414	4.135582	0.700587	-0.000041
1400	1.3920e+02	6.0772	8.280256	0.000303	3.030031	0.513301	-0.000030
1401	1.3930e+02	6.0636	8.245224	0.000352	3.521387	0.596539	-0.000035
1402	1.3940e+02	6.0552	8.209785	0.000356	3.562333	0.603476	-0.000036
1403	1.3950e+02	6.0469	8.175569	0.000344	3.439494	0.582666	-0.000034
1404	1.3960e+02	6.0381	8.143796	0.000319	3.193816	0.541047	-0.000032
1405	1.3970e+02	6.0260	8.107950	0.000360	3.603280	0.610412	-0.000036
1406	1.3980e+02	6.0183	8.076584	0.000315	3.152870	0.534111	-0.000032
1407	1.3990e+02	6.0067	8.043590	0.000332	3.316655	0.561857	-0.000033
1408	1.4000e+02	5.9962	8.008966	0.000348	3.480441	0.589603	-0.000035
1409	1.4010e+02	5.9869	7.977193	0.000319	3.193816	0.541047	-0.000032
1410	1.4020e+02	5.9760	7.942161	0.000352	3.521387	0.596539	-0.000035
1411	1.4029e+02	5.9692	7.906723	0.000356	3.562333	0.603476	-0.000036
1412	1.4039e+02	5.9570	7.873321	0.000336	3.357602	0.568793	-0.000034
1413	1.4049e+02	5.9455	7.837882	0.000356	3.562333	0.603476	-0.000036
1414	1.4059e+02	5.9377	7.797147	0.000409	4.094636	0.693650	-0.000041
1415	1.4069e+02	5.9281	7.765782	0.000315	3.152870	0.534111	-0.000032
1416	1.4079e+02	5.9176	7.732787	0.000332	3.316655	0.561857	-0.000033
1417	1.4089e+02	5.9069	7.698571	0.000344	3.439494	0.582666	-0.000034
1418	1.4099e+02	5.8959	7.664354	0.000344	3.439494	0.582666	-0.000034
1419	1.4109e+02	5.8892	7.628100	0.000364	3.644226	0.617349	-0.000036
1420	1.4119e+02	5.8762	7.598364	0.000299	2.989084	0.506365	-0.000030
1421	1.4129e+02	5.8673	7.560889	0.000377	3.767065	0.638158	-0.000038
1422	1.4139e+02	5.8546	7.523006	0.000381	3.808012	0.645095	-0.000038
1423	1.4149e+02	5.8463	7.494492	0.000287	2.866245	0.485555	-0.000029
1424	1.4159e+02	5.8376	7.461090	0.000336	3.357602	0.568793	-0.000034
1425	1.4169e+02	5.8277	7.430946	0.000303	3.030031	0.513301	-0.000030
1426	1.4179e+02	5.8170	7.391434	0.000397	3.971797	0.672841	-0.000040
1427	1.4189e+02	5.8064	7.356810	0.000348	3.480441	0.589603	-0.000035
1428	1.4199e+02	5.7992	7.323408	0.000336	3.357602	0.568793	-0.000034
1429	1.4209e+02	5.7862	7.290413	0.000332	3.316655	0.561857	-0.000033
1430	1.4219e+02	5.7801	7.257011	0.000336	3.357602	0.568793	-0.000034
1431	1.4228e+02	5.7687	7.222794	0.000344	3.439494	0.582666	-0.000034
1432	1.4238e+02	5.7574	7.187763	0.000352	3.521387	0.596539	-0.000035
1433	1.4248e+02	5.7472	7.158027	0.000299	2.989084	0.506365	-0.000030
1434	1.4258e+02	5.7354	7.125032	0.000332	3.316655	0.561857	-0.000033
1435	1.4268e+02	5.7250	7.093260	0.000319	3.193816	0.541047	-0.000032
1436	1.4278e+02	5.7156	7.059857	0.000336	3.357602	0.568793	-0.000034
1437	1.4288e+02	5.7064	7.027270	0.000328	3.275709	0.554920	-0.000033
1438	1.4298e+02	5.6959	6.997127	0.000303	3.030031	0.513301	-0.000030
1439	1.4308e+02	5.6861	6.964539	0.000328	3.275709	0.554920	-0.000033
1440	1.4318e+02	5.6783	6.935211	0.000295	2.948138	0.499428	-0.000029
1441	1.4328e+02	5.6684	6.901809	0.000336	3.357602	0.568793	-0.000034
1442	1.4338e+02	5.6579	6.868814	0.000332	3.316655	0.561857	-0.000033
1443	1.4348e+02	5.6496	6.840707	0.000283	2.825299	0.478619	-0.000028
1444	1.4358e+02	5.6374	6.804861	0.000360	3.603280	0.610412	-0.000036
1445	1.4368e+02	5.6277	6.775532	0.000295	2.948138	0.499428	-0.000029
1446	1.4378e+02	5.6155	6.738872	0.000369	3.685173	0.624285	-0.000037
1447	1.4388e+02	5.6056	6.708728	0.000303	3.030031	0.513301	-0.000030
1448	1.4398e+02	5.5982	6.676548	0.000323	3.234763	0.547984	-0.000032
1449	1.4408e+02	5.5875	6.647219	0.000295	2.948138	0.499428	-0.000029
1450	1.4418e+02	5.5753	6.617483	0.000299	2.989084	0.506365	-0.000030
1451	1.4428e+02	5.5679	6.587747	0.000299	2.989084	0.506365	-0.000030
1452	1.4437e+02	5.5561	6.553123	0.000348	3.480441	0.589603	-0.000035
1453	1.4447e+02	5.5486	6.521351	0.000319	3.193816	0.541047	-0.000032
1454	1.4457e+02	5.5410	6.492022	0.000295	2.948138	0.499428	-0.000029
1455	1.4467e+02	5.5306	6.462286	0.000299	2.989084	0.506365	-0.000030
1456	1.4477e+02	5.5175	6.430513	0.000319	3.193816	0.541047	-0.000032
1457	1.4487e+02	5.5081	6.401185	0.000295	2.948138	0.499428	-0.000029
1458	1.4497e+02	5.5010	6.369412	0.000319	3.193816	0.541047	-0.000032
1459	1.4507e+02	5.4867	6.333566	0.000360	3.603280	0.610412	-0.000036
1460	1.4517e+02	5.4788	6.304644	0.000291	2.907192	0.492492	-0.000029
1461	1.4527e+02	5.4691	6.272464	0.000323	3.234763	0.547984	-0.000032
1462	1.4537e+02	5.4585	6.241099	0.000315	3.152870	0.534111	-0.000032
1463	1.4547e+02	5.4479	6.208919	0.000323	3.234763	0.547984	-0.000032
1464	1.4557e+02	5.4394	6.176331	0.000328	3.275709	0.554920	-0.000033
1465	1.4567e+02	5.4292	6.151076	0.000254	2.538674	0.430063	-0.000025
1466	1.4577e+02	5.4183	6.118489	0.000328	3.275709	0.554920	-0.000033
1467	1.4587e+02	5.4095	6.085087	0.000336	3.357602	0.568793	-0.000034
1468	1.4597e+02	5.3984	6.054536	0.000307	3.070977	0.520238	-0.000031
1469	1.4607e+02	5.3893	6.027244	0.000274	2.743406	0.464746	-0.000027
1470	1.4617e+02	5.3774	5.993435	0.000340	3.398548	0.575730	-0.000034
1471	1.4626e+02	5.3699	5.964513	0.000291	2.907192	0.492492	-0.000029
1472	1.4636e+02	5.3582	5.930704	0.000340	3.398548	0.575730	-0.000034
1473	1.4646e+02	5.3477	5.901375	0.000295	2.948138	0.499428	-0.000029
1474	1.4656e+02	5.3404	5.870825	0.000307	3.070977	0.520238	-0.000031
1475	1.4666e+02	5.3283	5.839459	0.000315	3.152870	0.534111	-0.000032
1476	1.4676e+02	5.3204	5.805242	0.000344	3.439494	0.582666	-0.000034
1477	1.4686e+02	5.3087	5.776728	0.000287	2.866245	0.485555	-0.000029
1478	1.4696e+02	5.3013	5.748214	0.000287	2.866245	0.485555	-0.000029
1479	1.4706e+02	5.2904	5.717664	0.000307	3.070977	0.520238	-0.000031
1480	1.4716e+02	5.2784	5.684669	0.000332	3.316655	0.561857	-0.000033
1481	1.4726e+02	5.2704	5.655748	0.000291	2.907192	0.492492	-0.000029
1482	1.4736e+02	5.2598	5.623160	0.000328	3.275709	0.554920	-0.000033
1483	1.4746e+02	5.2496	5.600349	0.000229	2.292996	0.388444	-0.000023
1484	1.4756e+02	5.2435	5.564096	0.000364	3.644226	0.617349	-0.000036
1485	1.4766e+02	5.2332	5.538026	0.000262	2.620567	0.443936	-0.000026
1486	1.4776e+02	5.2194	5.505846	0.000323	3.234763	0.547984	-0.000032
1487	1.4786e+02	5.2100	5.479368	0.000266	2.661513	0.450873	-0.000027
1488	1.4796e+02	5.1992	5.448003	0.000315	3.152870	0.534111	-0.000032
1489	1.4806e+02	5.1891	5.413379	0.000348	3.480441	0.589603	-0.000035
1490	1.4816e+02	5.1796	5.381199	0.000323	3.234763	0.547984	-0.000032
1491	1.4825e+02	5.1702	5.350648	0.000307	3.070977	0.520238	-0.000031
1492	1.4835e+02	5.1622	5.324986	0.000258	2.579621	0.437000	-0.000026
1493	1.4845e+02	5.1507	5.292398	0.000328	3.275709	0.554920	-0.000033
1494	1.4855e+02	5.1424	5.262255	0.000303	3.030031	0.513301	-0.000030
1495	1.4865e+02	5.1292	5.234148	0.000283	2.825299	0.478619	-0.000028
1496	1.4875e+02	5.1183	5.204412	0.000299	2.989084	0.506365	-0.000030
1497	1.4885e+02	5.1117	5.171825	0.000328	3.275709	0.554920	-0.000033
1498	1.4895e+02	5.1037	5.143311	0.000287	2.866245	0.485555	-0.000029
1499	1.4905e+02	5.0901	5.113167	0.000303	3.030031	0.513301	-0.000030
1500	1.4915e+02	5.0811	5.083024	0.000303	3.030031	0.513301	-0.000030
1501	1.4925e+02	5.0726	5.054103	0.000291	2.907192	0.492492	-0.000029
1502	1.4935e+02	5.0603	5.023552	0.000307	3.070977	0.520238	-0.000031
1503	1.4945e+02	5.0515	4.995445	0.000283	2.825299	0.478619	-0.000028
1504	1.4955e+02	5.0404	4.962043	0.000336	3.357602	0.568793	-0.000034
1505	1.4965e+02	5.0297	4.932307	0.000299	2.989084	0.506365	-0.000030
1506	1.4975e+02	5.0231	4.900535	0.000319	3.193816	0.541047	-0.000032
1507	1.4985e+02	5.0120	4.871206	0.000295	2.948138	0.499428	-0.000029
1508	1.4995e+02	5.0027	4.837804	0.000336	3.357602	0.568793	-0.000034
1509	1.5005e+02	4.9920	4.809290	0.000287	2.866245	0.485555	-0.000029
1510	1.5015e+02	4.9828	4.777110	0.000323	3.234763	0.547984	-0.000032
1511	1.5025e+02	4.9720	4.748188	0.000291	2.907192	0.492492	-0.000029
1512	1.5034e+02	4.9624	4.715194	0.000332	3.316655	0.561857	-0.000033
1513	1.5044e+02	4.9519	4.684236	0.000311	3.111923	0.527174	-0.000031
1514	1.5054e+02	4.9407	4.656944	0.000274	2.743406	0.464746	-0.000027
1515	1.5064e+02	4.9332	4.617431	0.000397	3.971797	0.672841	-0.000040
1516	1.5074e+02	4.9253	4.589325	0.000283	2.825299	0.478619	-0.000028
1517	1.5084e+02	4.9104	4.557145	0.000323	3.234763	0.547984	-0.000032
1518	1.5094e+02	4.9001	4.524150	0.000332	3.316655	0.561857	-0.000033
1519	1.5104e+02	4.8931	4.491970	0.000323	3.234763	0.547984	-0.000032
1520	1.5114e+02	4.8823	4.458975	0.000332	3.316655	0.561857	-0.000033
1521	1.5124e+02	4.8727	4.422722	0.000364	3.644226	0.617349	-0.000036
1522	1.5134e+02	4.8629	4.388912	0.000340	3.398548	0.575730	-0.000034
1523	1.5144e+02	4.8531	4.357547	0.000315	3.152870	0.534111	-0.000032
1524	1.5154e+02	4.8413	4.321293	0.000364	3.644226	0.617349	-0.000036
1525	1.5164e+02	4.8318	4.288706	0.000328	3.275709	0.554920	-0.000033
1526	1.5174e+02	4.8228	4.255304	0.000336	3.357602	0.568793	-0.000034
1527	1.5184e+02	4.8100	4.217014	0.000385	3.848958	0.652031	-0.000038
1528	1.5194e+02	4.8022	4.185648	0.000315	3.152870	0.534111	-0.000032
1529	1.5204e+02	4.7923	4.152246	0.000336	3.357602	0.568793	-0.000034
1530	1.5214e+02	4.7808	4.115178	0.000373	3.726119	0.631222	-0.000037
1531	1.5224e+02	4.7717	4.081776	0.000336	3.357602	0.568793	-0.000034
1532	1.5233e+02	4.7614	4.046745	0.000352	3.521387	0.596539	-0.000035
1533	1.5243e+02	4.7523	4.013342	0.000336	3.357602	0.568793	-0.000034
1534	1.5253e+02	4.7410	3.976274	0.000373	3.726119	0.631222	-0.000037
1535	1.5263e+02	4.7338	3.940428	0.000360	3.603280	0.610412	-0.000036
1536	1.5273e+02	4.7246	3.907026	0.000336	3.357602	0.568793	-0.000034
1537	1.5283e+02	4.7153	3.869143	0.000381	3.808012	0.645095	-0.000038
1538	1.5293e+02	4.7024	3.837371	0.000319	3.193816	0.541047	-0.000032
1539	1.5303e+02	4.6927	3.799080	0.000385	3.848958	0.652031	-0.000038
1540	1.5313e+02	4.6822	3.763234	0.000360	3.603280	0.610412	-0.000036
1541	1.5323e+02	4.6745	3.732683	0.000307	3.070977	0.520238	-0.000031
1542	1.5333e+02	4.6623	3.693171	0.000397	3.971797	0.672841	-0.000040
1543	1.5343e+02	4.6531	3.659362	0.000340	3.398548	0.575730	-0.000034
1544	1.5353e+02	4.6423	3.624330	0.000352	3.521387	0.596539	-0.000035
1545	1.5363e+02	4.6336	3.587670	0.000369	3.685173	0.624285	-0.000037
1546	1.5373e+02	4.6233	3.549787	0.000381	3.808012	0.645095	-0.000038
1547	1.5383e+02	4.6136	3.521273	0.000287	2.866245	0.485555	-0.000029
1548	1.5393e+02	4.6035	3.483390	0.000381	3.808012	0.645095	-0.000038
1549	1.5403e+02	4.5914	3.447951	0.000356	3.562333	0.603476	-0.000036
1550	1.5413e+02	4.5840	3.406402	0.000418	4.176529	0.707523	-0.000042
1551	1.5422e+02	4.5736	3.374222	0.000323	3.234763	0.547984	-0.000032
1552	1.5432e+02	4.5644	3.335117	0.000393	3.930851	0.665904	-0.000039
1553	1.5442e+02	4.5522	3.300493	0.000348	3.480441	0.589603	-0.000035
1554	1.5452e+02	4.5411	3.263832	0.000369	3.685173	0.624285	-0.000037
1555	1.5462e+02	4.5321	3.223098	0.000409	4.094636	0.693650	-0.000041
1556	1.5472e+02	4.5228	3.189696	0.000336	3.357602	0.568793	-0.000034
1557	1.5482e+02	4.5101	3.155886	0.000340	3.398548	0.575730	-0.000034
1558	1.5492e+02	4.5036	3.118818	0.000373	3.726119	0.631222	-0.000037
1559	1.5502e+02	4.4949	3.084601	0.000344	3.439494	0.582666	-0.000034
1560	1.5512e+02	4.4841	3.045089	0.000397	3.971797	0.672841	-0.000040
1561	1.5522e+02	4.4731	3.010465	0.000348	3.480441	0.589603	-0.000035
1562	1.5532e+02	4.4643	2.970953	0.000397	3.971797	0.672841	-0.000040
1563	1.5542e+02	4.4532	2.937958	0.000332	3.316655	0.561857	-0.000033
1564	1.5552e+02	4.4439	2.900890	0.000373	3.726119	0.631222	-0.000037
1565	1.5562e+02	4.4333	2.857712	0.000434	4.340314	0.735269	-0.000043
1566	1.5572e+02	4.4223	2.819421	0.000385	3.848958	0.652031	-0.000038
1567	1.5582e+02	4.4138	2.781946	0.000377	3.767065	0.638158	-0.000038
1568	1.5592e+02	4.4041	2.744470	0.000377	3.767065	0.638158	-0.000038
1569	1.5602e+02	4.3941	2.704958	0.000397	3.971797	0.672841	-0.000040
1570	1.5612e+02	4.3836	2.669112	0.000360	3.603280	0.610412	-0.000036
1571	1.5622e+02	4.3777	2.627970	0.000414	4.135582	0.700587	-0.000041
1572	1.5631e+02	4.3627	2.595790	0.000323	3.234763	0.547984	-0.000032
1573	1.5641e+02	4.3543	2.556686	0.000393	3.930851	0.665904	-0.000039
1574	1.5651e+02	4.3439	2.517173	0.000397	3.971797	0.672841	-0.000040
1575	1.5661e+02	4.3327	2.479698	0.000377	3.767065	0.638158	-0.000038
1576	1.5671e+02	4.3225	2.437334	0.000426	4.258422	0.721396	-0.000043
1577	1.5681e+02	4.3148	2.404339	0.000332	3.316655	0.561857	-0.000033
1578	1.5691e+02	4.3044	2.363198	0.000414	4.135582	0.700587	-0.000041
1579	1.5701e+02	4.2947	2.324093	0.000393	3.930851	0.665904	-0.000039
1580	1.5711e+02	4.2861	2.280100	0.000442	4.422207	0.749142	-0.000044
1581	1.5721e+02	4.2728	2.247105	0.000332	3.316655	0.561857	-0.000033
1582	1.5731e+02	4.2652	2.204334	0.000430	4.299368	0.728333	-0.000043
1583	1.5741e+02	4.2548	2.164007	0.000405	4.053690	0.686714	-0.000041
1584	1.5751e+02	4.2451	2.125717	0.000385	3.848958	0.652031	-0.000038
1585	1.5761e+02	4.2323	2.087427	0.000385	3.848958	0.652031	-0.000038
1586	1.5771e+02	4.2247	2.050359	0.000373	3.726119	0.631222	-0.000037
1587	1.5781e+02	4.2156	2.011254	0.000393	3.930851	0.665904	-0.000039
1588	1.5791e+02	4.2058	1.974593	0.000369	3.685173	0.624285	-0.000037
1589	1.5801e+02	4.1970	1.938340	0.000364	3.644226	0.617349	-0.000036
1590	1.5811e+02	4.1832	1.895569	0.000430	4.299368	0.728333	-0.000043
1591	1.5821e+02	4.1776	1.860537	0.000352	3.521387	0.596539	-0.000035
1592	1.5830e+02	4.1637	1.823876	0.000369	3.685173	0.624285	-0.000037
1593	1.5840e+02	4.1561	1.779883	0.000442	4.422207	0.749142	-0.000044
1594	1.5850e+02	4.1428	1.744037	0.000360	3.603280	0.610412	-0.000036
1595	1.5860e+02	4.1342	1.704525	0.000397	3.971797	0.672841	-0.000040
1596	1.5870e+02	4.1238	1.669086	0.000356	3.562333	0.603476	-0.000036
1597	1.5880e+02	4.1174	1.627537	0.000418	4.176529	0.707523	-0.000042
1598	1.5890e+02	4.1064	1.590876	0.000369	3.685173	0.624285	-0.000037
1599	1.5900e+02	4.0938	1.551364	0.000397	3.971797	0.672841	-0.000040
1600	1.5910e+02	4.0871	1.517147	0.000344	3.439494	0.582666	-0.000034
1601	1.5920e+02	4.0733	1.479264	0.000381	3.808012	0.645095	-0.000038
1602	1.5930e+02	4.0646	1.440567	0.000389	3.889904	0.658968	-0.000039
1603	1.5940e+02	4.0565	1.406350	0.000344	3.439494	0.582666	-0.000034
1604	1.5950e+02	4.0434	1.368060	0.000385	3.848958	0.652031	-0.000038
1605	1.5960e+02	4.0353	1.333436	0.000348	3.480441	0.589603	-0.000035
1606	1.5970e+02	4.0292	1.296775	0.000369	3.685173	0.624285	-0.000037
1607	1.5980e+02	4.0158	1.260929	0.000360	3.603280	0.610412	-0.000036
1608	1.5990e+02	4.0062	1.221417	0.000397	3.971797	0.672841	-0.000040
1609	1.6000e+02	3.9967	1.185570	0.000360	3.603280	0.610412	-0.000036
1610	1.6010e+02	3.9863	1.149317	0.000364	3.644226	0.617349	-0.000036
1611	1.6019e+02	3.9744	1.114286	0.000352	3.521387	0.596539	-0.000035
1612	1.6029e+02	3.9671	1.076403	0.000381	3.808012	0.645095	-0.000038
1613	1.6039e+02	3.9564	1.045445	0.000311	3.111923	0.527174	-0.000031
1614	1.6049e+02	3.9464	1.004303	0.000414	4.135582	0.700587	-0.000041
1615	1.6059e+02	3.9365	0.967642	0.000369	3.685173	0.624285	-0.000037
1616	1.6069e+02	3.9256	0.933425	0.000344	3.439494	0.582666	-0.000034
1617	1.6079e+02	3.9141	0.898394	0.000352	3.521387	0.596539	-0.000035
1618	1.6089e+02	3.9068	0.860104	0.000385	3.848958	0.652031	-0.000038
1619	1.6099e+02	3.8987	0.825480	0.000348	3.480441	0.589603	-0.000035
1620	1.6109e+02	3.8882	0.792078	0.000336	3.357602	0.568793	-0.000034
1621	1.6119e+02	3.8761	0.756639	0.000356	3.562333	0.603476	-0.000036
1622	1.6129e+02	3.8665	0.723644	0.000332	3.316655	0.561857	-0.000033
1623	1.6139e+02	3.8561	0.688205	0.000356	3.562333	0.603476	-0.000036
1624	1.6149e+02	3.8482	0.647878	0.000405	4.053690	0.686714	-0.000041
1625	1.6159e+02	3.8331	0.610403	0.000377	3.767065	0.638158	-0.000038
1626	1.6169e+02	3.8274	0.578223	0.000323	3.234763	0.547984	-0.000032
1627	1.6179e+02	3.8165	0.538711	0.000397	3.971797	0.672841	-0.000040
1628	1.6189e+02	3.8078	0.504086	0.000348	3.480441	0.589603	-0.000035
1629	1.6199e+02	3.7994	0.469462	0.000348	3.480441	0.589603	-0.000035
1630	1.6209e+02	3.7887	0.430357	0.000393	3.930851	0.665904	-0.000039
1631	1.6219e+02	3.7790	0.398585	0.000319	3.193816	0.541047	-0.000032
1632	1.6228e+02	3.7664	0.360294	0.000385	3.848958	0.652031	-0.000038
1633	1.6238e+02	3.7589	0.329744	0.000307	3.070977	0.520238	-0.000031
1634	1.6248e+02	3.7469	0.291454	0.000385	3.848958	0.652031	-0.000038
1635	1.6258e+02	3.7379	0.251941	0.000397	3.971797	0.672841	-0.000040
1636	1.6268e+02	3.7324	0.222205	0.000299	2.989084	0.506365	-0.000030
1637	1.6278e+02	3.7176	0.181878	0.000405	4.053690	0.686714	-0.000041
1638	1.6288e+02	3.7089	0.148476	0.000336	3.357602	0.568793	-0.000034
1639	1.6298e+02	3.6962	0.113445	0.000352	3.521387	0.596539	-0.000035
1640	1.6308e+02	3.6880	0.079228	0.000344	3.439494	0.582666	-0.000034
1641	1.6318e+02	3.6782	0.040938	0.000385	3.848958	0.652031	-0.000038
1642	1.6328e+02	3.6666	0.002648	0.000385	3.848958	0.652031	-0.000038
1643	1.6338e+02	3.6589	-0.031569	0.000344	3.439494	0.582666	-0.000034
1644	1.6348e+02	3.6468	-0.068637	0.000373	3.726119	0.631222	-0.000037
1645	1.6358e+02	3.6385	-0.105298	0.000369	3.685173	0.624285	-0.000037
1646	1.6368e+02	3.6285	-0.139515	0.000344	3.439494	0.582666	-0.000034
1647	1.6378e+02	3.6178	-0.176583	0.000373	3.726119	0.631222	-0.000037
1648	1.6388e+02	3.6095	-0.209170	0.000328	3.275709	0.554920	-0.000033
1649	1.6398e+02	3.5963	-0.245017	0.000360	3.603280	0.610412	-0.000036
1650	1.6408e+02	3.5894	-0.274345	0.000295	2.948138	0.499428	-0.000029
1651	1.6418e+02	3.5778	-0.307340	0.000332	3.316655	0.561857	-0.000033
1652	1.6427e+02	3.5710	-0.346852	0.000397	3.971797	0.672841	-0.000040
1653	1.6437e+02	3.5586	-0.375774	0.000291	2.907192	0.492492	-0.000029
1654	1.6447e+02	3.5473	-0.415286	0.000397	3.971797	0.672841	-0.000040
1655	1.6457e+02	3.5381	-0.452761	0.000377	3.767065	0.638158	-0.000038
1656	1.6467e+02	3.5275	-0.488607	0.000360	3.603280	0.610412	-0.000036
1657	1.6477e+02	3.5195	-0.522417	0.000340	3.398548	0.575730	-0.000034
1658	1.6487e+02	3.5110	-0.558670	0.000364	3.644226	0.617349	-0.000036
1659	1.6497e+02	3.4981	-0.591258	0.000328	3.275709	0.554920	-0.000033
1660	1.6507e+02	3.4883	-0.624660	0.000336	3.357602	0.568793	-0.000034
1661	1.6517e+02	3.4795	-0.660913	0.000364	3.644226	0.617349	-0.000036
1662	1.6527e+02	3.4672	-0.696352	0.000356	3.562333	0.603476	-0.000036
1663	1.6537e+02	3.4583	-0.729754	0.000336	3.357602	0.568793	-0.000034
1664	1.6547e+02	3.4488	-0.764786	0.000352	3.521387	0.596539	-0.000035
1665	1.6557e+02	3.4373	-0.798188	0.000336	3.357602	0.568793	-0.000034
1666	1.6567e+02	3.4277	-0.833627	0.000356	3.562333	0.603476	-0.000036
1667	1.6577e+02	3.4190	-0.866214	0.000328	3.275709	0.554920	-0.000033
1668	1.6587e+02	3.4111	-0.900023	0.000340	3.398548	0.575730	-0.000034
1669	1.6597e+02	3.3994	-0.937092	0.000373	3.726119	0.631222	-0.000037
1670	1.6607e+02	3.3897	-0.976196	0.000393	3.930851	0.665904	-0.000039
1671	1.6616e+02	3.3793	-1.010413	0.000344	3.439494	0.582666	-0.000034
1672	1.6626e+02	3.3680	-1.043815	0.000336	3.357602	0.568793	-0.000034
1673	1.6636e+02	3.3598	-1.083328	0.000397	3.971797	0.672841	-0.000040
1674	1.6646e+02	3.3481	-1.119174	0.000360	3.603280	0.610412	-0.000036
1675	1.6656e+02	3.3409	-1.155020	0.000360	3.603280	0.610412	-0.000036
1676	1.6666e+02	3.3324	-1.189644	0.000348	3.480441	0.589603	-0.000035
1677	1.6676e+02	3.3190	-1.225490	0.000360	3.603280	0.610412	-0.000036
1678	1.6686e+02	3.3111	-1.262966	0.000377	3.767065	0.638158	-0.000038
1679	1.6696e+02	3.3001	-1.296775	0.000340	3.398548	0.575730	-0.000034
1680	1.6706e+02	3.2890	-1.333843	0.000373	3.726119	0.631222	-0.000037
1681	1.6716e+02	3.2796	-1.365616	0.000319	3.193816	0.541047	-0.000032
1682	1.6726e+02	3.2696	-1.403906	0.000385	3.848958	0.652031	-0.000038
1683	1.6736e+02	3.2594	-1.443418	0.000397	3.971797	0.672841	-0.000040
1684	1.6746e+02	3.2488	-1.478042	0.000348	3.480441	0.589603	-0.000035
1685	1.6756e+02	3.2380	-1.516333	0.000385	3.848958	0.652031	-0.000038
1686	1.6766e+02	3.2284	-1.557067	0.000409	4.094636	0.693650	-0.000041
1687	1.6776e+02	3.2192	-1.596579	0.000397	3.971797	0.672841	-0.000040
1688	1.6786e+02	3.2113	-1.629981	0.000336	3.357602	0.568793	-0.000034
1689	1.6796e+02	3.2015	-1.671123	0.000414	4.135582	0.700587	-0.000041
1690	1.6806e+02	3.1910	-1.709413	0.000385	3.848958	0.652031	-0.000038
1691	1.6816e+02	3.1789	-1.746481	0.000373	3.726119	0.631222	-0.000037
1692	1.6825e+02	3.1707	-1.788030	0.000418	4.176529	0.707523	-0.000042
1693	1.6835e+02	3.1601	-1.826320	0.000385	3.848958	0.652031	-0.000038
1694	1.6845e+02	3.1519	-1.867055	0.000409	4.094636	0.693650	-0.000041
1695	1.6855e+02	3.1411	-1.907789	0.000409	4.094636	0.693650	-0.000041
1696	1.6865e+02	3.1298	-1.944450	0.000369	3.685173	0.624285	-0.000037
1697	1.6875e+02	3.1210	-1.984369	0.000401	4.012743	0.679777	-0.000040
1698	1.6885e+02	3.1115	-2.023474	0.000393	3.930851	0.665904	-0.000039
1699	1.6895e+02	3.1031	-2.062986	0.000397	3.971797	0.672841	-0.000040
1700	1.6905e+02	3.0910	-2.102499	0.000397	3.971797	0.672841	-0.000040
1701	1.6915e+02	3.0798	-2.145677	0.000434	4.340314	0.735269	-0.000043
1702	1.6925e+02	3.0704	-2.182745	0.000373	3.726119	0.631222	-0.000037
1703	1.6935e+02	3.0606	-2.222665	0.000401	4.012743	0.679777	-0.000040
1704	1.6945e+02	3.0508	-2.265436	0.000430	4.299368	0.728333	-0.000043
1705	1.6955e+02	3.0398	-2.305763	0.000405	4.053690	0.686714	-0.000041
1706	1.6965e+02	3.0290	-2.341609	0.000360	3.603280	0.610412	-0.000036
1707	1.6975e+02	3.0208	-2.381936	0.000405	4.053690	0.686714	-0.000041
1708	1.6985e+02	3.0103	-2.425929	0.000442	4.422207	0.749142	-0.000044
1709	1.6995e+02	3.0013	-2.463811	0.000381	3.808012	0.645095	-0.000038
1710	1.7005e+02	2.9908	-2.504953	0.000414	4.135582	0.700587	-0.000041
1711	1.7015e+02	2.9799	-2.547317	0.000426	4.258422	0.721396	-0.000043
1712	1.7024e+02	2.9699	-2.586829	0.000397	3.971797	0.672841	-0.000040
1713	1.7034e+02	2.9638	-2.627970	0.000414	4.135582	0.700587	-0.000041
1714	1.7044e+02	2.9518	-2.667075	0.000393	3.930851	0.665904	-0.000039
1715	1.7054e+02	2.9409	-2.711883	0.000450	4.504100	0.763015	-0.000045
1716	1.7064e+02	2.9316	-2.749359	0.000377	3.767065	0.638158	-0.000038
1717	1.7074e+02	2.9222	-2.790907	0.000418	4.176529	0.707523	-0.000042
1718	1.7084e+02	2.9119	-2.836123	0.000455	4.545046	0.769952	-0.000045
1719	1.7094e+02	2.9054	-2.874005	0.000381	3.808012	0.645095	-0.000038
1720	1.7104e+02	2.8922	-2.915147	0.000414	4.135582	0.700587	-0.000041
1721	1.7114e+02	2.8864	-2.959955	0.000450	4.504100	0.763015	-0.000045
1722	1.7124e+02	2.8718	-2.999467	0.000397	3.971797	0.672841	-0.000040
1723	1.7134e+02	2.8624	-3.038979	0.000397	3.971797	0.672841	-0.000040
1724	1.7144e+02	2.8539	-3.082972	0.000442	4.422207	0.749142	-0.000044
1725	1.7154e+02	2.8417	-3.124928	0.000422	4.217475	0.714460	-0.000042
1726	1.7164e+02	2.8313	-3.166070	0.000414	4.135582	0.700587	-0.000041
1727	1.7174e+02	2.8208	-3.204768	0.000389	3.889904	0.658968	-0.000039
1728	1.7184e+02	2.8130	-3.245094	0.000405	4.053690	0.686714	-0.000041
1729	1.7194e+02	2.8004	-3.289495	0.000446	4.463153	0.756079	-0.000045
1730	1.7204e+02	2.7942	-3.331451	0.000422	4.217475	0.714460	-0.000042
1731	1.7213e+02	2.7795	-3.375444	0.000442	4.422207	0.749142	-0.000044
1732	1.7223e+02	2.7731	-3.419030	0.000438	4.381261	0.742206	-0.000044
1733	1.7233e+02	2.7609	-3.457727	0.000389	3.889904	0.658968	-0.000039
1734	1.7243e+02	2.7506	-3.504979	0.000475	4.749778	0.804634	-0.000047
1735	1.7253e+02	2.7423	-3.550194	0.000455	4.545046	0.769952	-0.000045
1736	1.7263e+02	2.7348	-3.591336	0.000414	4.135582	0.700587	-0.000041
1737	1.7273e+02	2.7223	-3.637365	0.000463	4.626939	0.783825	-0.000046
1738	1.7283e+02	2.7141	-3.680951	0.000438	4.381261	0.742206	-0.000044
1739	1.7293e+02	2.7044	-3.719241	0.000385	3.848958	0.652031	-0.000038
1740	1.7303e+02	2.6924	-3.766493	0.000475	4.749778	0.804634	-0.000047
1741	1.7313e+02	2.6804	-3.806005	0.000397	3.971797	0.672841	-0.000040
1742	1.7323e+02	2.6721	-3.852035	0.000463	4.626939	0.783825	-0.000046
1743	1.7333e+02	2.6627	-3.895213	0.000434	4.340314	0.735269	-0.000043
1744	1.7343e+02	2.6531	-3.942058	0.000471	4.708832	0.797698	-0.000047
1745	1.7353e+02	2.6421	-3.983199	0.000414	4.135582	0.700587	-0.000041
1746	1.7363e+02	2.6301	-4.026785	0.000438	4.381261	0.742206	-0.000044
1747	1.7373e+02	2.6245	-4.071592	0.000450	4.504100	0.763015	-0.000045
1748	1.7383e+02	2.6124	-4.123325	0.000520	5.200188	0.880936	-0.000052
1749	1.7393e+02	2.6021	-4.160800	0.000377	3.767065	0.638158	-0.000038
1750	1.7403e+02	2.5920	-4.206423	0.000459	4.585992	0.776888	-0.000046
1751	1.7413e+02	2.5814	-4.250416	0.000442	4.422207	0.749142	-0.000044
1752	1.7422e+02	2.5730	-4.295631	0.000455	4.545046	0.769952	-0.000045
1753	1.7432e+02	2.5634	-4.340031	0.000446	4.463153	0.756079	-0.000045
1754	1.7442e+02	2.5519	-4.379136	0.000393	3.930851	0.665904	-0.000039
1755	1.7452e+02	2.5453	-4.426795	0.000479	4.790724	0.811571	-0.000048
1756	1.7462e+02	2.5336	-4.470788	0.000442	4.422207	0.749142	-0.000044
1757	1.7472e+02	2.5228	-4.512744	0.000422	4.217475	0.714460	-0.000042
1758	1.7482e+02	2.5149	-4.557145	0.000446	4.463153	0.756079	-0.000045
1759	1.7492e+02	2.5030	-4.598694	0.000418	4.176529	0.707523	-0.000042
1760	1.7502e+02	2.4958	-4.641465	0.000430	4.299368	0.728333	-0.000043
1761	1.7512e+02	2.4845	-4.685458	0.000442	4.422207	0.749142	-0.000044
1762	1.7522e+02	2.4766	-4.730265	0.000450	4.504100	0.763015	-0.000045
1763	1.7532e+02	2.4627	-4.772629	0.000426	4.258422	0.721396	-0.000043
1764	1.7542e+02	2.4538	-4.815807	0.000434	4.340314	0.735269	-0.000043
1765	1.7552e+02	2.4440	-4.860208	0.000446	4.463153	0.756079	-0.000045
1766	1.7562e+02	2.4365	-4.902571	0.000426	4.258422	0.721396	-0.000043
1767	1.7572e+02	2.4219	-4.948601	0.000463	4.626939	0.783825	-0.000046
1768	1.7582e+02	2.4131	-4.989335	0.000409	4.094636	0.693650	-0.000041
1769	1.7592e+02	2.4059	-5.034143	0.000450	4.504100	0.763015	-0.000045
1770	1.7602e+02	2.3928	-5.071211	0.000373	3.726119	0.631222	-0.000037
1771	1.7612e+02	2.3824	-5.115611	0.000446	4.463153	0.756079	-0.000045
1772	1.7621e+02	2.3740	-5.157568	0.000422	4.217475	0.714460	-0.000042
1773	1.7631e+02	2.3666	-5.201968	0.000446	4.463153	0.756079	-0.000045
1774	1.7641e+02	2.3550	-5.241480	0.000397	3.971797	0.672841	-0.000040
1775	1.7651e+02	2.3424	-5.284251	0.000430	4.299368	0.728333	-0.000043
1776	1.7661e+02	2.3342	-5.322949	0.000389	3.889904	0.658968	-0.000039
1777	1.7671e+02	2.3248	-5.368978	0.000463	4.626939	0.783825	-0.000046
1778	1.7681e+02	2.3167	-5.410935	0.000422	4.217475	0.714460	-0.000042
1779	1.7691e+02	2.3067	-5.451669	0.000409	4.094636	0.693650	-0.000041
1780	1.7701e+02	2.2944	-5.490774	0.000393	3.930851	0.665904	-0.000039
1781	1.7711e+02	2.2839	-5.532323	0.000418	4.176529	0.707523	-0.000042
1782	1.7721e+02	2.2744	-5.575094	0.000430	4.299368	0.728333	-0.000043
1783	1.7731e+02	2.2655	-5.618272	0.000434	4.340314	0.735269	-0.000043
1784	1.7741e+02	2.2548	-5.659821	0.000418	4.176529	0.707523	-0.000042
1785	1.7751e+02	2.2457	-5.699333	0.000397	3.971797	0.672841	-0.000040
1786	1.7761e+02	2.2363	-5.741290	0.000422	4.217475	0.714460	-0.000042
1787	1.7771e+02	2.2251	-5.781209	0.000401	4.012743	0.679777	-0.000040
1788	1.7781e+02	2.2153	-5.824387	0.000434	4.340314	0.735269	-0.000043
1789	1.7791e+02	2.2059	-5.863492	0.000393	3.930851	0.665904	-0.000039
1790	1.7801e+02	2.1941	-5.907485	0.000442	4.422207	0.749142	-0.000044
1791	1.7810e+02	2.1851	-5.947812	0.000405	4.053690	0.686714	-0.000041
1792	1.7820e+02	2.1712	-5.986510	0.000389	3.889904	0.658968	-0.000039
1793	1.7830e+02	2.1672	-6.030503	0.000442	4.422207	0.749142	-0.000044
1794	1.7840e+02	2.1550	-6.070422	0.000401	4.012743	0.679777	-0.000040
1795	1.7850e+02	2.1468	-6.109935	0.000397	3.971797	0.672841	-0.000040
1796	1.7860e+02	2.1384	-6.152706	0.000430	4.299368	0.728333	-0.000043
1797	1.7870e+02	2.1242	-6.195477	0.000430	4.299368	0.728333	-0.000043
1798	1.7880e+02	2.1151	-6.237433	0.000422	4.217475	0.714460	-0.000042
1799	1.7890e+02	2.1037	-6.277760	0.000405	4.053690	0.686714	-0.000041
1800	1.7900e+02	2.0967	-6.320938	0.000434	4.340314	0.735269	-0.000043
1801	1.7910e+02	2.0856	-6.357192	0.000364	3.644226	0.617349	-0.000036
1802	1.7920e+02	2.0750	-6.400777	0.000438	4.381261	0.742206	-0.000044
1803	1.7930e+02	2.0640	-6.443548	0.000430	4.299368	0.728333	-0.000043
1804	1.7940e+02	2.0559	-6.484282	0.000409	4.094636	0.693650	-0.000041
1805	1.7950e+02	2.0461	-6.522573	0.000385	3.848958	0.652031	-0.000038
1806	1.7960e+02	2.0345	-6.566973	0.000446	4.463153	0.756079	-0.000045
1807	1.7970e+02	2.0243	-6.608115	0.000414	4.135582	0.700587	-0.000041
1808	1.7980e+02	2.0149	-6.650071	0.000422	4.217475	0.714460	-0.000042
1809	1.7990e+02	2.0084	-6.691212	0.000414	4.135582	0.700587	-0.000041
1810	1.8000e+02	1.9954	-6.732354	0.000414	4.135582	0.700587	-0.000041
1811	1.8009e+02	1.9852	-6.773496	0.000414	4.135582	0.700587	-0.000041
1812	1.8019e+02	1.9744	-6.814637	0.000414	4.135582	0.700587	-0.000041
1813	1.8029e+02	1.9649	-6.859038	0.000446	4.463153	0.756079	-0.000045
1814	1.8039e+02	1.9569	-6.896920	0.000381	3.808012	0.645095	-0.000038
1815	1.8049e+02	1.9460	-6.939691	0.000430	4.299368	0.728333	-0.000043
1816	1.8059e+02	1.9365	-6.973908	0.000344	3.439494	0.582666	-0.000034
1817	1.8069e+02	1.9249	-7.016272	0.000426	4.258422	0.721396	-0.000043
1818	1.8079e+02	1.9160	-7.059043	0.000430	4.299368	0.728333	-0.000043
1819	1.8089e+02	1.9035	-7.096518	0.000377	3.767065	0.638158	-0.000038
1820	1.8099e+02	1.8951	-7.138475	0.000422	4.217475	0.714460	-0.000042
1821	1.8109e+02	1.8876	-7.177987	0.000397	3.971797	0.672841	-0.000040
1822	1.8119e+02	1.8765	-7.215870	0.000381	3.808012	0.645095	-0.000038
1823	1.8129e+02	1.8666	-7.259048	0.000434	4.340314	0.735269	-0.000043
1824	1.8139e+02	1.8588	-7.298560	0.000397	3.971797	0.672841	-0.000040
1825	1.8149e+02	1.8446	-7.343775	0.000455	4.545046	0.769952	-0.000045
1826	1.8159e+02	1.8388	-7.379214	0.000356	3.562333	0.603476	-0.000036
1827	1.8169e+02	1.8264	-7.422392	0.000434	4.340314	0.735269	-0.000043
1828	1.8179e+02	1.8168	-7.464756	0.000426	4.258422	0.721396	-0.000043
1829	1.8189e+02	1.8079	-7.502639	0.000381	3.808012	0.645095	-0.000038
1830	1.8199e+02	1.7968	-7.545817	0.000434	4.340314	0.735269	-0.000043
1831	1.8209e+02	1.7882	-7.584922	0.000393	3.930851	0.665904	-0.000039
1832	1.8218e+02	1.7753	-7.624434	0.000397	3.971797	0.672841	-0.000040
1833	1.8228e+02	1.7651	-7.663946	0.000397	3.971797	0.672841	-0.000040
1834	1.8238e+02	1.7556	-7.702644	0.000389	3.889904	0.658968	-0.000039
1835	1.8248e+02	1.7471	-7.747452	0.000450	4.504100	0.763015	-0.000045
1836	1.8258e+02	1.7342	-7.785742	0.000385	3.848958	0.652031	-0.000038
1837	1.8268e+02	1.7272	-7.829328	0.000438	4.381261	0.742206	-0.000044
1838	1.8278e+02	1.7149	-7.868025	0.000389	3.889904	0.658968	-0.000039
1839	1.8288e+02	1.7068	-7.905908	0.000381	3.808012	0.645095	-0.000038
1840	1.8298e+02	1.7003	-7.950716	0.000450	4.504100	0.763015	-0.000045
1841	1.8308e+02	1.6866	-7.992672	0.000422	4.217475	0.714460	-0.000042
1842	1.8318e+02	1.6772	-8.032591	0.000401	4.012743	0.679777	-0.000040
1843	1.8328e+02	1.6684	-8.080251	0.000479	4.790724	0.811571	-0.000048
1844	1.8338e+02	1.6567	-8.119355	0.000393	3.930851	0.665904	-0.000039
1845	1.8348e+02	1.6479	-8.161719	0.000426	4.258422	0.721396	-0.000043
1846	1.8358e+02	1.6376	-8.200824	0.000393	3.930851	0.665904	-0.000039
1847	1.8368e+02	1.6273	-8.241558	0.000409	4.094636	0.693650	-0.000041
1848	1.8378e+02	1.6190	-8.285144	0.000438	4.381261	0.742206	-0.000044
1849	1.8388e+02	1.6051	-8.330766	0.000459	4.585992	0.776888	-0.000046
1850	1.8398e+02	1.5962	-8.366205	0.000356	3.562333	0.603476	-0.000036
1851	1.8407e+02	1.5903	-8.411013	0.000450	4.504100	0.763015	-0.000045
1852	1.8417e+02	1.5767	-8.451747	0.000409	4.094636	0.693650	-0.000041
1853	1.8427e+02	1.5670	-8.496147	0.000446	4.463153	0.756079	-0.000045
1854	1.8437e+02	1.5580	-8.541770	0.000459	4.585992	0.776888	-0.000046
1855	1.8447e+02	1.5479	-8.583726	0.000422	4.217475	0.714460	-0.000042
1856	1.8457e+02	1.5388	-8.630163	0.000467	4.667885	0.790761	-0.000047
1857	1.8467e+02	1.5280	-8.679451	0.000495	4.954510	0.839317	-0.000050
1858	1.8477e+02	1.5170	-8.719778	0.000405	4.053690	0.686714	-0.000041
1859	1.8487e+02	1.5092	-8.762957	0.000434	4.340314	0.735269	-0.000043
1860	1.8497e+02	1.4971	-8.808986	0.000463	4.626939	0.783825	-0.000046
1861	1.8507e+02	1.4864	-8.852979	0.000442	4.422207	0.749142	-0.000044
1862	1.8517e+02	1.4797	-8.896565	0.000438	4.381261	0.742206	-0.000044
1863	1.8527e+02	1.4675	-8.945039	0.000487	4.872617	0.825444	-0.000049
1864	1.8537e+02	1.4594	-8.988217	0.000434	4.340314	0.735269	-0.000043
1865	1.8547e+02	1.4458	-9.028544	0.000405	4.053690	0.686714	-0.000041
1866	1.8557e+02	1.4383	-9.078240	0.000500	4.995456	0.846253	-0.000050
1867	1.8567e+02	1.4279	-9.120603	0.000426	4.258422	0.721396	-0.000043
1868	1.8577e+02	1.4159	-9.169077	0.000487	4.872617	0.825444	-0.000049
1869	1.8587e+02	1.4071	-9.217551	0.000487	4.872617	0.825444	-0.000049
1870	1.8597e+02	1.4001	-9.263581	0.000463	4.626939	0.783825	-0.000046
1871	1.8606e+02	1.3892	-9.309203	0.000459	4.585992	0.776888	-0.000046
1872	1.8616e+02	1.3763	-9.356862	0.000479	4.790724	0.811571	-0.000048
1873	1.8626e+02	1.3671	-9.402077	0.000455	4.545046	0.769952	-0.000045
1874	1.8636e+02	1.3609	-9.447699	0.000459	4.585992	0.776888	-0.000046
1875	1.8646e+02	1.3501	-9.492100	0.000446	4.463153	0.756079	-0.000045
1876	1.8656e+02	1.3383	-9.539759	0.000479	4.790724	0.811571	-0.000048
1877	1.8666e+02	1.3293	-9.583752	0.000442	4.422207	0.749142	-0.000044
1878	1.8676e+02	1.3186	-9.631411	0.000479	4.790724	0.811571	-0.000048
1879	1.8686e+02	1.3102	-9.678663	0.000475	4.749778	0.804634	-0.000047
1880	1.8696e+02	1.3017	-9.723063	0.000446	4.463153	0.756079	-0.000045
1881	1.8706e+02	1.2896	-9.767463	0.000446	4.463153	0.756079	-0.000045
1882	1.8716e+02	1.2803	-9.815530	0.000483	4.831671	0.818507	-0.000048
1883	1.8726e+02	1.2698	-9.863596	0.000483	4.831671	0.818507	-0.000048
1884	1.8736e+02	1.2593	-9.909626	0.000463	4.626939	0.783825	-0.000046
1885	1.8746e+02	1.2482	-9.957692	0.000483	4.831671	0.818507	-0.000048
1886	1.8756e+02	1.2424	-10.000871	0.000434	4.340314	0.735269	-0.000043
1887	1.8766e+02	1.2292	-10.049344	0.000487	4.872617	0.825444	-0.000049
1888	1.8776e+02	1.2193	-10.094152	0.000450	4.504100	0.763015	-0.000045
1889	1.8786e+02	1.2103	-10.144255	0.000504	5.036402	0.853190	-0.000050
1890	1.8796e+02	1.2016	-10.191100	0.000471	4.708832	0.797698	-0.000047
1891	1.8806e+02	1.1895	-10.236315	0.000455	4.545046	0.769952	-0.000045
1892	1.8815e+02	1.1814	-10.286418	0.000504	5.036402	0.853190	-0.000050
1893	1.8825e+02	1.1707	-10.331633	0.000455	4.545046	0.769952	-0.000045
1894	1.8835e+02	1.1617	-10.379699	0.000483	4.831671	0.818507	-0.000048
1895	1.8845e+02	1.1507	-10.424100	0.000446	4.463153	0.756079	-0.000045
1896	1.8855e+02	1.1410	-10.474610	0.000508	5.077349	0.860126	-0.000051
1897	1.8865e+02	1.1337	-10.523491	0.000491	4.913563	0.832380	-0.000049
1898	1.8875e+02	1.1226	-10.567891	0.000446	4.463153	0.756079	-0.000045
1899	1.8885e+02	1.1094	-10.617995	0.000504	5.036402	0.853190	-0.000050
1900	1.8895e+02	1.1007	-10.666061	0.000483	4.831671	0.818507	-0.000048
1901	1.8905e+02	1.0915	-10.716979	0.000512	5.118295	0.867063	-0.000051
1902	1.8915e+02	1.0826	-10.767082	0.000504	5.036402	0.853190	-0.000050
1903	1.8925e+02	1.0706	-10.815556	0.000487	4.872617	0.825444	-0.000049
1904	1.8935e+02	1.0625	-10.866066	0.000508	5.077349	0.860126	-0.000051
1905	1.8945e+02	1.0497	-10.913725	0.000479	4.790724	0.811571	-0.000048
1906	1.8955e+02	1.0428	-10.963014	0.000495	4.954510	0.839317	-0.000050
1907	1.8965e+02	1.0326	-11.008636	0.000459	4.585992	0.776888	-0.000046
1908	1.8975e+02	1.0187	-11.061183	0.000528	5.282081	0.894809	-0.000053
1909	1.8985e+02	1.0091	-11.109250	0.000483	4.831671	0.818507	-0.000048
1910	1.8995e+02	1.0004	-11.158946	0.000500	4.995456	0.846253	-0.000050
1911	1.9004e+02	0.9917	-11.207419	0.000487	4.872617	0.825444	-0.000049
1912	1.9014e+02	0.9836	-11.255893	0.000487	4.872617	0.825444	-0.000049
1913	1.9024e+02	0.9689	-11.310070	0.000545	5.445866	0.922555	-0.000054
1914	1.9034e+02	0.9593	-11.356099	0.000463	4.626939	0.783825	-0.000046
1915	1.9044e+02	0.9511	-11.409054	0.000532	5.323027	0.901745	-0.000053
1916	1.9054e+02	0.9406	-11.460786	0.000520	5.200188	0.880936	-0.000052
1917	1.9064e+02	0.9307	-11.510075	0.000495	4.954510	0.839317	-0.000050
1918	1.9074e+02	0.9219	-11.558141	0.000483	4.831671	0.818507	-0.000048
1919	1.9084e+02	0.9128	-11.607430	0.000495	4.954510	0.839317	-0.000050
1920	1.9094e+02	0.8997	-11.657533	0.000504	5.036402	0.853190	-0.000050
1921	1.9104e+02	0.8909	-11.707636	0.000504	5.036402	0.853190	-0.000050
1922	1.9114e+02	0.8796	-11.755295	0.000479	4.790724	0.811571	-0.000048
1923	1.9124e+02	0.8739	-11.807842	0.000528	5.282081	0.894809	-0.000053
1924	1.9134e+02	0.8630	-11.856316	0.000487	4.872617	0.825444	-0.000049
1925	1.9144e+02	0.8523	-11.905604	0.000495	4.954510	0.839317	-0.000050
1926	1.9154e+02	0.8430	-11.956930	0.000516	5.159242	0.873999	-0.000052
1927	1.9164e+02	0.8328	-12.001737	0.000450	4.504100	0.763015	-0.000045
1928	1.9174e+02	0.8198	-12.055099	0.000536	5.363973	0.908682	-0.000054
1929	1.9184e+02	0.8115	-12.103573	0.000487	4.872617	0.825444	-0.000049
1930	1.9194e+02	0.8018	-12.151232	0.000479	4.790724	0.811571	-0.000048
1931	1.9203e+02	0.7916	-12.201742	0.000508	5.077349	0.860126	-0.000051
1932	1.9213e+02	0.7842	-12.250624	0.000491	4.913563	0.832380	-0.000049
1933	1.9223e+02	0.7733	-12.300319	0.000500	4.995456	0.846253	-0.000050
1934	1.9233e+02	0.7653	-12.345534	0.000455	4.545046	0.769952	-0.000045
1935	1.9243e+02	0.7526	-12.396452	0.000512	5.118295	0.867063	-0.000051
1936	1.9253e+02	0.7425	-12.446963	0.000508	5.077349	0.860126	-0.000051
1937	1.9263e+02	0.7318	-12.492178	0.000455	4.545046	0.769952	-0.000045
1938	1.9273e+02	0.7212	-12.544318	0.000524	5.241134	0.887872	-0.000052
1939	1.9283e+02	0.7114	-12.588311	0.000442	4.422207	0.749142	-0.000044
1940	1.9293e+02	0.7023	-12.638414	0.000504	5.036402	0.853190	-0.000050
1941	1.9303e+02	0.6915	-12.681185	0.000430	4.299368	0.728333	-0.000043
1942	1.9313e+02	0.6849	-12.734954	0.000540	5.404920	0.915618	-0.000054
1943	1.9323e+02	0.6726	-12.781391	0.000467	4.667885	0.790761	-0.000047
1944	1.9333e+02	0.6623	-12.827421	0.000463	4.626939	0.783825	-0.000046
1945	1.9343e+02	0.6524	-12.873043	0.000459	4.585992	0.776888	-0.000046
1946	1.9353e+02	0.6437	-12.921517	0.000487	4.872617	0.825444	-0.000049
1947	1.9363e+02	0.6280	-12.967954	0.000467	4.667885	0.790761	-0.000047
1948	1.9373e+02	0.6236	-13.016428	0.000487	4.872617	0.825444	-0.000049
1949	1.9383e+02	0.6139	-13.061643	0.000455	4.545046	0.769952	-0.000045
1950	1.9393e+02	0.6010	-13.113782	0.000524	5.241134	0.887872	-0.000052
1951	1.9403e+02	0.5956	-13.157775	0.000442	4.422207	0.749142	-0.000044
1952	1.9412e+02	0.5829	-13.204620	0.000471	4.708832	0.797698	-0.000047
1953	1.9422e+02	0.5740	-13.249428	0.000450	4.504100	0.763015	-0.000045
1954	1.9432e+02	0.5627	-13.295050	0.000459	4.585992	0.776888	-0.000046
1955	1.9442e+02	0.5550	-13.343116	0.000483	4.831671	0.818507	-0.000048
1956	1.9452e+02	0.5410	-13.387109	0.000442	4.422207	0.749142	-0.000044
1957	1.9462e+02	0.5338	-13.436398	0.000495	4.954510	0.839317	-0.000050
1958	1.9472e+02	0.5241	-13.482835	0.000467	4.667885	0.790761	-0.000047
1959	1.9482e+02	0.5121	-13.531309	0.000487	4.872617	0.825444	-0.000049
1960	1.9492e+02	0.5048	-13.580597	0.000495	4.954510	0.839317	-0.000050
1961	1.9502e+02	0.4935	-13.624590	0.000442	4.422207	0.749142	-0.000044
1962	1.9512e+02	0.4830	-13.674286	0.000500	4.995456	0.846253	-0.000050
1963	1.9522e+02	0.4740	-13.718279	0.000442	4.422207	0.749142	-0.000044
1964	1.9532e+02	0.4675	-13.768382	0.000504	5.036402	0.853190	-0.000050
1965	1.9542e+02	0.4535	-13.814004	0.000459	4.585992	0.776888	-0.000046
1966	1.9552e+02	0.4443	-13.862478	0.000487	4.872617	0.825444	-0.000049
1967	1.9562e+02	0.4346	-13.906064	0.000438	4.381261	0.742206	-0.000044
1968	1.9572e+02	0.4208	-13.959833	0.000540	5.404920	0.915618	-0.000054
1969	1.9582e+02	0.4160	-13.997716	0.000381	3.808012	0.645095	-0.000038
1970	1.9592e+02	0.4031	-14.047004	0.000495	4.954510	0.839317	-0.000050
1971	1.9601e+02	0.3939	-14.093441	0.000467	4.667885	0.790761	-0.000047
1972	1.9611e+02	0.3821	-14.140286	0.000471	4.708832	0.797698	-0.000047
1973	1.9621e+02	0.3750	-14.188352	0.000483	4.831671	0.818507	-0.000048
1974	1.9631e+02	0.3644	-14.233567	0.000455	4.545046	0.769952	-0.000045
1975	1.9641e+02	0.3539	-14.282041	0.000487	4.872617	0.825444	-0.000049
1976	1.9651e+02	0.3448	-14.328071	0.000463	4.626939	0.783825	-0.000046
1977	1.9661e+02	0.3345	-14.372064	0.000442	4.422207	0.749142	-0.000044
1978	1.9671e+02	0.3229	-14.422167	0.000504	5.036402	0.853190	-0.000050
1979	1.9681e+02	0.3129	-14.469826	0.000479	4.790724	0.811571	-0.000048
1980	1.9691e+02	0.3041	-14.517078	0.000475	4.749778	0.804634	-0.000047
1981	1.9701e+02	0.2935	-14.562700	0.000459	4.585992	0.776888	-0.000046
1982	1.9711e+02	0.2841	-14.605064	0.000426	4.258422	0.721396	-0.000043
1983	1.9721e+02	0.2759	-14.655981	0.000512	5.118295	0.867063	-0.000051
1984	1.9731e+02	0.2635	-14.698345	0.000426	4.258422	0.721396	-0.000043
1985	1.9741e+02	0.2534	-14.740709	0.000426	4.258422	0.721396	-0.000043
1986	1.9751e+02	0.2451	-14.789182	0.000487	4.872617	0.825444	-0.000049
1987	1.9761e+02	0.2374	-14.832768	0.000438	4.381261	0.742206	-0.000044
1988	1.9771e+02	0.2259	-14.878390	0.000459	4.585992	0.776888	-0.000046
1989	1.9781e+02	0.2157	-14.925642	0.000475	4.749778	0.804634	-0.000047
1990	1.9791e+02	0.2042	-14.972079	0.000467	4.667885	0.790761	-0.000047
1991	1.9800e+02	0.1956	-15.018924	0.000471	4.708832	0.797698	-0.000047
1992	1.9810e+02	0.1852	-15.063324	0.000446	4.463153	0.756079	-0.000045
1993	1.9820e+02	0.1745	-15.116278	0.000532	5.323027	0.901745	-0.000053
1994	1.9830e+02	0.1641	-15.154161	0.000381	3.808012	0.645095	-0.000038
1995	1.9840e+02	0.1546	-15.203857	0.000500	4.995456	0.846253	-0.000050
1996	1.9850e+02	0.1450	-15.247035	0.000434	4.340314	0.735269	-0.000043
1997	1.9860e+02	0.1370	-15.295509	0.000487	4.872617	0.825444	-0.000049
1998	1.9870e+02	0.1241	-15.339909	0.000446	4.463153	0.756079	-0.000045
1999	1.9880e+02	0.1160	-15.385124	0.000455	4.545046	0.769952	-0.000045
2000	1.9890e+02	0.1054	-15.429117	0.000442	4.422207	0.749142	-0.000044
2001	1.9900e+02	0.0959	-15.473925	0.000450	4.504100	0.763015	-0.000045
2002	1.9910e+02	0.0868	-15.519955	0.000463	4.626939	0.783825	-0.000046
2003	1.9920e+02	0.0751	-15.565577	0.000459	4.585992	0.776888	-0.000046
2004	1.9930e+02	0.0669	-15.615680	0.000504	5.036402	0.853190	-0.000050
2005	1.9940e+02	0.0540	-15.660895	0.000455	4.545046	0.769952	-0.000045
2006	1.9950e+02	0.0442	-15.704481	0.000438	4.381261	0.742206	-0.000044
2007	1.9960e+02	0.0350	-15.752547	0.000483	4.831671	0.818507	-0.000048
2008	1.9970e+02	0.0256	-15.797763	0.000455	4.545046	0.769952	-0.000045
2009	1.9980e+02	0.0151	-15.843792	0.000463	4.626939	0.783825	-0.000046
2010	1.9990e+02	0.0037	-15.890637	0.000471	4.708832	0.797698	-0.000047
2011	2.0000e+02	-0.0061	-15.938296	0.000471	4.708832	0.797698	-0.000048

PMax (uC/cm2):	3.69e+01
Pr (uC/cm2):	2.50e+00
-Pr (uC/cm2):	0.00e+00
PLoss (uC/cm2):	0.00e+00
C (Max-Eff) (nF):	3.69e-01
K (Eff):	6.25e+02
Vert. (+/-Pr) Shift (uC/cm2):	1.25e+00
Offset (uC/cm2):	1.84e+01

A (Loop Area - uC/cm2·Volts):	-2.40e-02



Hysteresis Version: 5.48.1 - Radiant Technologies, Inc., 1999 - 9/12/24

