»»»»»»»»»»»»»»»»»»»»»»»»»»»»»»»»»»»» Hysteresis ««««««««««««««««««««««««««««««««««««
»»»  Executed Version:	5.48.1
»»»  Vision Version:	5.48.4 (R)
»»»  Vision Compiled:	9/18/24
»»»  Driver Version:	5.47.0
»»»  Windows Version:	Windows 8 or 8.1
»»»  Processor Information:	x86 (AMD or Intel) - 32 Processors
»»»  Tester Name:	PMF21124-494 (100V)
»»»  Tester S/N:	PMF21124-494
»»»  Internal Amp Type:	100V RevK 270k
»»»  Internal Amp S/N:	iAB2-596/K     
»»»  Execution Count:	1
»»»»»»»»»»»»»»»»»»»»»»»»»»»»»»»»»»»»»»»»»»««««««««««««««««««««««««««««««««««««««««««

Stored:	6/30/2025 - 12:15:44
Configured:	06/30/25 10:19:58 AM
Executed:	06/30/25 12:15:13 PM

»»»»»»»»»»»»»»»»»»»»»»»»»»»»»»»»»»» Sample Info ««««««««««««««««««««««««««««««««««««
Sample Name:	
Lot Name:	
Wafer Name:	
Die Row/Column:	0/0
Capacitor Number:	0
Sample Area (cm2):	1.00e-04
Sample Thickness (microns):	1.50e-01

Amplifier:	Internal

»»»»»»»»»»»»»»»»»»»»»»»»»»»»»»»»»»» Tester Info «««««««««««««««««««««««««««««««««««
Tester Name:	PMF21124-494 (100V)
Tester Serial Number:	PMF21124-494
Return Signal Amp. Level:	1.9 [Index: 2]

»»»»»»»»»»»»»»»»»»»»»»»»»»»»»»»» Hysteresis Info ««««««««««««««««««««««««««««««««««
Task Name:	Hyst-1804
Volts:	10.00
Field:	666.67 (kV/cm)
DCBias:	0.00
DCField:	0.00 (kV/cm)
Hysteresis Period (ms):	2.00e+02
Preset:	Enabled
Preset Delay (ms):	1.00e+03
Profile:	Standard Monopolar

»»»»»»»»»»»»»»»»»»»»»»»»»»»»»»»»»»»»»» Data «««««««««««««««««««««««««««««««««««««««
Points:	2011

Valid Data

Point	Time (ms)	Drive Voltage	Measured Polarization (uC/cm2)	Capacitance (uF)	Normalized Capacitance (uF/cm2)	Dielectric Constant	Instantaneous Current (mA)
   1	0.0000e+00	-0.0034	-20.401344	0.000508	5.076148	0.859923	0.000051
   2	9.9500e-02	0.0060	-20.350834	0.000508	5.076148	0.859923	0.000051
   3	1.9900e-01	0.0179	-20.308063	0.000430	4.298351	0.728160	0.000043
   4	2.9850e-01	0.0266	-20.257960	0.000504	5.035211	0.852988	0.000050
   5	3.9800e-01	0.0357	-20.208264	0.000499	4.994275	0.846053	0.000050
   6	4.9750e-01	0.0459	-20.161827	0.000467	4.666781	0.790574	0.000047
   7	5.9700e-01	0.0533	-20.113353	0.000487	4.871465	0.825248	0.000049
   8	6.9650e-01	0.0662	-20.064879	0.000487	4.871465	0.825248	0.000049
   9	7.9600e-01	0.0780	-20.018035	0.000471	4.707718	0.797509	0.000047
  10	8.9550e-01	0.0841	-19.968339	0.000499	4.994275	0.846053	0.000050
  11	9.9500e-01	0.0934	-19.921087	0.000475	4.748655	0.804444	0.000047
  12	1.0945e+00	0.1048	-19.874243	0.000471	4.707718	0.797509	0.000047
  13	1.1940e+00	0.1136	-19.823733	0.000508	5.076148	0.859923	0.000051
  14	1.2935e+00	0.1254	-19.769556	0.000544	5.444578	0.922336	0.000054
  15	1.3930e+00	0.1321	-19.722304	0.000475	4.748655	0.804444	0.000047
  16	1.4925e+00	0.1444	-19.674238	0.000483	4.830528	0.818314	0.000048
  17	1.5920e+00	0.1566	-19.622913	0.000516	5.158021	0.873792	0.000052
  18	1.6915e+00	0.1633	-19.568736	0.000544	5.444578	0.922336	0.000054
  19	1.7910e+00	0.1767	-19.519448	0.000495	4.953338	0.839118	0.000050
  20	1.8905e+00	0.1871	-19.464864	0.000549	5.485515	0.929271	0.000055
  21	1.9900e+00	0.1935	-19.415983	0.000491	4.912401	0.832183	0.000049
  22	2.0895e+00	0.2033	-19.368324	0.000479	4.789591	0.811379	0.000048
  23	2.1890e+00	0.2137	-19.316184	0.000524	5.239895	0.887662	0.000052
  24	2.2885e+00	0.2259	-19.267303	0.000491	4.912401	0.832183	0.000049
  25	2.3880e+00	0.2368	-19.218014	0.000495	4.953338	0.839118	0.000050
  26	2.4875e+00	0.2440	-19.165467	0.000528	5.280831	0.894597	0.000053
  27	2.5870e+00	0.2552	-19.111698	0.000540	5.403641	0.915402	0.000054
  28	2.6865e+00	0.2651	-19.059151	0.000528	5.280831	0.894597	0.000053
  29	2.7860e+00	0.2740	-19.010270	0.000491	4.912401	0.832183	0.000049
  30	2.8855e+00	0.2856	-18.954464	0.000561	5.608325	0.950076	0.000056
  31	2.9850e+00	0.2957	-18.901509	0.000532	5.321768	0.901532	0.000053
  32	3.0845e+00	0.3042	-18.846518	0.000553	5.526451	0.936206	0.000055
  33	3.1840e+00	0.3152	-18.797637	0.000491	4.912401	0.832183	0.000049
  34	3.2835e+00	0.3250	-18.745904	0.000520	5.198958	0.880727	0.000052
  35	3.3830e+00	0.3352	-18.693764	0.000524	5.239895	0.887662	0.000052
  36	3.4825e+00	0.3480	-18.640402	0.000536	5.362705	0.908467	0.000054
  37	3.5820e+00	0.3532	-18.592743	0.000479	4.789591	0.811379	0.000048
  38	3.6815e+00	0.3648	-18.541011	0.000520	5.198958	0.880727	0.000052
  39	3.7810e+00	0.3770	-18.491315	0.000499	4.994275	0.846053	0.000050
  40	3.8805e+00	0.3817	-18.439175	0.000524	5.239895	0.887662	0.000052
  41	3.9800e+00	0.3969	-18.386628	0.000528	5.280831	0.894597	0.000053
  42	4.0795e+00	0.4037	-18.337340	0.000495	4.953338	0.839118	0.000050
  43	4.1790e+00	0.4156	-18.288051	0.000495	4.953338	0.839118	0.000050
  44	4.2785e+00	0.4226	-18.240392	0.000479	4.789591	0.811379	0.000048
  45	4.3780e+00	0.4332	-18.189474	0.000512	5.117085	0.866858	0.000051
  46	4.4775e+00	0.4425	-18.139779	0.000499	4.994275	0.846053	0.000050
  47	4.5770e+00	0.4547	-18.092119	0.000479	4.789591	0.811379	0.000048
  48	4.6765e+00	0.4627	-18.040387	0.000520	5.198958	0.880727	0.000052
  49	4.7760e+00	0.4749	-17.987025	0.000536	5.362705	0.908467	0.000054
  50	4.8755e+00	0.4843	-17.940995	0.000463	4.625845	0.783639	0.000046
  51	4.9750e+00	0.4948	-17.895373	0.000458	4.584908	0.776704	0.000046
  52	5.0745e+00	0.5028	-17.845270	0.000504	5.035211	0.852988	0.000050
  53	5.1740e+00	0.5139	-17.798425	0.000471	4.707718	0.797509	0.000047
  54	5.2735e+00	0.5238	-17.748730	0.000499	4.994275	0.846053	0.000050
  55	5.3730e+00	0.5330	-17.699034	0.000499	4.994275	0.846053	0.000050
  56	5.4725e+00	0.5434	-17.650153	0.000491	4.912401	0.832183	0.000049
  57	5.5720e+00	0.5508	-17.606160	0.000442	4.421161	0.748965	0.000044
  58	5.6715e+00	0.5669	-17.556871	0.000495	4.953338	0.839118	0.000050
  59	5.7710e+00	0.5744	-17.507583	0.000495	4.953338	0.839118	0.000050
  60	5.8705e+00	0.5839	-17.460331	0.000475	4.748655	0.804444	0.000047
  61	5.9700e+00	0.5917	-17.411450	0.000491	4.912401	0.832183	0.000049
  62	6.0695e+00	0.6038	-17.363791	0.000479	4.789591	0.811379	0.000048
  63	6.1690e+00	0.6151	-17.317354	0.000467	4.666781	0.790574	0.000047
  64	6.2685e+00	0.6223	-17.269287	0.000483	4.830528	0.818314	0.000048
  65	6.3680e+00	0.6358	-17.224072	0.000454	4.543971	0.769770	0.000045
  66	6.4675e+00	0.6435	-17.170303	0.000540	5.403641	0.915402	0.000054
  67	6.5670e+00	0.6542	-17.127940	0.000426	4.257414	0.721226	0.000043
  68	6.6665e+00	0.6618	-17.080688	0.000475	4.748655	0.804444	0.000047
  69	6.7660e+00	0.6749	-17.032621	0.000483	4.830528	0.818314	0.000048
  70	6.8655e+00	0.6828	-16.984555	0.000483	4.830528	0.818314	0.000048
  71	6.9650e+00	0.6924	-16.933230	0.000516	5.158021	0.873792	0.000052
  72	7.0645e+00	0.7012	-16.892496	0.000409	4.093668	0.693486	0.000041
  73	7.1640e+00	0.7119	-16.843615	0.000491	4.912401	0.832183	0.000049
  74	7.2635e+00	0.7217	-16.795955	0.000479	4.789591	0.811379	0.000048
  75	7.3630e+00	0.7354	-16.746260	0.000499	4.994275	0.846053	0.000050
  76	7.4625e+00	0.7423	-16.699415	0.000471	4.707718	0.797509	0.000047
  77	7.5620e+00	0.7533	-16.654608	0.000450	4.503034	0.762835	0.000045
  78	7.6615e+00	0.7607	-16.608171	0.000467	4.666781	0.790574	0.000047
  79	7.7610e+00	0.7717	-16.557253	0.000512	5.117085	0.866858	0.000051
  80	7.8605e+00	0.7805	-16.512038	0.000454	4.543971	0.769770	0.000045
  81	7.9600e+00	0.7927	-16.462749	0.000495	4.953338	0.839118	0.000050
  82	8.0595e+00	0.8001	-16.415090	0.000479	4.789591	0.811379	0.000048
  83	8.1590e+00	0.8115	-16.373134	0.000422	4.216478	0.714291	0.000042
  84	8.2585e+00	0.8220	-16.326289	0.000471	4.707718	0.797509	0.000047
  85	8.3580e+00	0.8328	-16.276186	0.000504	5.035211	0.852988	0.000050
  86	8.4575e+00	0.8433	-16.231379	0.000450	4.503034	0.762835	0.000045
  87	8.5570e+00	0.8513	-16.184534	0.000471	4.707718	0.797509	0.000047
  88	8.6565e+00	0.8593	-16.134838	0.000499	4.994275	0.846053	0.000050
  89	8.7560e+00	0.8719	-16.093290	0.000418	4.175541	0.707356	0.000042
  90	8.8555e+00	0.8834	-16.044408	0.000491	4.912401	0.832183	0.000049
  91	8.9550e+00	0.8889	-15.996342	0.000483	4.830528	0.818314	0.000048
  92	9.0545e+00	0.9032	-15.948276	0.000483	4.830528	0.818314	0.000048
  93	9.1540e+00	0.9171	-15.900209	0.000483	4.830528	0.818314	0.000048
  94	9.2535e+00	0.9224	-15.857846	0.000426	4.257414	0.721226	0.000043
  95	9.3530e+00	0.9296	-15.809779	0.000483	4.830528	0.818314	0.000048
  96	9.4525e+00	0.9412	-15.762120	0.000479	4.789591	0.811379	0.000048
  97	9.5520e+00	0.9527	-15.718127	0.000442	4.421161	0.748965	0.000044
  98	9.6515e+00	0.9619	-15.670875	0.000475	4.748655	0.804444	0.000047
  99	9.7510e+00	0.9686	-15.624438	0.000467	4.666781	0.790574	0.000047
 100	9.8505e+00	0.9795	-15.577594	0.000471	4.707718	0.797509	0.000047
 101	9.9500e+00	0.9913	-15.538896	0.000389	3.888984	0.658812	0.000039
 102	1.0050e+01	1.0004	-15.489608	0.000495	4.953338	0.839118	0.000050
 103	1.0149e+01	1.0124	-15.443578	0.000463	4.625845	0.783639	0.000046
 104	1.0248e+01	1.0198	-15.395104	0.000487	4.871465	0.825248	0.000049
 105	1.0348e+01	1.0332	-15.352333	0.000430	4.298351	0.728160	0.000043
 106	1.0447e+01	1.0409	-15.305082	0.000475	4.748655	0.804444	0.000047
 107	1.0547e+01	1.0494	-15.259052	0.000463	4.625845	0.783639	0.000046
 108	1.0646e+01	1.0638	-15.214652	0.000446	4.462098	0.755900	0.000045
 109	1.0746e+01	1.0686	-15.169437	0.000454	4.543971	0.769770	0.000045
 110	1.0845e+01	1.0813	-15.123000	0.000467	4.666781	0.790574	0.000047
 111	1.0945e+01	1.0896	-15.077785	0.000454	4.543971	0.769770	0.000045
 112	1.1044e+01	1.0989	-15.038680	0.000393	3.929921	0.665747	0.000039
 113	1.1144e+01	1.1112	-14.993057	0.000458	4.584908	0.776704	0.000046
 114	1.1243e+01	1.1212	-14.953138	0.000401	4.011794	0.679616	0.000040
 115	1.1343e+01	1.1300	-14.904664	0.000487	4.871465	0.825248	0.000049
 116	1.1443e+01	1.1417	-14.865559	0.000393	3.929921	0.665747	0.000039
 117	1.1542e+01	1.1494	-14.819122	0.000467	4.666781	0.790574	0.000047
 118	1.1642e+01	1.1602	-14.772685	0.000467	4.666781	0.790574	0.000047
 119	1.1741e+01	1.1687	-14.729914	0.000430	4.298351	0.728160	0.000043
 120	1.1841e+01	1.1805	-14.682662	0.000475	4.748655	0.804444	0.000047
 121	1.1940e+01	1.1920	-14.637447	0.000454	4.543971	0.769770	0.000045
 122	1.2040e+01	1.1980	-14.590603	0.000471	4.707718	0.797509	0.000047
 123	1.2139e+01	1.2099	-14.548239	0.000426	4.257414	0.721226	0.000043
 124	1.2239e+01	1.2188	-14.503024	0.000454	4.543971	0.769770	0.000045
 125	1.2338e+01	1.2287	-14.457809	0.000454	4.543971	0.769770	0.000045
 126	1.2438e+01	1.2446	-14.410965	0.000471	4.707718	0.797509	0.000047
 127	1.2537e+01	1.2508	-14.364528	0.000467	4.666781	0.790574	0.000047
 128	1.2636e+01	1.2614	-14.322571	0.000422	4.216478	0.714291	0.000042
 129	1.2736e+01	1.2690	-14.277764	0.000450	4.503034	0.762835	0.000045
 130	1.2835e+01	1.2801	-14.231734	0.000463	4.625845	0.783639	0.000046
 131	1.2935e+01	1.2884	-14.185297	0.000467	4.666781	0.790574	0.000047
 132	1.3034e+01	1.2997	-14.136009	0.000495	4.953338	0.839118	0.000050
 133	1.3134e+01	1.3087	-14.091608	0.000446	4.462098	0.755900	0.000045
 134	1.3233e+01	1.3225	-14.040283	0.000516	5.158021	0.873792	0.000052
 135	1.3333e+01	1.3293	-13.990995	0.000495	4.953338	0.839118	0.000050
 136	1.3432e+01	1.3379	-13.947409	0.000438	4.380224	0.742030	0.000044
 137	1.3532e+01	1.3515	-13.894047	0.000536	5.362705	0.908467	0.000054
 138	1.3632e+01	1.3600	-13.851276	0.000430	4.298351	0.728160	0.000043
 139	1.3731e+01	1.3674	-13.804432	0.000471	4.707718	0.797509	0.000047
 140	1.3831e+01	1.3800	-13.755143	0.000495	4.953338	0.839118	0.000050
 141	1.3930e+01	1.3876	-13.702596	0.000528	5.280831	0.894597	0.000053
 142	1.4030e+01	1.3985	-13.656974	0.000458	4.584908	0.776704	0.000046
 143	1.4129e+01	1.4104	-13.611351	0.000458	4.584908	0.776704	0.000046
 144	1.4229e+01	1.4162	-13.563692	0.000479	4.789591	0.811379	0.000048
 145	1.4328e+01	1.4299	-13.512367	0.000516	5.158021	0.873792	0.000052
 146	1.4428e+01	1.4386	-13.468781	0.000438	4.380224	0.742030	0.000044
 147	1.4527e+01	1.4505	-13.417864	0.000512	5.117085	0.866858	0.000051
 148	1.4627e+01	1.4569	-13.371427	0.000467	4.666781	0.790574	0.000047
 149	1.4726e+01	1.4674	-13.322138	0.000495	4.953338	0.839118	0.000050
 150	1.4825e+01	1.4814	-13.274886	0.000475	4.748655	0.804444	0.000047
 151	1.4925e+01	1.4864	-13.226413	0.000487	4.871465	0.825248	0.000049
 152	1.5024e+01	1.5000	-13.174273	0.000524	5.239895	0.887662	0.000052
 153	1.5124e+01	1.5081	-13.128243	0.000463	4.625845	0.783639	0.000046
 154	1.5223e+01	1.5175	-13.078140	0.000504	5.035211	0.852988	0.000050
 155	1.5323e+01	1.5285	-13.026407	0.000520	5.198958	0.880727	0.000052
 156	1.5422e+01	1.5376	-12.979563	0.000471	4.707718	0.797509	0.000047
 157	1.5522e+01	1.5472	-12.926201	0.000536	5.362705	0.908467	0.000054
 158	1.5621e+01	1.5594	-12.880986	0.000454	4.543971	0.769770	0.000045
 159	1.5721e+01	1.5694	-12.834956	0.000463	4.625845	0.783639	0.000046
 160	1.5820e+01	1.5769	-12.785668	0.000495	4.953338	0.839118	0.000050
 161	1.5920e+01	1.5857	-12.736787	0.000491	4.912401	0.832183	0.000049
 162	1.6020e+01	1.5945	-12.689128	0.000479	4.789591	0.811379	0.000048
 163	1.6119e+01	1.6066	-12.639025	0.000504	5.035211	0.852988	0.000050
 164	1.6218e+01	1.6166	-12.591773	0.000475	4.748655	0.804444	0.000047
 165	1.6318e+01	1.6262	-12.544114	0.000479	4.789591	0.811379	0.000048
 166	1.6418e+01	1.6400	-12.490752	0.000536	5.362705	0.908467	0.000054
 167	1.6517e+01	1.6475	-12.443093	0.000479	4.789591	0.811379	0.000048
 168	1.6616e+01	1.6570	-12.394619	0.000487	4.871465	0.825248	0.000049
 169	1.6716e+01	1.6679	-12.344923	0.000499	4.994275	0.846053	0.000050
 170	1.6816e+01	1.6783	-12.298486	0.000467	4.666781	0.790574	0.000047
 171	1.6915e+01	1.6877	-12.245939	0.000528	5.280831	0.894597	0.000053
 172	1.7015e+01	1.6950	-12.195836	0.000504	5.035211	0.852988	0.000050
 173	1.7114e+01	1.7069	-12.146140	0.000499	4.994275	0.846053	0.000050
 174	1.7213e+01	1.7199	-12.100518	0.000458	4.584908	0.776704	0.000046
 175	1.7313e+01	1.7257	-12.047971	0.000528	5.280831	0.894597	0.000053
 176	1.7413e+01	1.7367	-12.001941	0.000463	4.625845	0.783639	0.000046
 177	1.7512e+01	1.7452	-11.957948	0.000442	4.421161	0.748965	0.000044
 178	1.7611e+01	1.7581	-11.907845	0.000504	5.035211	0.852988	0.000050
 179	1.7711e+01	1.7667	-11.854483	0.000536	5.362705	0.908467	0.000054
 180	1.7811e+01	1.7775	-11.806417	0.000483	4.830528	0.818314	0.000048
 181	1.7910e+01	1.7865	-11.758757	0.000479	4.789591	0.811379	0.000048
 182	1.8009e+01	1.7962	-11.710284	0.000487	4.871465	0.825248	0.000049
 183	1.8109e+01	1.8082	-11.661403	0.000491	4.912401	0.832183	0.000049
 184	1.8209e+01	1.8150	-11.607633	0.000540	5.403641	0.915402	0.000054
 185	1.8308e+01	1.8274	-11.555494	0.000524	5.239895	0.887662	0.000052
 186	1.8407e+01	1.8369	-11.510686	0.000450	4.503034	0.762835	0.000045
 187	1.8507e+01	1.8453	-11.462619	0.000483	4.830528	0.818314	0.000048
 188	1.8607e+01	1.8546	-11.407628	0.000553	5.526451	0.936206	0.000055
 189	1.8706e+01	1.8665	-11.357525	0.000504	5.035211	0.852988	0.000050
 190	1.8805e+01	1.8756	-11.304570	0.000532	5.321768	0.901532	0.000053
 191	1.8905e+01	1.8870	-11.256911	0.000479	4.789591	0.811379	0.000048
 192	1.9005e+01	1.8971	-11.208438	0.000487	4.871465	0.825248	0.000049
 193	1.9104e+01	1.9062	-11.158742	0.000499	4.994275	0.846053	0.000050
 194	1.9203e+01	1.9147	-11.107417	0.000516	5.158021	0.873792	0.000052
 195	1.9303e+01	1.9262	-11.056499	0.000512	5.117085	0.866858	0.000051
 196	1.9402e+01	1.9373	-11.006396	0.000504	5.035211	0.852988	0.000050
 197	1.9502e+01	1.9465	-10.950997	0.000557	5.567388	0.943141	0.000056
 198	1.9602e+01	1.9543	-10.901709	0.000495	4.953338	0.839118	0.000050
 199	1.9701e+01	1.9647	-10.846717	0.000553	5.526451	0.936206	0.000055
 200	1.9800e+01	1.9759	-10.797836	0.000491	4.912401	0.832183	0.000049
 201	1.9900e+01	1.9838	-10.747733	0.000504	5.035211	0.852988	0.000050
 202	2.0000e+01	1.9944	-10.696001	0.000520	5.198958	0.880727	0.000052
 203	2.0099e+01	2.0070	-10.648342	0.000479	4.789591	0.811379	0.000048
 204	2.0198e+01	2.0199	-10.599868	0.000487	4.871465	0.825248	0.000049
 205	2.0298e+01	2.0278	-10.547728	0.000524	5.239895	0.887662	0.000052
 206	2.0398e+01	2.0356	-10.497625	0.000504	5.035211	0.852988	0.000050
 207	2.0497e+01	2.0458	-10.448336	0.000495	4.953338	0.839118	0.000050
 208	2.0596e+01	2.0553	-10.399455	0.000491	4.912401	0.832183	0.000049
 209	2.0696e+01	2.0683	-10.351389	0.000483	4.830528	0.818314	0.000048
 210	2.0796e+01	2.0786	-10.302100	0.000495	4.953338	0.839118	0.000050
 211	2.0895e+01	2.0863	-10.254034	0.000483	4.830528	0.818314	0.000048
 212	2.0994e+01	2.0942	-10.203116	0.000512	5.117085	0.866858	0.000051
 213	2.1094e+01	2.1053	-10.157494	0.000458	4.584908	0.776704	0.000046
 214	2.1194e+01	2.1171	-10.109835	0.000479	4.789591	0.811379	0.000048
 215	2.1293e+01	2.1259	-10.064620	0.000454	4.543971	0.769770	0.000045
 216	2.1392e+01	2.1371	-10.014517	0.000504	5.035211	0.852988	0.000050
 217	2.1492e+01	2.1465	-9.966858	0.000479	4.789591	0.811379	0.000048
 218	2.1591e+01	2.1571	-9.918791	0.000483	4.830528	0.818314	0.000048
 219	2.1691e+01	2.1666	-9.874798	0.000442	4.421161	0.748965	0.000044
 220	2.1791e+01	2.1752	-9.826732	0.000483	4.830528	0.818314	0.000048
 221	2.1890e+01	2.1826	-9.777036	0.000499	4.994275	0.846053	0.000050
 222	2.1989e+01	2.1951	-9.733450	0.000438	4.380224	0.742030	0.000044
 223	2.2089e+01	2.2060	-9.686199	0.000475	4.748655	0.804444	0.000047
 224	2.2189e+01	2.2160	-9.638132	0.000483	4.830528	0.818314	0.000048
 225	2.2288e+01	2.2221	-9.598620	0.000397	3.970858	0.672682	0.000040
 226	2.2387e+01	2.2329	-9.548924	0.000499	4.994275	0.846053	0.000050
 227	2.2487e+01	2.2455	-9.504524	0.000446	4.462098	0.755900	0.000045
 228	2.2587e+01	2.2569	-9.455643	0.000491	4.912401	0.832183	0.000049
 229	2.2686e+01	2.2652	-9.412872	0.000430	4.298351	0.728160	0.000043
 230	2.2785e+01	2.2729	-9.366842	0.000463	4.625845	0.783639	0.000046
 231	2.2885e+01	2.2851	-9.317554	0.000495	4.953338	0.839118	0.000050
 232	2.2985e+01	2.2942	-9.274783	0.000430	4.298351	0.728160	0.000043
 233	2.3084e+01	2.3038	-9.226716	0.000483	4.830528	0.818314	0.000048
 234	2.3183e+01	2.3145	-9.183945	0.000430	4.298351	0.728160	0.000043
 235	2.3283e+01	2.3247	-9.136286	0.000479	4.789591	0.811379	0.000048
 236	2.3383e+01	2.3347	-9.092293	0.000442	4.421161	0.748965	0.000044
 237	2.3482e+01	2.3453	-9.046263	0.000463	4.625845	0.783639	0.000046
 238	2.3581e+01	2.3545	-9.000234	0.000463	4.625845	0.783639	0.000046
 239	2.3681e+01	2.3638	-8.961943	0.000385	3.848048	0.651877	0.000038
 240	2.3780e+01	2.3753	-8.911840	0.000504	5.035211	0.852988	0.000050
 241	2.3880e+01	2.3850	-8.865811	0.000463	4.625845	0.783639	0.000046
 242	2.3980e+01	2.3956	-8.828335	0.000377	3.766174	0.638007	0.000038
 243	2.4079e+01	2.4038	-8.777825	0.000508	5.076148	0.859923	0.000051
 244	2.4178e+01	2.4142	-8.734239	0.000438	4.380224	0.742030	0.000044
 245	2.4278e+01	2.4242	-8.688209	0.000463	4.625845	0.783639	0.000046
 246	2.4378e+01	2.4327	-8.647068	0.000413	4.134604	0.700421	0.000041
 247	2.4477e+01	2.4425	-8.600223	0.000471	4.707718	0.797509	0.000047
 248	2.4576e+01	2.4517	-8.555823	0.000446	4.462098	0.755900	0.000045
 249	2.4676e+01	2.4622	-8.515903	0.000401	4.011794	0.679616	0.000040
 250	2.4776e+01	2.4725	-8.470688	0.000454	4.543971	0.769770	0.000045
 251	2.4875e+01	2.4863	-8.425473	0.000454	4.543971	0.769770	0.000045
 252	2.4974e+01	2.4921	-8.382702	0.000430	4.298351	0.728160	0.000043
 253	2.5074e+01	2.5037	-8.337895	0.000450	4.503034	0.762835	0.000045
 254	2.5174e+01	2.5125	-8.297160	0.000409	4.093668	0.693486	0.000041
 255	2.5273e+01	2.5233	-8.250723	0.000467	4.666781	0.790574	0.000047
 256	2.5372e+01	2.5323	-8.207952	0.000430	4.298351	0.728160	0.000043
 257	2.5472e+01	2.5426	-8.163145	0.000450	4.503034	0.762835	0.000045
 258	2.5572e+01	2.5526	-8.122410	0.000409	4.093668	0.693486	0.000041
 259	2.5671e+01	2.5620	-8.075566	0.000471	4.707718	0.797509	0.000047
 260	2.5770e+01	2.5751	-8.028314	0.000475	4.748655	0.804444	0.000047
 261	2.5870e+01	2.5838	-7.984321	0.000442	4.421161	0.748965	0.000044
 262	2.5970e+01	2.5911	-7.941550	0.000430	4.298351	0.728160	0.000043
 263	2.6069e+01	2.6025	-7.899187	0.000426	4.257414	0.721226	0.000043
 264	2.6169e+01	2.6125	-7.858045	0.000413	4.134604	0.700421	0.000041
 265	2.6268e+01	2.6228	-7.814460	0.000438	4.380224	0.742030	0.000044
 266	2.6367e+01	2.6337	-7.771689	0.000430	4.298351	0.728160	0.000043
 267	2.6467e+01	2.6407	-7.731362	0.000405	4.052731	0.686551	0.000041
 268	2.6567e+01	2.6488	-7.686147	0.000454	4.543971	0.769770	0.000045
 269	2.6666e+01	2.6632	-7.645412	0.000409	4.093668	0.693486	0.000041
 270	2.6765e+01	2.6723	-7.603456	0.000422	4.216478	0.714291	0.000042
 271	2.6865e+01	2.6845	-7.561092	0.000426	4.257414	0.721226	0.000043
 272	2.6965e+01	2.6931	-7.517099	0.000442	4.421161	0.748965	0.000044
 273	2.7064e+01	2.7020	-7.473921	0.000434	4.339288	0.735095	0.000043
 274	2.7163e+01	2.7139	-7.434816	0.000393	3.929921	0.665747	0.000039
 275	2.7263e+01	2.7232	-7.392860	0.000422	4.216478	0.714291	0.000042
 276	2.7363e+01	2.7300	-7.349274	0.000438	4.380224	0.742030	0.000044
 277	2.7462e+01	2.7438	-7.308133	0.000413	4.134604	0.700421	0.000041
 278	2.7561e+01	2.7538	-7.268213	0.000401	4.011794	0.679616	0.000040
 279	2.7661e+01	2.7648	-7.229516	0.000389	3.888984	0.658812	0.000039
 280	2.7761e+01	2.7717	-7.188781	0.000409	4.093668	0.693486	0.000041
 281	2.7860e+01	2.7839	-7.147640	0.000413	4.134604	0.700421	0.000041
 282	2.7959e+01	2.7929	-7.108942	0.000389	3.888984	0.658812	0.000039
 283	2.8059e+01	2.8001	-7.068208	0.000409	4.093668	0.693486	0.000041
 284	2.8159e+01	2.8120	-7.030325	0.000381	3.807111	0.644942	0.000038
 285	2.8258e+01	2.8215	-6.987554	0.000430	4.298351	0.728160	0.000043
 286	2.8358e+01	2.8317	-6.948042	0.000397	3.970858	0.672682	0.000040
 287	2.8457e+01	2.8417	-6.906493	0.000418	4.175541	0.707356	0.000042
 288	2.8556e+01	2.8529	-6.864129	0.000426	4.257414	0.721226	0.000043
 289	2.8656e+01	2.8625	-6.820544	0.000438	4.380224	0.742030	0.000044
 290	2.8756e+01	2.8715	-6.781439	0.000393	3.929921	0.665747	0.000039
 291	2.8855e+01	2.8790	-6.740297	0.000413	4.134604	0.700421	0.000041
 292	2.8954e+01	2.8939	-6.700785	0.000397	3.970858	0.672682	0.000040
 293	2.9054e+01	2.9029	-6.657199	0.000438	4.380224	0.742030	0.000044
 294	2.9154e+01	2.9121	-6.614428	0.000430	4.298351	0.728160	0.000043
 295	2.9253e+01	2.9208	-6.575323	0.000393	3.929921	0.665747	0.000039
 296	2.9352e+01	2.9289	-6.532552	0.000430	4.298351	0.728160	0.000043
 297	2.9452e+01	2.9395	-6.488967	0.000438	4.380224	0.742030	0.000044
 298	2.9552e+01	2.9510	-6.446603	0.000426	4.257414	0.721226	0.000043
 299	2.9651e+01	2.9604	-6.405869	0.000409	4.093668	0.693486	0.000041
 300	2.9750e+01	2.9742	-6.362283	0.000438	4.380224	0.742030	0.000044
 301	2.9850e+01	2.9816	-6.316254	0.000463	4.625845	0.783639	0.000046
 302	2.9950e+01	2.9908	-6.271039	0.000454	4.543971	0.769770	0.000045
 303	3.0049e+01	2.9990	-6.228268	0.000430	4.298351	0.728160	0.000043
 304	3.0148e+01	3.0120	-6.183867	0.000446	4.462098	0.755900	0.000045
 305	3.0248e+01	3.0256	-6.143540	0.000405	4.052731	0.686551	0.000041
 306	3.0348e+01	3.0303	-6.098325	0.000454	4.543971	0.769770	0.000045
 307	3.0447e+01	3.0408	-6.055554	0.000430	4.298351	0.728160	0.000043
 308	3.0547e+01	3.0516	-6.011969	0.000438	4.380224	0.742030	0.000044
 309	3.0646e+01	3.0604	-5.968383	0.000438	4.380224	0.742030	0.000044
 310	3.0745e+01	3.0707	-5.924390	0.000442	4.421161	0.748965	0.000044
 311	3.0845e+01	3.0802	-5.880397	0.000442	4.421161	0.748965	0.000044
 312	3.0945e+01	3.0939	-5.838033	0.000426	4.257414	0.721226	0.000043
 313	3.1044e+01	3.1023	-5.791189	0.000471	4.707718	0.797509	0.000047
 314	3.1143e+01	3.1087	-5.746381	0.000450	4.503034	0.762835	0.000045
 315	3.1243e+01	3.1216	-5.706462	0.000401	4.011794	0.679616	0.000040
 316	3.1343e+01	3.1312	-5.657581	0.000491	4.912401	0.832183	0.000049
 317	3.1442e+01	3.1413	-5.617254	0.000405	4.052731	0.686551	0.000041
 318	3.1541e+01	3.1506	-5.573668	0.000438	4.380224	0.742030	0.000044
 319	3.1641e+01	3.1607	-5.531305	0.000426	4.257414	0.721226	0.000043
 320	3.1741e+01	3.1687	-5.487719	0.000438	4.380224	0.742030	0.000044
 321	3.1840e+01	3.1796	-5.443726	0.000442	4.421161	0.748965	0.000044
 322	3.1939e+01	3.1895	-5.395659	0.000483	4.830528	0.818314	0.000048
 323	3.2039e+01	3.1983	-5.351666	0.000442	4.421161	0.748965	0.000044
 324	3.2139e+01	3.2075	-5.306859	0.000450	4.503034	0.762835	0.000045
 325	3.2238e+01	3.2214	-5.260014	0.000471	4.707718	0.797509	0.000047
 326	3.2337e+01	3.2301	-5.218465	0.000418	4.175541	0.707356	0.000042
 327	3.2437e+01	3.2415	-5.174472	0.000442	4.421161	0.748965	0.000044
 328	3.2536e+01	3.2508	-5.130887	0.000438	4.380224	0.742030	0.000044
 329	3.2636e+01	3.2613	-5.088116	0.000430	4.298351	0.728160	0.000043
 330	3.2736e+01	3.2701	-5.043308	0.000450	4.503034	0.762835	0.000045
 331	3.2835e+01	3.2784	-4.999315	0.000442	4.421161	0.748965	0.000044
 332	3.2934e+01	3.2890	-4.957766	0.000418	4.175541	0.707356	0.000042
 333	3.3034e+01	3.3025	-4.909700	0.000483	4.830528	0.818314	0.000048
 334	3.3133e+01	3.3106	-4.864485	0.000454	4.543971	0.769770	0.000045
 335	3.3233e+01	3.3196	-4.820084	0.000446	4.462098	0.755900	0.000045
 336	3.3333e+01	3.3287	-4.776091	0.000442	4.421161	0.748965	0.000044
 337	3.3432e+01	3.3398	-4.733728	0.000426	4.257414	0.721226	0.000043
 338	3.3532e+01	3.3507	-4.687698	0.000463	4.625845	0.783639	0.000046
 339	3.3631e+01	3.3596	-4.642076	0.000458	4.584908	0.776704	0.000046
 340	3.3730e+01	3.3699	-4.598490	0.000438	4.380224	0.742030	0.000044
 341	3.3830e+01	3.3826	-4.557756	0.000409	4.093668	0.693486	0.000041
 342	3.3929e+01	3.3911	-4.513355	0.000446	4.462098	0.755900	0.000045
 343	3.4029e+01	3.3951	-4.470585	0.000430	4.298351	0.728160	0.000043
 344	3.4129e+01	3.4118	-4.429036	0.000418	4.175541	0.707356	0.000042
 345	3.4228e+01	3.4194	-4.380562	0.000487	4.871465	0.825248	0.000049
 346	3.4328e+01	3.4290	-4.340642	0.000401	4.011794	0.679616	0.000040
 347	3.4427e+01	3.4399	-4.295835	0.000450	4.503034	0.762835	0.000045
 348	3.4526e+01	3.4486	-4.248990	0.000471	4.707718	0.797509	0.000047
 349	3.4626e+01	3.4573	-4.203775	0.000454	4.543971	0.769770	0.000045
 350	3.4725e+01	3.4685	-4.163856	0.000401	4.011794	0.679616	0.000040
 351	3.4825e+01	3.4797	-4.117826	0.000463	4.625845	0.783639	0.000046
 352	3.4925e+01	3.4921	-4.068130	0.000499	4.994275	0.846053	0.000050
 353	3.5024e+01	3.4997	-4.026174	0.000422	4.216478	0.714291	0.000042
 354	3.5123e+01	3.5098	-3.976478	0.000499	4.994275	0.846053	0.000050
 355	3.5223e+01	3.5169	-3.936966	0.000397	3.970858	0.672682	0.000040
 356	3.5322e+01	3.5291	-3.890936	0.000463	4.625845	0.783639	0.000046
 357	3.5422e+01	3.5387	-3.846536	0.000446	4.462098	0.755900	0.000045
 358	3.5522e+01	3.5517	-3.802135	0.000446	4.462098	0.755900	0.000045
 359	3.5621e+01	3.5592	-3.756106	0.000463	4.625845	0.783639	0.000046
 360	3.5721e+01	3.5677	-3.712520	0.000438	4.380224	0.742030	0.000044
 361	3.5820e+01	3.5756	-3.664861	0.000479	4.789591	0.811379	0.000048
 362	3.5919e+01	3.5899	-3.618017	0.000471	4.707718	0.797509	0.000047
 363	3.6019e+01	3.5955	-3.574838	0.000434	4.339288	0.735095	0.000043
 364	3.6118e+01	3.6077	-3.522291	0.000528	5.280831	0.894597	0.000053
 365	3.6218e+01	3.6142	-3.478298	0.000442	4.421161	0.748965	0.000044
 366	3.6318e+01	3.6311	-3.430639	0.000479	4.789591	0.811379	0.000048
 367	3.6417e+01	3.6414	-3.386239	0.000446	4.462098	0.755900	0.000045
 368	3.6517e+01	3.6459	-3.337765	0.000487	4.871465	0.825248	0.000049
 369	3.6616e+01	3.6561	-3.297438	0.000405	4.052731	0.686551	0.000041
 370	3.6715e+01	3.6687	-3.248964	0.000487	4.871465	0.825248	0.000049
 371	3.6815e+01	3.6785	-3.206193	0.000430	4.298351	0.728160	0.000043
 372	3.6914e+01	3.6884	-3.163830	0.000426	4.257414	0.721226	0.000043
 373	3.7014e+01	3.6979	-3.122688	0.000413	4.134604	0.700421	0.000041
 374	3.7114e+01	3.7078	-3.075029	0.000479	4.789591	0.811379	0.000048
 375	3.7213e+01	3.7164	-3.027777	0.000475	4.748655	0.804444	0.000047
 376	3.7313e+01	3.7308	-2.982562	0.000454	4.543971	0.769770	0.000045
 377	3.7412e+01	3.7386	-2.938569	0.000442	4.421161	0.748965	0.000044
 378	3.7511e+01	3.7458	-2.899464	0.000393	3.929921	0.665747	0.000039
 379	3.7611e+01	3.7560	-2.852213	0.000475	4.748655	0.804444	0.000047
 380	3.7711e+01	3.7667	-2.809442	0.000430	4.298351	0.728160	0.000043
 381	3.7810e+01	3.7757	-2.766263	0.000434	4.339288	0.735095	0.000043
 382	3.7910e+01	3.7872	-2.727566	0.000389	3.888984	0.658812	0.000039
 383	3.8009e+01	3.7977	-2.684387	0.000434	4.339288	0.735095	0.000043
 384	3.8108e+01	3.8055	-2.646505	0.000381	3.807111	0.644942	0.000038
 385	3.8208e+01	3.8192	-2.600882	0.000458	4.584908	0.776704	0.000046
 386	3.8307e+01	3.8273	-2.561370	0.000397	3.970858	0.672682	0.000040
 387	3.8407e+01	3.8404	-2.523080	0.000385	3.848048	0.651877	0.000038
 388	3.8507e+01	3.8454	-2.479494	0.000438	4.380224	0.742030	0.000044
 389	3.8606e+01	3.8576	-2.437130	0.000426	4.257414	0.721226	0.000043
 390	3.8706e+01	3.8660	-2.394767	0.000426	4.257414	0.721226	0.000043
 391	3.8805e+01	3.8750	-2.358921	0.000360	3.602428	0.610268	0.000036
 392	3.8904e+01	3.8877	-2.314520	0.000446	4.462098	0.755900	0.000045
 393	3.9004e+01	3.8953	-2.273786	0.000409	4.093668	0.693486	0.000041
 394	3.9103e+01	3.9057	-2.235903	0.000381	3.807111	0.644942	0.000038
 395	3.9203e+01	3.9170	-2.191503	0.000446	4.462098	0.755900	0.000045
 396	3.9303e+01	3.9247	-2.153620	0.000381	3.807111	0.644942	0.000038
 397	3.9402e+01	3.9373	-2.110849	0.000430	4.298351	0.728160	0.000043
 398	3.9502e+01	3.9465	-2.072559	0.000385	3.848048	0.651877	0.000038
 399	3.9601e+01	3.9548	-2.030603	0.000422	4.216478	0.714291	0.000042
 400	3.9700e+01	3.9657	-1.991090	0.000397	3.970858	0.672682	0.000040
 401	3.9800e+01	3.9750	-1.950763	0.000405	4.052731	0.686551	0.000041
 402	3.9900e+01	3.9874	-1.911251	0.000397	3.970858	0.672682	0.000040
 403	3.9999e+01	3.9931	-1.870924	0.000405	4.052731	0.686551	0.000041
 404	4.0099e+01	4.0064	-1.828968	0.000422	4.216478	0.714291	0.000042
 405	4.0198e+01	4.0133	-1.793937	0.000352	3.520554	0.596398	0.000035
 406	4.0297e+01	4.0248	-1.752388	0.000418	4.175541	0.707356	0.000042
 407	4.0397e+01	4.0356	-1.713283	0.000393	3.929921	0.665747	0.000039
 408	4.0496e+01	4.0485	-1.674178	0.000393	3.929921	0.665747	0.000039
 409	4.0596e+01	4.0545	-1.635888	0.000385	3.848048	0.651877	0.000038
 410	4.0696e+01	4.0630	-1.599634	0.000364	3.643364	0.617203	0.000036
 411	4.0795e+01	4.0753	-1.558493	0.000413	4.134604	0.700421	0.000041
 412	4.0895e+01	4.0849	-1.517351	0.000413	4.134604	0.700421	0.000041
 413	4.0994e+01	4.0944	-1.479468	0.000381	3.807111	0.644942	0.000038
 414	4.1093e+01	4.1056	-1.437512	0.000422	4.216478	0.714291	0.000042
 415	4.1193e+01	4.1174	-1.400851	0.000368	3.684301	0.624137	0.000037
 416	4.1292e+01	4.1225	-1.362968	0.000381	3.807111	0.644942	0.000038
 417	4.1392e+01	4.1373	-1.323456	0.000397	3.970858	0.672682	0.000040
 418	4.1492e+01	4.1451	-1.285980	0.000377	3.766174	0.638007	0.000038
 419	4.1591e+01	4.1573	-1.246876	0.000393	3.929921	0.665747	0.000039
 420	4.1691e+01	4.1654	-1.208993	0.000381	3.807111	0.644942	0.000038
 421	4.1790e+01	4.1750	-1.170702	0.000385	3.848048	0.651877	0.000038
 422	4.1889e+01	4.1835	-1.130376	0.000405	4.052731	0.686551	0.000041
 423	4.1989e+01	4.1940	-1.096159	0.000344	3.438681	0.582528	0.000034
 424	4.2089e+01	4.2064	-1.055832	0.000405	4.052731	0.686551	0.000041
 425	4.2188e+01	4.2164	-1.019578	0.000364	3.643364	0.617203	0.000036
 426	4.2288e+01	4.2226	-0.978844	0.000409	4.093668	0.693486	0.000041
 427	4.2387e+01	4.2333	-0.940554	0.000385	3.848048	0.651877	0.000038
 428	4.2486e+01	4.2440	-0.898598	0.000422	4.216478	0.714291	0.000042
 429	4.2586e+01	4.2525	-0.861122	0.000377	3.766174	0.638007	0.000038
 430	4.2685e+01	4.2649	-0.824869	0.000364	3.643364	0.617203	0.000036
 431	4.2785e+01	4.2776	-0.784949	0.000401	4.011794	0.679616	0.000040
 432	4.2885e+01	4.2844	-0.749918	0.000352	3.520554	0.596398	0.000035
 433	4.2984e+01	4.2934	-0.708776	0.000413	4.134604	0.700421	0.000041
 434	4.3084e+01	4.3056	-0.675374	0.000336	3.356808	0.568659	0.000034
 435	4.3183e+01	4.3131	-0.639528	0.000360	3.602428	0.610268	0.000036
 436	4.3282e+01	4.3256	-0.600016	0.000397	3.970858	0.672682	0.000040
 437	4.3382e+01	4.3342	-0.565391	0.000348	3.479618	0.589463	0.000035
 438	4.3481e+01	4.3469	-0.524250	0.000413	4.134604	0.700421	0.000041
 439	4.3581e+01	4.3555	-0.490440	0.000340	3.397744	0.575593	0.000034
 440	4.3681e+01	4.3645	-0.454594	0.000360	3.602428	0.610268	0.000036
 441	4.3780e+01	4.3739	-0.416304	0.000385	3.848048	0.651877	0.000038
 442	4.3880e+01	4.3844	-0.380051	0.000364	3.643364	0.617203	0.000036
 443	4.3979e+01	4.3928	-0.342982	0.000373	3.725238	0.631072	0.000037
 444	4.4078e+01	4.4051	-0.307136	0.000360	3.602428	0.610268	0.000036
 445	4.4178e+01	4.4169	-0.273327	0.000340	3.397744	0.575593	0.000034
 446	4.4278e+01	4.4221	-0.237073	0.000364	3.643364	0.617203	0.000036
 447	4.4377e+01	4.4337	-0.203671	0.000336	3.356808	0.568659	0.000034
 448	4.4477e+01	4.4439	-0.168232	0.000356	3.561491	0.603333	0.000036
 449	4.4576e+01	4.4538	-0.134830	0.000336	3.356808	0.568659	0.000034
 450	4.4675e+01	4.4645	-0.101021	0.000340	3.397744	0.575593	0.000034
 451	4.4775e+01	4.4751	-0.066804	0.000344	3.438681	0.582528	0.000034
 452	4.4874e+01	4.4866	-0.028921	0.000381	3.807111	0.644942	0.000038
 453	4.4974e+01	4.4923	0.004481	0.000336	3.356808	0.568659	0.000034
 454	4.5074e+01	4.5057	0.039920	0.000356	3.561491	0.603333	0.000036
 455	4.5173e+01	4.5135	0.076580	0.000368	3.684301	0.624137	0.000037
 456	4.5273e+01	4.5222	0.113649	0.000373	3.725238	0.631072	0.000037
 457	4.5372e+01	4.5338	0.147051	0.000336	3.356808	0.568659	0.000034
 458	4.5471e+01	4.5452	0.186970	0.000401	4.011794	0.679616	0.000040
 459	4.5571e+01	4.5544	0.222002	0.000352	3.520554	0.596398	0.000035
 460	4.5670e+01	4.5636	0.256626	0.000348	3.479618	0.589463	0.000035
 461	4.5770e+01	4.5742	0.293287	0.000368	3.684301	0.624137	0.000037
 462	4.5870e+01	4.5824	0.332392	0.000393	3.929921	0.665747	0.000039
 463	4.5969e+01	4.5932	0.361720	0.000295	2.947441	0.499310	0.000029
 464	4.6069e+01	4.6026	0.402862	0.000413	4.134604	0.700421	0.000041
 465	4.6168e+01	4.6162	0.441967	0.000393	3.929921	0.665747	0.000039
 466	4.6267e+01	4.6243	0.477405	0.000356	3.561491	0.603333	0.000036
 467	4.6367e+01	4.6314	0.513659	0.000364	3.643364	0.617203	0.000036
 468	4.6467e+01	4.6452	0.554801	0.000413	4.134604	0.700421	0.000041
 469	4.6566e+01	4.6523	0.598386	0.000438	4.380224	0.742030	0.000044
 470	4.6666e+01	4.6632	0.628937	0.000307	3.070251	0.520115	0.000031
 471	4.6765e+01	4.6726	0.670893	0.000422	4.216478	0.714291	0.000042
 472	4.6864e+01	4.6826	0.705517	0.000348	3.479618	0.589463	0.000035
 473	4.6964e+01	4.6925	0.742585	0.000373	3.725238	0.631072	0.000037
 474	4.7063e+01	4.7024	0.783727	0.000413	4.134604	0.700421	0.000041
 475	4.7163e+01	4.7149	0.818351	0.000348	3.479618	0.589463	0.000035
 476	4.7263e+01	4.7228	0.862752	0.000446	4.462098	0.755900	0.000045
 477	4.7362e+01	4.7301	0.898598	0.000360	3.602428	0.610268	0.000036
 478	4.7462e+01	4.7403	0.937703	0.000393	3.929921	0.665747	0.000039
 479	4.7561e+01	4.7543	0.973549	0.000360	3.602428	0.610268	0.000036
 480	4.7660e+01	4.7628	1.011839	0.000385	3.848048	0.651877	0.000038
 481	4.7760e+01	4.7720	1.048500	0.000368	3.684301	0.624137	0.000037
 482	4.7859e+01	4.7787	1.088419	0.000401	4.011794	0.679616	0.000040
 483	4.7959e+01	4.7909	1.129154	0.000409	4.093668	0.693486	0.000041
 484	4.8059e+01	4.8050	1.167444	0.000385	3.848048	0.651877	0.000038
 485	4.8158e+01	4.8124	1.201661	0.000344	3.438681	0.582528	0.000034
 486	4.8258e+01	4.8208	1.243209	0.000418	4.175541	0.707356	0.000042
 487	4.8357e+01	4.8325	1.282722	0.000397	3.970858	0.672682	0.000040
 488	4.8456e+01	4.8431	1.319790	0.000373	3.725238	0.631072	0.000037
 489	4.8556e+01	4.8562	1.361746	0.000422	4.216478	0.714291	0.000042
 490	4.8656e+01	4.8620	1.402480	0.000409	4.093668	0.693486	0.000041
 491	4.8755e+01	4.8725	1.442400	0.000401	4.011794	0.679616	0.000040
 492	4.8855e+01	4.8824	1.477431	0.000352	3.520554	0.596398	0.000035
 493	4.8954e+01	4.8907	1.518573	0.000413	4.134604	0.700421	0.000041
 494	4.9053e+01	4.9017	1.560122	0.000418	4.175541	0.707356	0.000042
 495	4.9153e+01	4.9122	1.594746	0.000348	3.479618	0.589463	0.000035
 496	4.9252e+01	4.9221	1.636702	0.000422	4.216478	0.714291	0.000042
 497	4.9352e+01	4.9329	1.672141	0.000356	3.561491	0.603333	0.000036
 498	4.9452e+01	4.9409	1.711653	0.000397	3.970858	0.672682	0.000040
 499	4.9551e+01	4.9500	1.754424	0.000430	4.298351	0.728160	0.000043
 500	4.9651e+01	4.9593	1.791085	0.000368	3.684301	0.624137	0.000037
 501	4.9750e+01	4.9708	1.826931	0.000360	3.602428	0.610268	0.000036
 502	4.9849e+01	4.9778	1.867666	0.000409	4.093668	0.693486	0.000041
 503	4.9949e+01	4.9906	1.907993	0.000405	4.052731	0.686551	0.000041
 504	5.0048e+01	4.9990	1.947097	0.000393	3.929921	0.665747	0.000039
 505	5.0148e+01	5.0093	1.986610	0.000397	3.970858	0.672682	0.000040
 506	5.0248e+01	5.0204	2.027344	0.000409	4.093668	0.693486	0.000041
 507	5.0347e+01	5.0327	2.062783	0.000356	3.561491	0.603333	0.000036
 508	5.0447e+01	5.0414	2.101888	0.000393	3.929921	0.665747	0.000039
 509	5.0546e+01	5.0510	2.138141	0.000364	3.643364	0.617203	0.000036
 510	5.0645e+01	5.0603	2.179690	0.000418	4.175541	0.707356	0.000042
 511	5.0745e+01	5.0717	2.211463	0.000319	3.193061	0.540919	0.000032
 512	5.0844e+01	5.0790	2.253419	0.000422	4.216478	0.714291	0.000042
 513	5.0944e+01	5.0905	2.293339	0.000401	4.011794	0.679616	0.000040
 514	5.1044e+01	5.1038	2.332443	0.000393	3.929921	0.665747	0.000039
 515	5.1143e+01	5.1124	2.369919	0.000377	3.766174	0.638007	0.000038
 516	5.1242e+01	5.1177	2.409431	0.000397	3.970858	0.672682	0.000040
 517	5.1342e+01	5.1308	2.447721	0.000385	3.848048	0.651877	0.000038
 518	5.1441e+01	5.1376	2.487641	0.000401	4.011794	0.679616	0.000040
 519	5.1541e+01	5.1494	2.529190	0.000418	4.175541	0.707356	0.000042
 520	5.1641e+01	5.1601	2.569517	0.000405	4.052731	0.686551	0.000041
 521	5.1740e+01	5.1739	2.608214	0.000389	3.888984	0.658812	0.000039
 522	5.1840e+01	5.1785	2.650171	0.000422	4.216478	0.714291	0.000042
 523	5.1939e+01	5.1897	2.691312	0.000413	4.134604	0.700421	0.000041
 524	5.2038e+01	5.2013	2.730010	0.000389	3.888984	0.658812	0.000039
 525	5.2138e+01	5.2094	2.769115	0.000393	3.929921	0.665747	0.000039
 526	5.2237e+01	5.2218	2.811886	0.000430	4.298351	0.728160	0.000043
 527	5.2337e+01	5.2288	2.846102	0.000344	3.438681	0.582528	0.000034
 528	5.2437e+01	5.2383	2.887651	0.000418	4.175541	0.707356	0.000042
 529	5.2536e+01	5.2508	2.927978	0.000405	4.052731	0.686551	0.000041
 530	5.2636e+01	5.2596	2.971971	0.000442	4.421161	0.748965	0.000044
 531	5.2735e+01	5.2701	3.013113	0.000413	4.134604	0.700421	0.000041
 532	5.2834e+01	5.2796	3.054662	0.000418	4.175541	0.707356	0.000042
 533	5.2934e+01	5.2888	3.095396	0.000409	4.093668	0.693486	0.000041
 534	5.3033e+01	5.2995	3.140611	0.000454	4.543971	0.769770	0.000045
 535	5.3133e+01	5.3078	3.176050	0.000356	3.561491	0.603333	0.000036
 536	5.3233e+01	5.3194	3.219228	0.000434	4.339288	0.735095	0.000043
 537	5.3332e+01	5.3280	3.258333	0.000393	3.929921	0.665747	0.000039
 538	5.3431e+01	5.3389	3.300289	0.000422	4.216478	0.714291	0.000042
 539	5.3531e+01	5.3493	3.336950	0.000368	3.684301	0.624137	0.000037
 540	5.3630e+01	5.3571	3.376870	0.000401	4.011794	0.679616	0.000040
 541	5.3730e+01	5.3674	3.416382	0.000397	3.970858	0.672682	0.000040
 542	5.3830e+01	5.3799	3.454672	0.000385	3.848048	0.651877	0.000038
 543	5.3929e+01	5.3890	3.497850	0.000434	4.339288	0.735095	0.000043
 544	5.4029e+01	5.4006	3.533697	0.000360	3.602428	0.610268	0.000036
 545	5.4128e+01	5.4079	3.573616	0.000401	4.011794	0.679616	0.000040
 546	5.4227e+01	5.4185	3.609055	0.000356	3.561491	0.603333	0.000036
 547	5.4327e+01	5.4313	3.650197	0.000413	4.134604	0.700421	0.000041
 548	5.4426e+01	5.4388	3.684821	0.000348	3.479618	0.589463	0.000035
 549	5.4526e+01	5.4461	3.723926	0.000393	3.929921	0.665747	0.000039
 550	5.4626e+01	5.4595	3.761401	0.000377	3.766174	0.638007	0.000038
 551	5.4725e+01	5.4707	3.799284	0.000381	3.807111	0.644942	0.000038
 552	5.4825e+01	5.4794	3.834723	0.000356	3.561491	0.603333	0.000036
 553	5.4924e+01	5.4884	3.873420	0.000389	3.888984	0.658812	0.000039
 554	5.5023e+01	5.4980	3.911711	0.000385	3.848048	0.651877	0.000038
 555	5.5123e+01	5.5078	3.943891	0.000323	3.233997	0.547854	0.000032
 556	5.5222e+01	5.5178	3.978922	0.000352	3.520554	0.596398	0.000035
 557	5.5322e+01	5.5294	4.019249	0.000405	4.052731	0.686551	0.000041
 558	5.5422e+01	5.5407	4.054280	0.000352	3.520554	0.596398	0.000035
 559	5.5521e+01	5.5490	4.086868	0.000327	3.274934	0.554789	0.000033
 560	5.5620e+01	5.5573	4.123936	0.000373	3.725238	0.631072	0.000037
 561	5.5720e+01	5.5694	4.158967	0.000352	3.520554	0.596398	0.000035
 562	5.5819e+01	5.5835	4.200924	0.000422	4.216478	0.714291	0.000042
 563	5.5919e+01	5.5876	4.233511	0.000327	3.274934	0.554789	0.000033
 564	5.6019e+01	5.5980	4.264469	0.000311	3.111187	0.527049	0.000031
 565	5.6118e+01	5.6091	4.305611	0.000413	4.134604	0.700421	0.000041
 566	5.6218e+01	5.6190	4.341050	0.000356	3.561491	0.603333	0.000036
 567	5.6317e+01	5.6289	4.375674	0.000348	3.479618	0.589463	0.000035
 568	5.6416e+01	5.6387	4.410298	0.000348	3.479618	0.589463	0.000035
 569	5.6516e+01	5.6477	4.448995	0.000389	3.888984	0.658812	0.000039
 570	5.6615e+01	5.6583	4.479953	0.000311	3.111187	0.527049	0.000031
 571	5.6715e+01	5.6690	4.515800	0.000360	3.602428	0.610268	0.000036
 572	5.6815e+01	5.6770	4.550016	0.000344	3.438681	0.582528	0.000034
 573	5.6914e+01	5.6867	4.584233	0.000344	3.438681	0.582528	0.000034
 574	5.7014e+01	5.6963	4.619265	0.000352	3.520554	0.596398	0.000035
 575	5.7113e+01	5.7075	4.654703	0.000356	3.561491	0.603333	0.000036
 576	5.7212e+01	5.7169	4.688105	0.000336	3.356808	0.568659	0.000034
 577	5.7312e+01	5.7278	4.722730	0.000348	3.479618	0.589463	0.000035
 578	5.7411e+01	5.7363	4.756539	0.000340	3.397744	0.575593	0.000034
 579	5.7511e+01	5.7484	4.794422	0.000381	3.807111	0.644942	0.000038
 580	5.7611e+01	5.7577	4.825380	0.000311	3.111187	0.527049	0.000031
 581	5.7710e+01	5.7665	4.857153	0.000319	3.193061	0.540919	0.000032
 582	5.7809e+01	5.7761	4.897072	0.000401	4.011794	0.679616	0.000040
 583	5.7909e+01	5.7868	4.928438	0.000315	3.152124	0.533984	0.000032
 584	5.8008e+01	5.8009	4.965098	0.000368	3.684301	0.624137	0.000037
 585	5.8108e+01	5.8076	4.998093	0.000332	3.315871	0.561724	0.000033
 586	5.8208e+01	5.8163	5.029051	0.000311	3.111187	0.527049	0.000031
 587	5.8307e+01	5.8282	5.064490	0.000356	3.561491	0.603333	0.000036
 588	5.8407e+01	5.8351	5.098707	0.000344	3.438681	0.582528	0.000034
 589	5.8506e+01	5.8450	5.134146	0.000356	3.561491	0.603333	0.000036
 590	5.8605e+01	5.8566	5.165104	0.000311	3.111187	0.527049	0.000031
 591	5.8705e+01	5.8672	5.200950	0.000360	3.602428	0.610268	0.000036
 592	5.8804e+01	5.8762	5.231500	0.000307	3.070251	0.520115	0.000031
 593	5.8904e+01	5.8874	5.268976	0.000377	3.766174	0.638007	0.000038
 594	5.9004e+01	5.8955	5.303193	0.000344	3.438681	0.582528	0.000034
 595	5.9103e+01	5.9057	5.338631	0.000356	3.561491	0.603333	0.000036
 596	5.9203e+01	5.9180	5.372848	0.000344	3.438681	0.582528	0.000034
 597	5.9302e+01	5.9257	5.407065	0.000344	3.438681	0.582528	0.000034
 598	5.9401e+01	5.9377	5.440874	0.000340	3.397744	0.575593	0.000034
 599	5.9501e+01	5.9460	5.473055	0.000323	3.233997	0.547854	0.000032
 600	5.9600e+01	5.9548	5.500346	0.000274	2.742757	0.464636	0.000027
 601	5.9700e+01	5.9653	5.535785	0.000356	3.561491	0.603333	0.000036
 602	5.9800e+01	5.9744	5.569595	0.000340	3.397744	0.575593	0.000034
 603	5.9899e+01	5.9850	5.601367	0.000319	3.193061	0.540919	0.000032
 604	5.9998e+01	5.9942	5.633140	0.000319	3.193061	0.540919	0.000032
 605	6.0098e+01	6.0046	5.664098	0.000311	3.111187	0.527049	0.000031
 606	6.0197e+01	6.0175	5.697500	0.000336	3.356808	0.568659	0.000034
 607	6.0297e+01	6.0262	5.730088	0.000327	3.274934	0.554789	0.000033
 608	6.0397e+01	6.0349	5.759009	0.000291	2.906504	0.492375	0.000029
 609	6.0496e+01	6.0471	5.795670	0.000368	3.684301	0.624137	0.000037
 610	6.0596e+01	6.0540	5.824998	0.000295	2.947441	0.499310	0.000029
 611	6.0695e+01	6.0662	5.858808	0.000340	3.397744	0.575593	0.000034
 612	6.0794e+01	6.0744	5.890988	0.000323	3.233997	0.547854	0.000032
 613	6.0894e+01	6.0825	5.918687	0.000278	2.783694	0.471571	0.000028
 614	6.0993e+01	6.0928	5.952089	0.000336	3.356808	0.568659	0.000034
 615	6.1093e+01	6.1062	5.979789	0.000278	2.783694	0.471571	0.000028
 616	6.1193e+01	6.1173	6.008710	0.000291	2.906504	0.492375	0.000029
 617	6.1292e+01	6.1269	6.041297	0.000327	3.274934	0.554789	0.000033
 618	6.1392e+01	6.1364	6.070219	0.000291	2.906504	0.492375	0.000029
 619	6.1491e+01	6.1463	6.102806	0.000327	3.274934	0.554789	0.000033
 620	6.1590e+01	6.1541	6.130913	0.000282	2.824631	0.478505	0.000028
 621	6.1690e+01	6.1658	6.162278	0.000315	3.152124	0.533984	0.000032
 622	6.1789e+01	6.1756	6.198939	0.000368	3.684301	0.624137	0.000037
 623	6.1889e+01	6.1840	6.229490	0.000307	3.070251	0.520115	0.000031
 624	6.1989e+01	6.1934	6.261670	0.000323	3.233997	0.547854	0.000032
 625	6.2088e+01	6.2025	6.290184	0.000287	2.865567	0.485440	0.000029
 626	6.2188e+01	6.2135	6.322771	0.000327	3.274934	0.554789	0.000033
 627	6.2287e+01	6.2248	6.357395	0.000348	3.479618	0.589463	0.000035
 628	6.2386e+01	6.2368	6.389575	0.000323	3.233997	0.547854	0.000032
 629	6.2486e+01	6.2469	6.421348	0.000319	3.193061	0.540919	0.000032
 630	6.2586e+01	6.2572	6.452306	0.000311	3.111187	0.527049	0.000031
 631	6.2685e+01	6.2655	6.484486	0.000323	3.233997	0.547854	0.000032
 632	6.2785e+01	6.2738	6.517481	0.000332	3.315871	0.561724	0.000033
 633	6.2884e+01	6.2859	6.549254	0.000319	3.193061	0.540919	0.000032
 634	6.2983e+01	6.2948	6.584692	0.000356	3.561491	0.603333	0.000036
 635	6.3083e+01	6.3064	6.617280	0.000327	3.274934	0.554789	0.000033
 636	6.3182e+01	6.3161	6.652719	0.000356	3.561491	0.603333	0.000036
 637	6.3282e+01	6.3241	6.685306	0.000327	3.274934	0.554789	0.000033
 638	6.3382e+01	6.3341	6.723189	0.000381	3.807111	0.644942	0.000038
 639	6.3481e+01	6.3451	6.750481	0.000274	2.742757	0.464636	0.000027
 640	6.3581e+01	6.3526	6.786734	0.000364	3.643364	0.617203	0.000036
 641	6.3680e+01	6.3644	6.820951	0.000344	3.438681	0.582528	0.000034
 642	6.3779e+01	6.3723	6.857612	0.000368	3.684301	0.624137	0.000037
 643	6.3879e+01	6.3836	6.890199	0.000327	3.274934	0.554789	0.000033
 644	6.3978e+01	6.3934	6.923194	0.000332	3.315871	0.561724	0.000033
 645	6.4078e+01	6.4011	6.958633	0.000356	3.561491	0.603333	0.000036
 646	6.4177e+01	6.4146	6.993257	0.000348	3.479618	0.589463	0.000035
 647	6.4277e+01	6.4246	7.025844	0.000327	3.274934	0.554789	0.000033
 648	6.4376e+01	6.4339	7.061283	0.000356	3.561491	0.603333	0.000036
 649	6.4476e+01	6.4429	7.097129	0.000360	3.602428	0.610268	0.000036
 650	6.4576e+01	6.4542	7.132975	0.000360	3.602428	0.610268	0.000036
 651	6.4675e+01	6.4648	7.165563	0.000327	3.274934	0.554789	0.000033
 652	6.4775e+01	6.4733	7.199780	0.000344	3.438681	0.582528	0.000034
 653	6.4874e+01	6.4837	7.234811	0.000352	3.520554	0.596398	0.000035
 654	6.4974e+01	6.4910	7.269843	0.000352	3.520554	0.596398	0.000035
 655	6.5073e+01	6.5053	7.306096	0.000364	3.643364	0.617203	0.000036
 656	6.5172e+01	6.5117	7.337869	0.000319	3.193061	0.540919	0.000032
 657	6.5272e+01	6.5230	7.374530	0.000368	3.684301	0.624137	0.000037
 658	6.5371e+01	6.5328	7.408339	0.000340	3.397744	0.575593	0.000034
 659	6.5471e+01	6.5452	7.442148	0.000340	3.397744	0.575593	0.000034
 660	6.5570e+01	6.5524	7.482068	0.000401	4.011794	0.679616	0.000040
 661	6.5670e+01	6.5639	7.516692	0.000348	3.479618	0.589463	0.000035
 662	6.5769e+01	6.5754	7.550909	0.000344	3.438681	0.582528	0.000034
 663	6.5869e+01	6.5813	7.583496	0.000327	3.274934	0.554789	0.000033
 664	6.5969e+01	6.5923	7.622601	0.000393	3.929921	0.665747	0.000039
 665	6.6068e+01	6.6001	7.657225	0.000348	3.479618	0.589463	0.000035
 666	6.6168e+01	6.6122	7.687776	0.000307	3.070251	0.520115	0.000031
 667	6.6267e+01	6.6207	7.724844	0.000373	3.725238	0.631072	0.000037
 668	6.6367e+01	6.6302	7.761505	0.000368	3.684301	0.624137	0.000037
 669	6.6466e+01	6.6430	7.798166	0.000368	3.684301	0.624137	0.000037
 670	6.6566e+01	6.6512	7.831161	0.000332	3.315871	0.561724	0.000033
 671	6.6665e+01	6.6625	7.868229	0.000373	3.725238	0.631072	0.000037
 672	6.6764e+01	6.6724	7.906519	0.000385	3.848048	0.651877	0.000038
 673	6.6864e+01	6.6830	7.940328	0.000340	3.397744	0.575593	0.000034
 674	6.6963e+01	6.6923	7.972916	0.000327	3.274934	0.554789	0.000033
 675	6.7063e+01	6.6998	8.007133	0.000344	3.438681	0.582528	0.000034
 676	6.7162e+01	6.7113	8.043793	0.000368	3.684301	0.624137	0.000037
 677	6.7262e+01	6.7237	8.080862	0.000373	3.725238	0.631072	0.000037
 678	6.7362e+01	6.7314	8.113449	0.000327	3.274934	0.554789	0.000033
 679	6.7461e+01	6.7403	8.150924	0.000377	3.766174	0.638007	0.000038
 680	6.7561e+01	6.7548	8.184327	0.000336	3.356808	0.568659	0.000034
 681	6.7660e+01	6.7622	8.219765	0.000356	3.561491	0.603333	0.000036
 682	6.7760e+01	6.7749	8.253982	0.000344	3.438681	0.582528	0.000034
 683	6.7859e+01	6.7796	8.288606	0.000348	3.479618	0.589463	0.000035
 684	6.7959e+01	6.7907	8.326896	0.000385	3.848048	0.651877	0.000038
 685	6.8058e+01	6.8035	8.361113	0.000344	3.438681	0.582528	0.000034
 686	6.8157e+01	6.8119	8.400218	0.000393	3.929921	0.665747	0.000039
 687	6.8257e+01	6.8188	8.436472	0.000364	3.643364	0.617203	0.000036
 688	6.8356e+01	6.8315	8.472318	0.000360	3.602428	0.610268	0.000036
 689	6.8456e+01	6.8432	8.511015	0.000389	3.888984	0.658812	0.000039
 690	6.8555e+01	6.8520	8.543195	0.000323	3.233997	0.547854	0.000032
 691	6.8655e+01	6.8632	8.577412	0.000344	3.438681	0.582528	0.000034
 692	6.8754e+01	6.8722	8.618554	0.000413	4.134604	0.700421	0.000041
 693	6.8854e+01	6.8816	8.653585	0.000352	3.520554	0.596398	0.000035
 694	6.8954e+01	6.8874	8.689024	0.000356	3.561491	0.603333	0.000036
 695	6.9053e+01	6.9031	8.723648	0.000348	3.479618	0.589463	0.000035
 696	6.9153e+01	6.9115	8.766012	0.000426	4.257414	0.721226	0.000043
 697	6.9252e+01	6.9239	8.799821	0.000340	3.397744	0.575593	0.000034
 698	6.9352e+01	6.9317	8.840555	0.000409	4.093668	0.693486	0.000041
 699	6.9451e+01	6.9399	8.879253	0.000389	3.888984	0.658812	0.000039
 700	6.9550e+01	6.9535	8.917136	0.000381	3.807111	0.644942	0.000038
 701	6.9650e+01	6.9598	8.956241	0.000393	3.929921	0.665747	0.000039
 702	6.9749e+01	6.9704	8.992494	0.000364	3.643364	0.617203	0.000036
 703	6.9849e+01	6.9802	9.030377	0.000381	3.807111	0.644942	0.000038
 704	6.9948e+01	6.9910	9.064186	0.000340	3.397744	0.575593	0.000034
 705	7.0048e+01	7.0011	9.100847	0.000368	3.684301	0.624137	0.000037
 706	7.0147e+01	7.0101	9.139952	0.000393	3.929921	0.665747	0.000039
 707	7.0247e+01	7.0215	9.177428	0.000377	3.766174	0.638007	0.000038
 708	7.0347e+01	7.0300	9.212866	0.000356	3.561491	0.603333	0.000036
 709	7.0446e+01	7.0391	9.249527	0.000368	3.684301	0.624137	0.000037
 710	7.0546e+01	7.0525	9.288632	0.000393	3.929921	0.665747	0.000039
 711	7.0645e+01	7.0617	9.318776	0.000303	3.029314	0.513180	0.000030
 712	7.0745e+01	7.0707	9.355844	0.000373	3.725238	0.631072	0.000037
 713	7.0844e+01	7.0795	9.396985	0.000413	4.134604	0.700421	0.000041
 714	7.0944e+01	7.0914	9.428351	0.000315	3.152124	0.533984	0.000032
 715	7.1043e+01	7.1022	9.465826	0.000377	3.766174	0.638007	0.000038
 716	7.1142e+01	7.1102	9.499228	0.000336	3.356808	0.568659	0.000034
 717	7.1242e+01	7.1200	9.533852	0.000348	3.479618	0.589463	0.000035
 718	7.1341e+01	7.1332	9.566847	0.000332	3.315871	0.561724	0.000033
 719	7.1441e+01	7.1405	9.602286	0.000356	3.561491	0.603333	0.000036
 720	7.1540e+01	7.1519	9.632429	0.000303	3.029314	0.513180	0.000030
 721	7.1640e+01	7.1597	9.667868	0.000356	3.561491	0.603333	0.000036
 722	7.1740e+01	7.1716	9.700863	0.000332	3.315871	0.561724	0.000033
 723	7.1839e+01	7.1804	9.732636	0.000319	3.193061	0.540919	0.000032
 724	7.1939e+01	7.1883	9.768889	0.000364	3.643364	0.617203	0.000036
 725	7.2038e+01	7.1983	9.805957	0.000373	3.725238	0.631072	0.000037
 726	7.2138e+01	7.2131	9.838137	0.000323	3.233997	0.547854	0.000032
 727	7.2237e+01	7.2207	9.869095	0.000311	3.111187	0.527049	0.000031
 728	7.2337e+01	7.2276	9.899646	0.000307	3.070251	0.520115	0.000031
 729	7.2436e+01	7.2381	9.935900	0.000364	3.643364	0.617203	0.000036
 730	7.2535e+01	7.2495	9.966450	0.000307	3.070251	0.520115	0.000031
 731	7.2635e+01	7.2591	10.002296	0.000360	3.602428	0.610268	0.000036
 732	7.2734e+01	7.2721	10.031218	0.000291	2.906504	0.492375	0.000029
 733	7.2834e+01	7.2792	10.067879	0.000368	3.684301	0.624137	0.000037
 734	7.2933e+01	7.2906	10.099244	0.000315	3.152124	0.533984	0.000032
 735	7.3033e+01	7.2986	10.132646	0.000336	3.356808	0.568659	0.000034
 736	7.3132e+01	7.3063	10.166048	0.000336	3.356808	0.568659	0.000034
 737	7.3232e+01	7.3213	10.203524	0.000377	3.766174	0.638007	0.000038
 738	7.3332e+01	7.3313	10.231630	0.000282	2.824631	0.478505	0.000028
 739	7.3431e+01	7.3375	10.263403	0.000319	3.193061	0.540919	0.000032
 740	7.3531e+01	7.3486	10.295176	0.000319	3.193061	0.540919	0.000032
 741	7.3630e+01	7.3617	10.326541	0.000315	3.152124	0.533984	0.000032
 742	7.3730e+01	7.3694	10.356277	0.000299	2.988377	0.506245	0.000030
 743	7.3829e+01	7.3799	10.389272	0.000332	3.315871	0.561724	0.000033
 744	7.3928e+01	7.3903	10.423081	0.000340	3.397744	0.575593	0.000034
 745	7.4028e+01	7.3969	10.454039	0.000311	3.111187	0.527049	0.000031
 746	7.4127e+01	7.4076	10.488663	0.000348	3.479618	0.589463	0.000035
 747	7.4227e+01	7.4209	10.517992	0.000295	2.947441	0.499310	0.000029
 748	7.4326e+01	7.4297	10.551801	0.000340	3.397744	0.575593	0.000034
 749	7.4426e+01	7.4406	10.587240	0.000356	3.561491	0.603333	0.000036
 750	7.4525e+01	7.4497	10.615754	0.000287	2.865567	0.485440	0.000029
 751	7.4625e+01	7.4589	10.648749	0.000332	3.315871	0.561724	0.000033
 752	7.4725e+01	7.4664	10.678892	0.000303	3.029314	0.513180	0.000030
 753	7.4824e+01	7.4761	10.710258	0.000315	3.152124	0.533984	0.000032
 754	7.4924e+01	7.4893	10.742438	0.000323	3.233997	0.547854	0.000032
 755	7.5023e+01	7.4980	10.774618	0.000323	3.233997	0.547854	0.000032
 756	7.5123e+01	7.5060	10.806798	0.000323	3.233997	0.547854	0.000032
 757	7.5222e+01	7.5195	10.838571	0.000319	3.193061	0.540919	0.000032
 758	7.5322e+01	7.5269	10.868307	0.000299	2.988377	0.506245	0.000030
 759	7.5421e+01	7.5403	10.902931	0.000348	3.479618	0.589463	0.000035
 760	7.5520e+01	7.5488	10.929815	0.000270	2.701821	0.457701	0.000027
 761	7.5620e+01	7.5558	10.966476	0.000368	3.684301	0.624137	0.000037
 762	7.5719e+01	7.5678	10.999878	0.000336	3.356808	0.568659	0.000034
 763	7.5819e+01	7.5791	11.030022	0.000303	3.029314	0.513180	0.000030
 764	7.5918e+01	7.5879	11.060980	0.000311	3.111187	0.527049	0.000031
 765	7.6018e+01	7.5978	11.093160	0.000323	3.233997	0.547854	0.000032
 766	7.6118e+01	7.6074	11.127784	0.000348	3.479618	0.589463	0.000035
 767	7.6217e+01	7.6188	11.159557	0.000319	3.193061	0.540919	0.000032
 768	7.6317e+01	7.6244	11.189700	0.000303	3.029314	0.513180	0.000030
 769	7.6416e+01	7.6353	11.220658	0.000311	3.111187	0.527049	0.000031
 770	7.6516e+01	7.6483	11.250801	0.000303	3.029314	0.513180	0.000030
 771	7.6615e+01	7.6595	11.278908	0.000282	2.824631	0.478505	0.000028
 772	7.6715e+01	7.6679	11.309051	0.000303	3.029314	0.513180	0.000030
 773	7.6814e+01	7.6772	11.340824	0.000319	3.193061	0.540919	0.000032
 774	7.6913e+01	7.6855	11.370153	0.000295	2.947441	0.499310	0.000029
 775	7.7013e+01	7.6966	11.400296	0.000303	3.029314	0.513180	0.000030
 776	7.7112e+01	7.7040	11.432883	0.000327	3.274934	0.554789	0.000033
 777	7.7212e+01	7.7180	11.464656	0.000319	3.193061	0.540919	0.000032
 778	7.7311e+01	7.7251	11.496429	0.000319	3.193061	0.540919	0.000032
 779	7.7411e+01	7.7372	11.528202	0.000319	3.193061	0.540919	0.000032
 780	7.7510e+01	7.7476	11.553049	0.000250	2.497137	0.423027	0.000025
 781	7.7610e+01	7.7596	11.585230	0.000323	3.233997	0.547854	0.000032
 782	7.7710e+01	7.7666	11.612114	0.000270	2.701821	0.457701	0.000027
 783	7.7809e+01	7.7786	11.642257	0.000303	3.029314	0.513180	0.000030
 784	7.7909e+01	7.7866	11.669142	0.000270	2.701821	0.457701	0.000027
 785	7.8008e+01	7.7959	11.697249	0.000282	2.824631	0.478505	0.000028
 786	7.8108e+01	7.8064	11.729021	0.000319	3.193061	0.540919	0.000032
 787	7.8207e+01	7.8144	11.759572	0.000307	3.070251	0.520115	0.000031
 788	7.8306e+01	7.8298	11.786049	0.000266	2.660884	0.450766	0.000027
 789	7.8406e+01	7.8369	11.820674	0.000348	3.479618	0.589463	0.000035
 790	7.8505e+01	7.8477	11.852446	0.000319	3.193061	0.540919	0.000032
 791	7.8605e+01	7.8564	11.883404	0.000311	3.111187	0.527049	0.000031
 792	7.8704e+01	7.8664	11.911511	0.000282	2.824631	0.478505	0.000028
 793	7.8804e+01	7.8770	11.945320	0.000340	3.397744	0.575593	0.000034
 794	7.8903e+01	7.8875	11.976686	0.000315	3.152124	0.533984	0.000032
 795	7.9003e+01	7.8960	12.009273	0.000327	3.274934	0.554789	0.000033
 796	7.9103e+01	7.9078	12.038602	0.000295	2.947441	0.499310	0.000029
 797	7.9202e+01	7.9144	12.069152	0.000307	3.070251	0.520115	0.000031
 798	7.9302e+01	7.9257	12.098481	0.000295	2.947441	0.499310	0.000029
 799	7.9401e+01	7.9351	12.135549	0.000373	3.725238	0.631072	0.000037
 800	7.9501e+01	7.9449	12.165693	0.000303	3.029314	0.513180	0.000030
 801	7.9600e+01	7.9549	12.198687	0.000332	3.315871	0.561724	0.000033
 802	7.9700e+01	7.9653	12.228016	0.000295	2.947441	0.499310	0.000029
 803	7.9799e+01	7.9776	12.267528	0.000397	3.970858	0.672682	0.000040
 804	7.9898e+01	7.9859	12.298894	0.000315	3.152124	0.533984	0.000032
 805	7.9998e+01	7.9964	12.333518	0.000348	3.479618	0.589463	0.000035
 806	8.0097e+01	8.0036	12.368142	0.000348	3.479618	0.589463	0.000035
 807	8.0197e+01	8.0151	12.402359	0.000344	3.438681	0.582528	0.000034
 808	8.0296e+01	8.0240	12.433317	0.000311	3.111187	0.527049	0.000031
 809	8.0396e+01	8.0334	12.470792	0.000377	3.766174	0.638007	0.000038
 810	8.0496e+01	8.0441	12.505416	0.000348	3.479618	0.589463	0.000035
 811	8.0595e+01	8.0531	12.536374	0.000311	3.111187	0.527049	0.000031
 812	8.0695e+01	8.0651	12.573850	0.000377	3.766174	0.638007	0.000038
 813	8.0794e+01	8.0750	12.609289	0.000356	3.561491	0.603333	0.000036
 814	8.0894e+01	8.0841	12.643913	0.000348	3.479618	0.589463	0.000035
 815	8.0993e+01	8.0931	12.676500	0.000327	3.274934	0.554789	0.000033
 816	8.1093e+01	8.1034	12.711939	0.000356	3.561491	0.603333	0.000036
 817	8.1192e+01	8.1131	12.747378	0.000356	3.561491	0.603333	0.000036
 818	8.1291e+01	8.1231	12.777521	0.000303	3.029314	0.513180	0.000030
 819	8.1391e+01	8.1359	12.813775	0.000364	3.643364	0.617203	0.000036
 820	8.1490e+01	8.1453	12.851250	0.000377	3.766174	0.638007	0.000038
 821	8.1590e+01	8.1525	12.883838	0.000327	3.274934	0.554789	0.000033
 822	8.1689e+01	8.1659	12.919684	0.000360	3.602428	0.610268	0.000036
 823	8.1789e+01	8.1770	12.952271	0.000327	3.274934	0.554789	0.000033
 824	8.1888e+01	8.1879	12.995449	0.000434	4.339288	0.735095	0.000043
 825	8.1988e+01	8.1946	13.030888	0.000356	3.561491	0.603333	0.000036
 826	8.2088e+01	8.2056	13.064698	0.000340	3.397744	0.575593	0.000034
 827	8.2187e+01	8.2158	13.100951	0.000364	3.643364	0.617203	0.000036
 828	8.2287e+01	8.2248	13.135168	0.000344	3.438681	0.582528	0.000034
 829	8.2386e+01	8.2337	13.168570	0.000336	3.356808	0.568659	0.000034
 830	8.2486e+01	8.2446	13.204823	0.000364	3.643364	0.617203	0.000036
 831	8.2585e+01	8.2532	13.242299	0.000377	3.766174	0.638007	0.000038
 832	8.2684e+01	8.2643	13.276923	0.000348	3.479618	0.589463	0.000035
 833	8.2784e+01	8.2740	13.311955	0.000352	3.520554	0.596398	0.000035
 834	8.2883e+01	8.2839	13.352281	0.000405	4.052731	0.686551	0.000041
 835	8.2983e+01	8.2941	13.388128	0.000360	3.602428	0.610268	0.000036
 836	8.3082e+01	8.3057	13.421122	0.000332	3.315871	0.561724	0.000033
 837	8.3182e+01	8.3131	13.462671	0.000418	4.175541	0.707356	0.000042
 838	8.3281e+01	8.3244	13.497703	0.000352	3.520554	0.596398	0.000035
 839	8.3381e+01	8.3323	13.534364	0.000368	3.684301	0.624137	0.000037
 840	8.3481e+01	8.3429	13.571432	0.000373	3.725238	0.631072	0.000037
 841	8.3580e+01	8.3533	13.604427	0.000332	3.315871	0.561724	0.000033
 842	8.3680e+01	8.3651	13.642309	0.000381	3.807111	0.644942	0.000038
 843	8.3779e+01	8.3732	13.681007	0.000389	3.888984	0.658812	0.000039
 844	8.3879e+01	8.3840	13.716853	0.000360	3.602428	0.610268	0.000036
 845	8.3978e+01	8.3907	13.752699	0.000360	3.602428	0.610268	0.000036
 846	8.4078e+01	8.4042	13.789360	0.000368	3.684301	0.624137	0.000037
 847	8.4177e+01	8.4117	13.823577	0.000344	3.438681	0.582528	0.000034
 848	8.4276e+01	8.4253	13.861460	0.000381	3.807111	0.644942	0.000038
 849	8.4376e+01	8.4308	13.901787	0.000405	4.052731	0.686551	0.000041
 850	8.4475e+01	8.4411	13.940484	0.000389	3.888984	0.658812	0.000039
 851	8.4575e+01	8.4531	13.972664	0.000323	3.233997	0.547854	0.000032
 852	8.4674e+01	8.4620	14.009325	0.000368	3.684301	0.624137	0.000037
 853	8.4774e+01	8.4743	14.043542	0.000344	3.438681	0.582528	0.000034
 854	8.4874e+01	8.4849	14.086313	0.000430	4.298351	0.728160	0.000043
 855	8.4973e+01	8.4927	14.126640	0.000405	4.052731	0.686551	0.000041
 856	8.5073e+01	8.5020	14.164523	0.000381	3.807111	0.644942	0.000038
 857	8.5172e+01	8.5120	14.201183	0.000368	3.684301	0.624137	0.000037
 858	8.5272e+01	8.5221	14.239474	0.000385	3.848048	0.651877	0.000038
 859	8.5371e+01	8.5332	14.283059	0.000438	4.380224	0.742030	0.000044
 860	8.5471e+01	8.5411	14.317276	0.000344	3.438681	0.582528	0.000034
 861	8.5570e+01	8.5537	14.360454	0.000434	4.339288	0.735095	0.000043
 862	8.5669e+01	8.5648	14.395078	0.000348	3.479618	0.589463	0.000035
 863	8.5769e+01	8.5730	14.436220	0.000413	4.134604	0.700421	0.000041
 864	8.5868e+01	8.5821	14.476140	0.000401	4.011794	0.679616	0.000040
 865	8.5968e+01	8.5913	14.516467	0.000405	4.052731	0.686551	0.000041
 866	8.6067e+01	8.6007	14.557201	0.000409	4.093668	0.693486	0.000041
 867	8.6167e+01	8.6115	14.600786	0.000438	4.380224	0.742030	0.000044
 868	8.6266e+01	8.6209	14.639077	0.000385	3.848048	0.651877	0.000038
 869	8.6366e+01	8.6328	14.679404	0.000405	4.052731	0.686551	0.000041
 870	8.6466e+01	8.6411	14.719730	0.000405	4.052731	0.686551	0.000041
 871	8.6565e+01	8.6526	14.758428	0.000389	3.888984	0.658812	0.000039
 872	8.6665e+01	8.6623	14.802828	0.000446	4.462098	0.755900	0.000045
 873	8.6764e+01	8.6737	14.838267	0.000356	3.561491	0.603333	0.000036
 874	8.6864e+01	8.6825	14.878594	0.000405	4.052731	0.686551	0.000041
 875	8.6963e+01	8.6920	14.916477	0.000381	3.807111	0.644942	0.000038
 876	8.7063e+01	8.7029	14.956804	0.000405	4.052731	0.686551	0.000041
 877	8.7162e+01	8.7114	14.997538	0.000409	4.093668	0.693486	0.000041
 878	8.7261e+01	8.7226	15.039087	0.000418	4.175541	0.707356	0.000042
 879	8.7361e+01	8.7315	15.074118	0.000352	3.520554	0.596398	0.000035
 880	8.7460e+01	8.7421	15.112409	0.000385	3.848048	0.651877	0.000038
 881	8.7560e+01	8.7521	15.154365	0.000422	4.216478	0.714291	0.000042
 882	8.7659e+01	8.7622	15.192655	0.000385	3.848048	0.651877	0.000038
 883	8.7759e+01	8.7698	15.229723	0.000373	3.725238	0.631072	0.000037
 884	8.7859e+01	8.7799	15.269236	0.000397	3.970858	0.672682	0.000040
 885	8.7958e+01	8.7919	15.309155	0.000401	4.011794	0.679616	0.000040
 886	8.8058e+01	8.7977	15.345409	0.000364	3.643364	0.617203	0.000036
 887	8.8157e+01	8.8110	15.381255	0.000360	3.602428	0.610268	0.000036
 888	8.8257e+01	8.8236	15.419545	0.000385	3.848048	0.651877	0.000038
 889	8.8356e+01	8.8290	15.455391	0.000360	3.602428	0.610268	0.000036
 890	8.8456e+01	8.8409	15.493681	0.000385	3.848048	0.651877	0.000038
 891	8.8555e+01	8.8501	15.530342	0.000368	3.684301	0.624137	0.000037
 892	8.8654e+01	8.8599	15.569447	0.000393	3.929921	0.665747	0.000039
 893	8.8754e+01	8.8681	15.604478	0.000352	3.520554	0.596398	0.000035
 894	8.8853e+01	8.8812	15.641139	0.000368	3.684301	0.624137	0.000037
 895	8.8953e+01	8.8906	15.679429	0.000385	3.848048	0.651877	0.000038
 896	8.9052e+01	8.8989	15.718127	0.000389	3.888984	0.658812	0.000039
 897	8.9152e+01	8.9104	15.755195	0.000373	3.725238	0.631072	0.000037
 898	8.9251e+01	8.9198	15.792263	0.000373	3.725238	0.631072	0.000037
 899	8.9351e+01	8.9339	15.829739	0.000377	3.766174	0.638007	0.000038
 900	8.9451e+01	8.9408	15.870880	0.000413	4.134604	0.700421	0.000041
 901	8.9550e+01	8.9545	15.907949	0.000373	3.725238	0.631072	0.000037
 902	8.9650e+01	8.9624	15.942165	0.000344	3.438681	0.582528	0.000034
 903	8.9749e+01	8.9703	15.984122	0.000422	4.216478	0.714291	0.000042
 904	8.9849e+01	8.9809	16.024041	0.000401	4.011794	0.679616	0.000040
 905	8.9948e+01	8.9896	16.061109	0.000373	3.725238	0.631072	0.000037
 906	9.0047e+01	8.9999	16.096956	0.000360	3.602428	0.610268	0.000036
 907	9.0147e+01	9.0124	16.131172	0.000344	3.438681	0.582528	0.000034
 908	9.0246e+01	9.0198	16.170277	0.000393	3.929921	0.665747	0.000039
 909	9.0346e+01	9.0320	16.211012	0.000409	4.093668	0.693486	0.000041
 910	9.0445e+01	9.0405	16.246450	0.000356	3.561491	0.603333	0.000036
 911	9.0545e+01	9.0472	16.284741	0.000385	3.848048	0.651877	0.000038
 912	9.0644e+01	9.0614	16.323031	0.000385	3.848048	0.651877	0.000038
 913	9.0744e+01	9.0707	16.358470	0.000356	3.561491	0.603333	0.000036
 914	9.0844e+01	9.0804	16.399611	0.000413	4.134604	0.700421	0.000041
 915	9.0943e+01	9.0930	16.441160	0.000418	4.175541	0.707356	0.000042
 916	9.1043e+01	9.0974	16.478228	0.000373	3.725238	0.631072	0.000037
 917	9.1142e+01	9.1104	16.515704	0.000377	3.766174	0.638007	0.000038
 918	9.1242e+01	9.1196	16.551550	0.000360	3.602428	0.610268	0.000036
 919	9.1341e+01	9.1299	16.591877	0.000405	4.052731	0.686551	0.000041
 920	9.1441e+01	9.1387	16.626501	0.000348	3.479618	0.589463	0.000035
 921	9.1540e+01	9.1492	16.661532	0.000352	3.520554	0.596398	0.000035
 922	9.1639e+01	9.1582	16.702267	0.000409	4.093668	0.693486	0.000041
 923	9.1739e+01	9.1690	16.740964	0.000389	3.888984	0.658812	0.000039
 924	9.1838e+01	9.1788	16.778847	0.000381	3.807111	0.644942	0.000038
 925	9.1938e+01	9.1876	16.818767	0.000401	4.011794	0.679616	0.000040
 926	9.2037e+01	9.2010	16.859908	0.000413	4.134604	0.700421	0.000041
 927	9.2137e+01	9.2094	16.894125	0.000344	3.438681	0.582528	0.000034
 928	9.2237e+01	9.2182	16.936489	0.000426	4.257414	0.721226	0.000043
 929	9.2336e+01	9.2292	16.972742	0.000364	3.643364	0.617203	0.000036
 930	9.2436e+01	9.2388	17.017550	0.000450	4.503034	0.762835	0.000045
 931	9.2535e+01	9.2506	17.053396	0.000360	3.602428	0.610268	0.000036
 932	9.2635e+01	9.2561	17.096167	0.000430	4.298351	0.728160	0.000043
 933	9.2734e+01	9.2689	17.131606	0.000356	3.561491	0.603333	0.000036
 934	9.2834e+01	9.2799	17.169896	0.000385	3.848048	0.651877	0.000038
 935	9.2933e+01	9.2849	17.210223	0.000405	4.052731	0.686551	0.000041
 936	9.3032e+01	9.2976	17.250142	0.000401	4.011794	0.679616	0.000040
 937	9.3132e+01	9.3101	17.287618	0.000377	3.766174	0.638007	0.000038
 938	9.3231e+01	9.3154	17.327537	0.000401	4.011794	0.679616	0.000040
 939	9.3331e+01	9.3280	17.364606	0.000373	3.725238	0.631072	0.000037
 940	9.3430e+01	9.3384	17.405340	0.000409	4.093668	0.693486	0.000041
 941	9.3530e+01	9.3488	17.444852	0.000397	3.970858	0.672682	0.000040
 942	9.3629e+01	9.3581	17.484364	0.000397	3.970858	0.672682	0.000040
 943	9.3729e+01	9.3688	17.523062	0.000389	3.888984	0.658812	0.000039
 944	9.3829e+01	9.3763	17.563389	0.000405	4.052731	0.686551	0.000041
 945	9.3928e+01	9.3889	17.604123	0.000409	4.093668	0.693486	0.000041
 946	9.4028e+01	9.3949	17.640784	0.000368	3.684301	0.624137	0.000037
 947	9.4127e+01	9.4065	17.682333	0.000418	4.175541	0.707356	0.000042
 948	9.4227e+01	9.4189	17.719808	0.000377	3.766174	0.638007	0.000038
 949	9.4326e+01	9.4291	17.758506	0.000389	3.888984	0.658812	0.000039
 950	9.4425e+01	9.4363	17.796796	0.000385	3.848048	0.651877	0.000038
 951	9.4525e+01	9.4452	17.834272	0.000377	3.766174	0.638007	0.000038
 952	9.4624e+01	9.4584	17.875006	0.000409	4.093668	0.693486	0.000041
 953	9.4724e+01	9.4690	17.911259	0.000364	3.643364	0.617203	0.000036
 954	9.4823e+01	9.4775	17.953216	0.000422	4.216478	0.714291	0.000042
 955	9.4923e+01	9.4876	17.991098	0.000381	3.807111	0.644942	0.000038
 956	9.5022e+01	9.4971	18.027759	0.000368	3.684301	0.624137	0.000037
 957	9.5122e+01	9.5058	18.071345	0.000438	4.380224	0.742030	0.000044
 958	9.5222e+01	9.5178	18.113301	0.000422	4.216478	0.714291	0.000042
 959	9.5321e+01	9.5264	18.153628	0.000405	4.052731	0.686551	0.000041
 960	9.5421e+01	9.5390	18.197214	0.000438	4.380224	0.742030	0.000044
 961	9.5520e+01	9.5470	18.238355	0.000413	4.134604	0.700421	0.000041
 962	9.5620e+01	9.5557	18.277868	0.000397	3.970858	0.672682	0.000040
 963	9.5719e+01	9.5679	18.318602	0.000409	4.093668	0.693486	0.000041
 964	9.5819e+01	9.5776	18.363002	0.000446	4.462098	0.755900	0.000045
 965	9.5918e+01	9.5876	18.405366	0.000426	4.257414	0.721226	0.000043
 966	9.6017e+01	9.5984	18.446100	0.000409	4.093668	0.693486	0.000041
 967	9.6117e+01	9.6059	18.491315	0.000454	4.543971	0.769770	0.000045
 968	9.6216e+01	9.6162	18.537345	0.000463	4.625845	0.783639	0.000046
 969	9.6316e+01	9.6279	18.578894	0.000418	4.175541	0.707356	0.000042
 970	9.6415e+01	9.6344	18.622887	0.000442	4.421161	0.748965	0.000044
 971	9.6515e+01	9.6461	18.672175	0.000495	4.953338	0.839118	0.000050
 972	9.6615e+01	9.6595	18.713317	0.000413	4.134604	0.700421	0.000041
 973	9.6714e+01	9.6655	18.758532	0.000454	4.543971	0.769770	0.000045
 974	9.6814e+01	9.6752	18.804562	0.000463	4.625845	0.783639	0.000046
 975	9.6913e+01	9.6858	18.851406	0.000471	4.707718	0.797509	0.000047
 976	9.7013e+01	9.6965	18.897028	0.000458	4.584908	0.776704	0.000046
 977	9.7112e+01	9.7059	18.947539	0.000508	5.076148	0.859923	0.000051
 978	9.7212e+01	9.7160	18.989495	0.000422	4.216478	0.714291	0.000042
 979	9.7311e+01	9.7241	19.039191	0.000499	4.994275	0.846053	0.000050
 980	9.7410e+01	9.7372	19.088887	0.000499	4.994275	0.846053	0.000050
 981	9.7510e+01	9.7427	19.133287	0.000446	4.462098	0.755900	0.000045
 982	9.7609e+01	9.7575	19.183390	0.000504	5.035211	0.852988	0.000050
 983	9.7709e+01	9.7660	19.227383	0.000442	4.421161	0.748965	0.000044
 984	9.7808e+01	9.7758	19.277486	0.000504	5.035211	0.852988	0.000050
 985	9.7908e+01	9.7867	19.327589	0.000504	5.035211	0.852988	0.000050
 986	9.8007e+01	9.7961	19.373619	0.000463	4.625845	0.783639	0.000046
 987	9.8107e+01	9.8074	19.420463	0.000471	4.707718	0.797509	0.000047
 988	9.8207e+01	9.8157	19.474233	0.000540	5.403641	0.915402	0.000054
 989	9.8306e+01	9.8264	19.520262	0.000463	4.625845	0.783639	0.000046
 990	9.8406e+01	9.8357	19.573217	0.000532	5.321768	0.901532	0.000053
 991	9.8505e+01	9.8460	19.620876	0.000479	4.789591	0.811379	0.000048
 992	9.8605e+01	9.8550	19.669350	0.000487	4.871465	0.825248	0.000049
 993	9.8704e+01	9.8635	19.721082	0.000520	5.198958	0.880727	0.000052
 994	9.8803e+01	9.8788	19.770371	0.000495	4.953338	0.839118	0.000050
 995	9.8903e+01	9.8847	19.820474	0.000504	5.035211	0.852988	0.000050
 996	9.9002e+01	9.8951	19.871392	0.000512	5.117085	0.866858	0.000051
 997	9.9102e+01	9.9039	19.923124	0.000520	5.198958	0.880727	0.000052
 998	9.9201e+01	9.9164	19.973227	0.000504	5.035211	0.852988	0.000050
 999	9.9301e+01	9.9245	20.024145	0.000512	5.117085	0.866858	0.000051
1000	9.9400e+01	9.9323	20.078729	0.000549	5.485515	0.929271	0.000055
1001	9.9500e+01	9.9477	20.124351	0.000458	4.584908	0.776704	0.000046
1002	9.9600e+01	9.9564	20.177306	0.000532	5.321768	0.901532	0.000053
1003	9.9699e+01	9.9659	20.230260	0.000532	5.321768	0.901532	0.000053
1004	9.9799e+01	9.9741	20.282808	0.000528	5.280831	0.894597	0.000053
1005	9.9898e+01	9.9856	20.334133	0.000516	5.158021	0.873792	0.000052
1006	9.9998e+01	9.9976	20.385865	0.000520	5.198958	0.880727	0.000052
1007	1.0010e+02	9.9884	20.396049	-0.000102	-1.023417	-0.173372	0.000010
1008	1.0020e+02	9.9738	20.395234	0.000008	0.081873	0.013870	-0.000001
1009	1.0030e+02	9.9640	20.396049	-0.000008	-0.081873	-0.013870	0.000001
1010	1.0040e+02	9.9549	20.398900	-0.000029	-0.286557	-0.048544	0.000003
1011	1.0050e+02	9.9456	20.400937	-0.000020	-0.204683	-0.034674	0.000002
1012	1.0059e+02	9.9379	20.401344	-0.000004	-0.040937	-0.006935	0.000000
1013	1.0069e+02	9.9245	20.398493	0.000029	0.286557	0.048544	-0.000003
1014	1.0079e+02	9.9123	20.398086	0.000004	0.040937	0.006935	-0.000000
1015	1.0089e+02	9.9077	20.396049	0.000020	0.204683	0.034674	-0.000002
1016	1.0099e+02	9.8959	20.397271	-0.000012	-0.122810	-0.020805	0.000001
1017	1.0109e+02	9.8859	20.395234	0.000020	0.204683	0.034674	-0.000002
1018	1.0119e+02	9.8739	20.391975	0.000033	0.327493	0.055479	-0.000003
1019	1.0129e+02	9.8657	20.389531	0.000025	0.245620	0.041609	-0.000002
1020	1.0139e+02	9.8566	20.387902	0.000016	0.163747	0.027739	-0.000002
1021	1.0149e+02	9.8450	20.384643	0.000033	0.327493	0.055479	-0.000003
1022	1.0159e+02	9.8362	20.385458	-0.000008	-0.081873	-0.013870	0.000001
1023	1.0169e+02	9.8249	20.383829	0.000016	0.163747	0.027739	-0.000002
1024	1.0179e+02	9.8132	20.379348	0.000045	0.450303	0.076283	-0.000005
1025	1.0189e+02	9.8030	20.374867	0.000045	0.450303	0.076283	-0.000005
1026	1.0199e+02	9.7961	20.370794	0.000041	0.409367	0.069349	-0.000004
1027	1.0209e+02	9.7852	20.368350	0.000025	0.245620	0.041609	-0.000002
1028	1.0219e+02	9.7736	20.362239	0.000061	0.614050	0.104023	-0.000006
1029	1.0229e+02	9.7648	20.358981	0.000033	0.327493	0.055479	-0.000003
1030	1.0239e+02	9.7552	20.354093	0.000049	0.491240	0.083218	-0.000005
1031	1.0248e+02	9.7468	20.349612	0.000045	0.450303	0.076283	-0.000005
1032	1.0258e+02	9.7383	20.345946	0.000037	0.368430	0.062414	-0.000004
1033	1.0268e+02	9.7278	20.340650	0.000053	0.532177	0.090153	-0.000005
1034	1.0278e+02	9.7181	20.337799	0.000029	0.286557	0.048544	-0.000003
1035	1.0288e+02	9.7076	20.333725	0.000041	0.409367	0.069349	-0.000004
1036	1.0298e+02	9.6973	20.325986	0.000078	0.777797	0.131762	-0.000008
1037	1.0308e+02	9.6875	20.322727	0.000033	0.327493	0.055479	-0.000003
1038	1.0318e+02	9.6790	20.323949	-0.000012	-0.122810	-0.020805	0.000001
1039	1.0328e+02	9.6645	20.308470	0.000156	1.555594	0.263525	-0.000016
1040	1.0338e+02	9.6566	20.306841	0.000016	0.163747	0.027739	-0.000002
1041	1.0348e+02	9.6436	20.293399	0.000135	1.350910	0.228850	-0.000014
1042	1.0358e+02	9.6362	20.285659	0.000078	0.777797	0.131762	-0.000008
1043	1.0368e+02	9.6276	20.279142	0.000065	0.654987	0.110958	-0.000007
1044	1.0378e+02	9.6180	20.269773	0.000094	0.941544	0.159502	-0.000009
1045	1.0388e+02	9.6046	20.262033	0.000078	0.777797	0.131762	-0.000008
1046	1.0398e+02	9.5957	20.253479	0.000086	0.859670	0.145632	-0.000009
1047	1.0408e+02	9.5869	20.244925	0.000086	0.859670	0.145632	-0.000009
1048	1.0418e+02	9.5753	20.230260	0.000147	1.473720	0.249655	-0.000015
1049	1.0428e+02	9.5658	20.216003	0.000143	1.432784	0.242720	-0.000014
1050	1.0438e+02	9.5576	20.205005	0.000111	1.105290	0.187241	-0.000011
1051	1.0447e+02	9.5483	20.195229	0.000098	0.982480	0.166437	-0.000010
1052	1.0457e+02	9.5370	20.181787	0.000135	1.350910	0.228850	-0.000014
1053	1.0467e+02	9.5283	20.170381	0.000115	1.146227	0.194176	-0.000011
1054	1.0477e+02	9.5142	20.157754	0.000127	1.269037	0.214981	-0.000013
1055	1.0487e+02	9.5090	20.140645	0.000172	1.719340	0.291264	-0.000017
1056	1.0497e+02	9.5021	20.129240	0.000115	1.146227	0.194176	-0.000011
1057	1.0507e+02	9.4858	20.115797	0.000135	1.350910	0.228850	-0.000014
1058	1.0517e+02	9.4780	20.099504	0.000164	1.637467	0.277394	-0.000016
1059	1.0527e+02	9.4695	20.087283	0.000123	1.228100	0.208046	-0.000012
1060	1.0537e+02	9.4547	20.070582	0.000168	1.678404	0.284329	-0.000017
1061	1.0547e+02	9.4461	20.059991	0.000106	1.064354	0.180306	-0.000011
1062	1.0557e+02	9.4361	20.043290	0.000168	1.678404	0.284329	-0.000017
1063	1.0567e+02	9.4287	20.022108	0.000213	2.128707	0.360613	-0.000021
1064	1.0577e+02	9.4177	20.010295	0.000119	1.187164	0.201111	-0.000012
1065	1.0587e+02	9.4044	19.995631	0.000147	1.473720	0.249655	-0.000015
1066	1.0597e+02	9.4007	19.979745	0.000160	1.596530	0.270460	-0.000016
1067	1.0607e+02	9.3896	19.965080	0.000147	1.473720	0.249655	-0.000015
1068	1.0617e+02	9.3781	19.949601	0.000156	1.555594	0.263525	-0.000016
1069	1.0627e+02	9.3677	19.932900	0.000168	1.678404	0.284329	-0.000017
1070	1.0637e+02	9.3578	19.912533	0.000205	2.046834	0.346743	-0.000020
1071	1.0647e+02	9.3486	19.897462	0.000151	1.514657	0.256590	-0.000015
1072	1.0656e+02	9.3378	19.880353	0.000172	1.719340	0.291264	-0.000017
1073	1.0666e+02	9.3286	19.862837	0.000176	1.760277	0.298199	-0.000018
1074	1.0676e+02	9.3213	19.844507	0.000184	1.842150	0.312069	-0.000018
1075	1.0686e+02	9.3079	19.825769	0.000188	1.883087	0.319004	-0.000019
1076	1.0696e+02	9.2971	19.809883	0.000160	1.596530	0.270460	-0.000016
1077	1.0706e+02	9.2901	19.788294	0.000217	2.169644	0.367548	-0.000022
1078	1.0716e+02	9.2773	19.772815	0.000156	1.555594	0.263525	-0.000016
1079	1.0726e+02	9.2666	19.753262	0.000196	1.964961	0.332873	-0.000020
1080	1.0736e+02	9.2584	19.731266	0.000221	2.210581	0.374482	-0.000022
1081	1.0746e+02	9.2487	19.711306	0.000201	2.005897	0.339808	-0.000020
1082	1.0756e+02	9.2384	19.694605	0.000168	1.678404	0.284329	-0.000017
1083	1.0766e+02	9.2286	19.669757	0.000250	2.497137	0.423027	-0.000025
1084	1.0776e+02	9.2178	19.654278	0.000156	1.555594	0.263525	-0.000016
1085	1.0786e+02	9.2085	19.634726	0.000196	1.964961	0.332873	-0.000020
1086	1.0796e+02	9.1979	19.618432	0.000164	1.637467	0.277394	-0.000016
1087	1.0806e+02	9.1874	19.596028	0.000225	2.251517	0.381417	-0.000023
1088	1.0816e+02	9.1797	19.576476	0.000196	1.964961	0.332873	-0.000020
1089	1.0826e+02	9.1708	19.552442	0.000242	2.415264	0.409157	-0.000024
1090	1.0836e+02	9.1554	19.530039	0.000225	2.251517	0.381417	-0.000023
1091	1.0845e+02	9.1501	19.511301	0.000188	1.883087	0.319004	-0.000019
1092	1.0855e+02	9.1383	19.491341	0.000201	2.005897	0.339808	-0.000020
1093	1.0865e+02	9.1309	19.471789	0.000196	1.964961	0.332873	-0.000020
1094	1.0875e+02	9.1187	19.447755	0.000242	2.415264	0.409157	-0.000024
1095	1.0885e+02	9.1091	19.430240	0.000176	1.760277	0.298199	-0.000018
1096	1.0895e+02	9.0988	19.410280	0.000201	2.005897	0.339808	-0.000020
1097	1.0905e+02	9.0902	19.387469	0.000229	2.292454	0.388352	-0.000023
1098	1.0915e+02	9.0796	19.367509	0.000201	2.005897	0.339808	-0.000020
1099	1.0925e+02	9.0682	19.344290	0.000233	2.333391	0.395287	-0.000023
1100	1.0935e+02	9.0564	19.324331	0.000201	2.005897	0.339808	-0.000020
1101	1.0945e+02	9.0527	19.305593	0.000188	1.883087	0.319004	-0.000019
1102	1.0955e+02	9.0414	19.282782	0.000229	2.292454	0.388352	-0.000023
1103	1.0965e+02	9.0292	19.257526	0.000254	2.538074	0.429961	-0.000025
1104	1.0975e+02	9.0211	19.231864	0.000258	2.579011	0.436896	-0.000026
1105	1.0985e+02	9.0112	19.208645	0.000233	2.333391	0.395287	-0.000023
1106	1.0995e+02	9.0005	19.189908	0.000188	1.883087	0.319004	-0.000019
1107	1.1005e+02	8.9887	19.165467	0.000246	2.456201	0.416092	-0.000025
1108	1.1015e+02	8.9787	19.140619	0.000250	2.497137	0.423027	-0.000025
1109	1.1025e+02	8.9710	19.116586	0.000242	2.415264	0.409157	-0.000024
1110	1.1035e+02	8.9600	19.090923	0.000258	2.579011	0.436896	-0.000026
1111	1.1044e+02	8.9494	19.070964	0.000201	2.005897	0.339808	-0.000020
1112	1.1054e+02	8.9429	19.046116	0.000250	2.497137	0.423027	-0.000025
1113	1.1064e+02	8.9296	19.024527	0.000217	2.169644	0.367548	-0.000022
1114	1.1074e+02	8.9188	18.999271	0.000254	2.538074	0.429961	-0.000025
1115	1.1084e+02	8.9075	18.971572	0.000278	2.783694	0.471571	-0.000028
1116	1.1094e+02	8.9008	18.948761	0.000229	2.292454	0.388352	-0.000023
1117	1.1104e+02	8.8921	18.922284	0.000266	2.660884	0.450766	-0.000027
1118	1.1114e+02	8.8800	18.896621	0.000258	2.579011	0.436896	-0.000026
1119	1.1124e+02	8.8715	18.867700	0.000291	2.906504	0.492375	-0.000029
1120	1.1134e+02	8.8602	18.840000	0.000278	2.783694	0.471571	-0.000028
1121	1.1144e+02	8.8488	18.817189	0.000229	2.292454	0.388352	-0.000023
1122	1.1154e+02	8.8406	18.788675	0.000287	2.865567	0.485440	-0.000029
1123	1.1164e+02	8.8309	18.768715	0.000201	2.005897	0.339808	-0.000020
1124	1.1174e+02	8.8221	18.741831	0.000270	2.701821	0.457701	-0.000027
1125	1.1184e+02	8.8149	18.716168	0.000258	2.579011	0.436896	-0.000026
1126	1.1194e+02	8.8039	18.694579	0.000217	2.169644	0.367548	-0.000022
1127	1.1204e+02	8.7940	18.667287	0.000274	2.742757	0.464636	-0.000027
1128	1.1214e+02	8.7824	18.644069	0.000233	2.333391	0.395287	-0.000023
1129	1.1224e+02	8.7701	18.619221	0.000250	2.497137	0.423027	-0.000025
1130	1.1234e+02	8.7608	18.595187	0.000242	2.415264	0.409157	-0.000024
1131	1.1244e+02	8.7491	18.569932	0.000254	2.538074	0.429961	-0.000025
1132	1.1253e+02	8.7446	18.543455	0.000266	2.660884	0.450766	-0.000027
1133	1.1263e+02	8.7308	18.519014	0.000246	2.456201	0.416092	-0.000025
1134	1.1273e+02	8.7226	18.489686	0.000295	2.947441	0.499310	-0.000029
1135	1.1283e+02	8.7118	18.467282	0.000225	2.251517	0.381417	-0.000023
1136	1.1293e+02	8.7041	18.445285	0.000221	2.210581	0.374482	-0.000022
1137	1.1303e+02	8.6924	18.423696	0.000217	2.169644	0.367548	-0.000022
1138	1.1313e+02	8.6810	18.400885	0.000229	2.292454	0.388352	-0.000023
1139	1.1323e+02	8.6734	18.376445	0.000246	2.456201	0.416092	-0.000025
1140	1.1333e+02	8.6621	18.354448	0.000221	2.210581	0.374482	-0.000022
1141	1.1343e+02	8.6520	18.325527	0.000291	2.906504	0.492375	-0.000029
1142	1.1353e+02	8.6444	18.302716	0.000229	2.292454	0.388352	-0.000023
1143	1.1363e+02	8.6321	18.281126	0.000217	2.169644	0.367548	-0.000022
1144	1.1373e+02	8.6255	18.256686	0.000246	2.456201	0.416092	-0.000025
1145	1.1383e+02	8.6111	18.235911	0.000209	2.087771	0.353678	-0.000021
1146	1.1393e+02	8.6021	18.211471	0.000246	2.456201	0.416092	-0.000025
1147	1.1403e+02	8.5917	18.187845	0.000237	2.374327	0.402222	-0.000024
1148	1.1413e+02	8.5831	18.165034	0.000229	2.292454	0.388352	-0.000023
1149	1.1423e+02	8.5709	18.142630	0.000225	2.251517	0.381417	-0.000023
1150	1.1433e+02	8.5625	18.120633	0.000221	2.210581	0.374482	-0.000022
1151	1.1442e+02	8.5522	18.094156	0.000266	2.660884	0.450766	-0.000027
1152	1.1452e+02	8.5422	18.071752	0.000225	2.251517	0.381417	-0.000023
1153	1.1462e+02	8.5320	18.048126	0.000237	2.374327	0.402222	-0.000024
1154	1.1472e+02	8.5215	18.024093	0.000242	2.415264	0.409157	-0.000024
1155	1.1482e+02	8.5094	18.001689	0.000225	2.251517	0.381417	-0.000023
1156	1.1492e+02	8.5023	17.980100	0.000217	2.169644	0.367548	-0.000022
1157	1.1502e+02	8.4922	17.954030	0.000262	2.619947	0.443831	-0.000026
1158	1.1512e+02	8.4830	17.929590	0.000246	2.456201	0.416092	-0.000025
1159	1.1522e+02	8.4742	17.907593	0.000221	2.210581	0.374482	-0.000022
1160	1.1532e+02	8.4632	17.888448	0.000192	1.924024	0.325938	-0.000019
1161	1.1542e+02	8.4533	17.863600	0.000250	2.497137	0.423027	-0.000025
1162	1.1552e+02	8.4437	17.838752	0.000250	2.497137	0.423027	-0.000025
1163	1.1562e+02	8.4343	17.815534	0.000233	2.333391	0.395287	-0.000023
1164	1.1572e+02	8.4218	17.789871	0.000258	2.579011	0.436896	-0.000026
1165	1.1582e+02	8.4159	17.771133	0.000188	1.883087	0.319004	-0.000019
1166	1.1592e+02	8.4048	17.744249	0.000270	2.701821	0.457701	-0.000027
1167	1.1602e+02	8.3926	17.723474	0.000209	2.087771	0.353678	-0.000021
1168	1.1612e+02	8.3838	17.699849	0.000237	2.374327	0.402222	-0.000024
1169	1.1622e+02	8.3727	17.674593	0.000254	2.538074	0.429961	-0.000025
1170	1.1632e+02	8.3634	17.653004	0.000217	2.169644	0.367548	-0.000022
1171	1.1642e+02	8.3521	17.629378	0.000237	2.374327	0.402222	-0.000024
1172	1.1651e+02	8.3450	17.608196	0.000213	2.128707	0.360613	-0.000021
1173	1.1661e+02	8.3351	17.582941	0.000254	2.538074	0.429961	-0.000025
1174	1.1671e+02	8.3259	17.557686	0.000254	2.538074	0.429961	-0.000025
1175	1.1681e+02	8.3167	17.535282	0.000225	2.251517	0.381417	-0.000023
1176	1.1691e+02	8.3024	17.510842	0.000246	2.456201	0.416092	-0.000025
1177	1.1701e+02	8.2969	17.489252	0.000217	2.169644	0.367548	-0.000022
1178	1.1711e+02	8.2822	17.464405	0.000250	2.497137	0.423027	-0.000025
1179	1.1721e+02	8.2764	17.440371	0.000242	2.415264	0.409157	-0.000024
1180	1.1731e+02	8.2645	17.419190	0.000213	2.128707	0.360613	-0.000021
1181	1.1741e+02	8.2532	17.392305	0.000270	2.701821	0.457701	-0.000027
1182	1.1751e+02	8.2461	17.369901	0.000225	2.251517	0.381417	-0.000023
1183	1.1761e+02	8.2324	17.342609	0.000274	2.742757	0.464636	-0.000027
1184	1.1771e+02	8.2279	17.317761	0.000250	2.497137	0.423027	-0.000025
1185	1.1781e+02	8.2134	17.299431	0.000184	1.842150	0.312069	-0.000018
1186	1.1791e+02	8.2041	17.271324	0.000282	2.824631	0.478505	-0.000028
1187	1.1801e+02	8.1937	17.248513	0.000229	2.292454	0.388352	-0.000023
1188	1.1811e+02	8.1849	17.228146	0.000205	2.046834	0.346743	-0.000020
1189	1.1821e+02	8.1754	17.203298	0.000250	2.497137	0.423027	-0.000025
1190	1.1831e+02	8.1641	17.185375	0.000180	1.801214	0.305134	-0.000018
1191	1.1841e+02	8.1539	17.162971	0.000225	2.251517	0.381417	-0.000023
1192	1.1850e+02	8.1478	17.139753	0.000233	2.333391	0.395287	-0.000023
1193	1.1860e+02	8.1355	17.115719	0.000242	2.415264	0.409157	-0.000024
1194	1.1870e+02	8.1220	17.089649	0.000262	2.619947	0.443831	-0.000026
1195	1.1880e+02	8.1169	17.068060	0.000217	2.169644	0.367548	-0.000022
1196	1.1890e+02	8.1073	17.044027	0.000242	2.415264	0.409157	-0.000024
1197	1.1900e+02	8.0941	17.022438	0.000217	2.169644	0.367548	-0.000022
1198	1.1910e+02	8.0864	16.999219	0.000233	2.333391	0.395287	-0.000023
1199	1.1920e+02	8.0775	16.978852	0.000205	2.046834	0.346743	-0.000020
1200	1.1930e+02	8.0664	16.958078	0.000209	2.087771	0.353678	-0.000021
1201	1.1940e+02	8.0545	16.935267	0.000229	2.292454	0.388352	-0.000023
1202	1.1950e+02	8.0454	16.913270	0.000221	2.210581	0.374482	-0.000022
1203	1.1960e+02	8.0406	16.895754	0.000176	1.760277	0.298199	-0.000018
1204	1.1970e+02	8.0241	16.869684	0.000262	2.619947	0.443831	-0.000026
1205	1.1980e+02	8.0143	16.848095	0.000217	2.169644	0.367548	-0.000022
1206	1.1990e+02	8.0067	16.827321	0.000209	2.087771	0.353678	-0.000021
1207	1.2000e+02	7.9974	16.803695	0.000237	2.374327	0.402222	-0.000024
1208	1.2010e+02	7.9859	16.775996	0.000278	2.783694	0.471571	-0.000028
1209	1.2020e+02	7.9781	16.754406	0.000217	2.169644	0.367548	-0.000022
1210	1.2030e+02	7.9658	16.728744	0.000258	2.579011	0.436896	-0.000026
1211	1.2039e+02	7.9560	16.705525	0.000233	2.333391	0.395287	-0.000023
1212	1.2049e+02	7.9453	16.680270	0.000254	2.538074	0.429961	-0.000025
1213	1.2059e+02	7.9356	16.660310	0.000201	2.005897	0.339808	-0.000020
1214	1.2069e+02	7.9252	16.635462	0.000250	2.497137	0.423027	-0.000025
1215	1.2079e+02	7.9162	16.613466	0.000221	2.210581	0.374482	-0.000022
1216	1.2089e+02	7.9053	16.587803	0.000258	2.579011	0.436896	-0.000026
1217	1.2099e+02	7.8930	16.562548	0.000254	2.538074	0.429961	-0.000025
1218	1.2109e+02	7.8869	16.533219	0.000295	2.947441	0.499310	-0.000029
1219	1.2119e+02	7.8753	16.510408	0.000229	2.292454	0.388352	-0.000023
1220	1.2129e+02	7.8658	16.485560	0.000250	2.497137	0.423027	-0.000025
1221	1.2139e+02	7.8564	16.457861	0.000278	2.783694	0.471571	-0.000028
1222	1.2149e+02	7.8478	16.433828	0.000242	2.415264	0.409157	-0.000024
1223	1.2159e+02	7.8378	16.409795	0.000242	2.415264	0.409157	-0.000024
1224	1.2169e+02	7.8251	16.379651	0.000303	3.029314	0.513180	-0.000030
1225	1.2179e+02	7.8159	16.354396	0.000254	2.538074	0.429961	-0.000025
1226	1.2189e+02	7.8071	16.327919	0.000266	2.660884	0.450766	-0.000027
1227	1.2199e+02	7.7969	16.298998	0.000291	2.906504	0.492375	-0.000029
1228	1.2209e+02	7.7872	16.272928	0.000262	2.619947	0.443831	-0.000026
1229	1.2219e+02	7.7773	16.247265	0.000258	2.579011	0.436896	-0.000026
1230	1.2229e+02	7.7680	16.216714	0.000307	3.070251	0.520115	-0.000031
1231	1.2239e+02	7.7562	16.190644	0.000262	2.619947	0.443831	-0.000026
1232	1.2248e+02	7.7445	16.158464	0.000323	3.233997	0.547854	-0.000032
1233	1.2258e+02	7.7381	16.137283	0.000213	2.128707	0.360613	-0.000021
1234	1.2268e+02	7.7271	16.112435	0.000250	2.497137	0.423027	-0.000025
1235	1.2278e+02	7.7176	16.079033	0.000336	3.356808	0.568659	-0.000034
1236	1.2288e+02	7.7069	16.050926	0.000282	2.824631	0.478505	-0.000028
1237	1.2298e+02	7.6972	16.025263	0.000258	2.579011	0.436896	-0.000026
1238	1.2308e+02	7.6877	15.995935	0.000295	2.947441	0.499310	-0.000029
1239	1.2318e+02	7.6804	15.968235	0.000278	2.783694	0.471571	-0.000028
1240	1.2328e+02	7.6662	15.940129	0.000282	2.824631	0.478505	-0.000028
1241	1.2338e+02	7.6585	15.909985	0.000303	3.029314	0.513180	-0.000030
1242	1.2348e+02	7.6465	15.880249	0.000299	2.988377	0.506245	-0.000030
1243	1.2358e+02	7.6369	15.854587	0.000258	2.579011	0.436896	-0.000026
1244	1.2368e+02	7.6279	15.823221	0.000315	3.152124	0.533984	-0.000032
1245	1.2378e+02	7.6173	15.797966	0.000254	2.538074	0.429961	-0.000025
1246	1.2388e+02	7.6060	15.769452	0.000287	2.865567	0.485440	-0.000029
1247	1.2398e+02	7.5954	15.738494	0.000311	3.111187	0.527049	-0.000031
1248	1.2408e+02	7.5870	15.712832	0.000258	2.579011	0.436896	-0.000026
1249	1.2418e+02	7.5773	15.678615	0.000344	3.438681	0.582528	-0.000034
1250	1.2428e+02	7.5674	15.652138	0.000266	2.660884	0.450766	-0.000027
1251	1.2438e+02	7.5571	15.623624	0.000287	2.865567	0.485440	-0.000029
1252	1.2447e+02	7.5506	15.595110	0.000287	2.865567	0.485440	-0.000029
1253	1.2457e+02	7.5369	15.564559	0.000307	3.070251	0.520115	-0.000031
1254	1.2467e+02	7.5283	15.536452	0.000282	2.824631	0.478505	-0.000028
1255	1.2477e+02	7.5186	15.505087	0.000315	3.152124	0.533984	-0.000032
1256	1.2487e+02	7.5099	15.476573	0.000287	2.865567	0.485440	-0.000029
1257	1.2497e+02	7.5002	15.447244	0.000295	2.947441	0.499310	-0.000029
1258	1.2507e+02	7.4902	15.416286	0.000311	3.111187	0.527049	-0.000031
1259	1.2517e+02	7.4798	15.386143	0.000303	3.029314	0.513180	-0.000030
1260	1.2527e+02	7.4657	15.357629	0.000287	2.865567	0.485440	-0.000029
1261	1.2537e+02	7.4599	15.325449	0.000323	3.233997	0.547854	-0.000032
1262	1.2547e+02	7.4491	15.296120	0.000295	2.947441	0.499310	-0.000029
1263	1.2557e+02	7.4387	15.267199	0.000291	2.906504	0.492375	-0.000029
1264	1.2567e+02	7.4278	15.237055	0.000303	3.029314	0.513180	-0.000030
1265	1.2577e+02	7.4232	15.210171	0.000270	2.701821	0.457701	-0.000027
1266	1.2587e+02	7.4079	15.182064	0.000282	2.824631	0.478505	-0.000028
1267	1.2597e+02	7.3992	15.150292	0.000319	3.193061	0.540919	-0.000032
1268	1.2607e+02	7.3871	15.119741	0.000307	3.070251	0.520115	-0.000031
1269	1.2617e+02	7.3756	15.087561	0.000323	3.233997	0.547854	-0.000032
1270	1.2627e+02	7.3690	15.059454	0.000282	2.824631	0.478505	-0.000028
1271	1.2636e+02	7.3618	15.027274	0.000323	3.233997	0.547854	-0.000032
1272	1.2646e+02	7.3476	14.997131	0.000303	3.029314	0.513180	-0.000030
1273	1.2656e+02	7.3402	14.964543	0.000327	3.274934	0.554789	-0.000033
1274	1.2666e+02	7.3280	14.930327	0.000344	3.438681	0.582528	-0.000034
1275	1.2676e+02	7.3193	14.901813	0.000287	2.865567	0.485440	-0.000029
1276	1.2686e+02	7.3069	14.872077	0.000299	2.988377	0.506245	-0.000030
1277	1.2696e+02	7.3000	14.838267	0.000340	3.397744	0.575593	-0.000034
1278	1.2706e+02	7.2913	14.808938	0.000295	2.947441	0.499310	-0.000029
1279	1.2716e+02	7.2794	14.775536	0.000336	3.356808	0.568659	-0.000034
1280	1.2726e+02	7.2700	14.744986	0.000307	3.070251	0.520115	-0.000031
1281	1.2736e+02	7.2588	14.711176	0.000340	3.397744	0.575593	-0.000034
1282	1.2746e+02	7.2504	14.682662	0.000287	2.865567	0.485440	-0.000029
1283	1.2756e+02	7.2409	14.648445	0.000344	3.438681	0.582528	-0.000034
1284	1.2766e+02	7.2291	14.612599	0.000360	3.602428	0.610268	-0.000036
1285	1.2776e+02	7.2206	14.578790	0.000340	3.397744	0.575593	-0.000034
1286	1.2786e+02	7.2099	14.545795	0.000332	3.315871	0.561724	-0.000033
1287	1.2796e+02	7.1999	14.511171	0.000348	3.479618	0.589463	-0.000035
1288	1.2806e+02	7.1919	14.481028	0.000303	3.029314	0.513180	-0.000030
1289	1.2816e+02	7.1811	14.448848	0.000323	3.233997	0.547854	-0.000032
1290	1.2826e+02	7.1680	14.414224	0.000348	3.479618	0.589463	-0.000035
1291	1.2835e+02	7.1607	14.382451	0.000319	3.193061	0.540919	-0.000032
1292	1.2845e+02	7.1517	14.349863	0.000327	3.274934	0.554789	-0.000033
1293	1.2855e+02	7.1395	14.318905	0.000311	3.111187	0.527049	-0.000031
1294	1.2865e+02	7.1302	14.285503	0.000336	3.356808	0.568659	-0.000034
1295	1.2875e+02	7.1198	14.255360	0.000303	3.029314	0.513180	-0.000030
1296	1.2885e+02	7.1110	14.220736	0.000348	3.479618	0.589463	-0.000035
1297	1.2895e+02	7.1018	14.189778	0.000311	3.111187	0.527049	-0.000031
1298	1.2905e+02	7.0922	14.158412	0.000315	3.152124	0.533984	-0.000032
1299	1.2915e+02	7.0798	14.127862	0.000307	3.070251	0.520115	-0.000031
1300	1.2925e+02	7.0705	14.094052	0.000340	3.397744	0.575593	-0.000034
1301	1.2935e+02	7.0605	14.064724	0.000295	2.947441	0.499310	-0.000029
1302	1.2945e+02	7.0486	14.031729	0.000332	3.315871	0.561724	-0.000033
1303	1.2955e+02	7.0418	14.003215	0.000287	2.865567	0.485440	-0.000029
1304	1.2965e+02	7.0301	13.974294	0.000291	2.906504	0.492375	-0.000029
1305	1.2975e+02	7.0194	13.942114	0.000323	3.233997	0.547854	-0.000032
1306	1.2985e+02	7.0105	13.910341	0.000319	3.193061	0.540919	-0.000032
1307	1.2995e+02	7.0004	13.879790	0.000307	3.070251	0.520115	-0.000031
1308	1.3005e+02	6.9884	13.852905	0.000270	2.701821	0.457701	-0.000027
1309	1.3015e+02	6.9793	13.820318	0.000327	3.274934	0.554789	-0.000033
1310	1.3025e+02	6.9740	13.792619	0.000278	2.783694	0.471571	-0.000028
1311	1.3034e+02	6.9579	13.762883	0.000299	2.988377	0.506245	-0.000030
1312	1.3044e+02	6.9520	13.731925	0.000311	3.111187	0.527049	-0.000031
1313	1.3054e+02	6.9410	13.704633	0.000274	2.742757	0.464636	-0.000027
1314	1.3064e+02	6.9307	13.674489	0.000303	3.029314	0.513180	-0.000030
1315	1.3074e+02	6.9250	13.644346	0.000303	3.029314	0.513180	-0.000030
1316	1.3084e+02	6.9094	13.617054	0.000274	2.742757	0.464636	-0.000027
1317	1.3094e+02	6.9036	13.586503	0.000307	3.070251	0.520115	-0.000031
1318	1.3104e+02	6.8909	13.555138	0.000315	3.152124	0.533984	-0.000032
1319	1.3114e+02	6.8828	13.529476	0.000258	2.579011	0.436896	-0.000026
1320	1.3124e+02	6.8733	13.498517	0.000311	3.111187	0.527049	-0.000031
1321	1.3134e+02	6.8641	13.465523	0.000332	3.315871	0.561724	-0.000033
1322	1.3144e+02	6.8493	13.437823	0.000278	2.783694	0.471571	-0.000028
1323	1.3154e+02	6.8422	13.407273	0.000307	3.070251	0.520115	-0.000031
1324	1.3164e+02	6.8337	13.377129	0.000303	3.029314	0.513180	-0.000030
1325	1.3174e+02	6.8213	13.351874	0.000254	2.538074	0.429961	-0.000025
1326	1.3184e+02	6.8103	13.326212	0.000258	2.579011	0.436896	-0.000026
1327	1.3194e+02	6.8027	13.293217	0.000332	3.315871	0.561724	-0.000033
1328	1.3204e+02	6.7940	13.266332	0.000270	2.701821	0.457701	-0.000027
1329	1.3214e+02	6.7818	13.236596	0.000299	2.988377	0.506245	-0.000030
1330	1.3224e+02	6.7730	13.208082	0.000287	2.865567	0.485440	-0.000029
1331	1.3234e+02	6.7612	13.177532	0.000307	3.070251	0.520115	-0.000031
1332	1.3243e+02	6.7542	13.146981	0.000307	3.070251	0.520115	-0.000031
1333	1.3253e+02	6.7428	13.117652	0.000295	2.947441	0.499310	-0.000029
1334	1.3263e+02	6.7329	13.093619	0.000242	2.415264	0.409157	-0.000024
1335	1.3273e+02	6.7239	13.063068	0.000307	3.070251	0.520115	-0.000031
1336	1.3283e+02	6.7117	13.032925	0.000303	3.029314	0.513180	-0.000030
1337	1.3293e+02	6.6993	13.003189	0.000299	2.988377	0.506245	-0.000030
1338	1.3303e+02	6.6918	12.977526	0.000258	2.579011	0.436896	-0.000026
1339	1.3313e+02	6.6836	12.949827	0.000278	2.783694	0.471571	-0.000028
1340	1.3323e+02	6.6724	12.918462	0.000315	3.152124	0.533984	-0.000032
1341	1.3333e+02	6.6621	12.891170	0.000274	2.742757	0.464636	-0.000027
1342	1.3343e+02	6.6506	12.859804	0.000315	3.152124	0.533984	-0.000032
1343	1.3353e+02	6.6420	12.830476	0.000295	2.947441	0.499310	-0.000029
1344	1.3363e+02	6.6340	12.801147	0.000295	2.947441	0.499310	-0.000029
1345	1.3373e+02	6.6222	12.773040	0.000282	2.824631	0.478505	-0.000028
1346	1.3383e+02	6.6152	12.742082	0.000311	3.111187	0.527049	-0.000031
1347	1.3393e+02	6.6042	12.715605	0.000266	2.660884	0.450766	-0.000027
1348	1.3403e+02	6.5916	12.683832	0.000319	3.193061	0.540919	-0.000032
1349	1.3413e+02	6.5832	12.652874	0.000311	3.111187	0.527049	-0.000031
1350	1.3423e+02	6.5701	12.625582	0.000274	2.742757	0.464636	-0.000027
1351	1.3432e+02	6.5614	12.599105	0.000266	2.660884	0.450766	-0.000027
1352	1.3442e+02	6.5546	12.567740	0.000315	3.152124	0.533984	-0.000032
1353	1.3452e+02	6.5389	12.539226	0.000287	2.865567	0.485440	-0.000029
1354	1.3462e+02	6.5343	12.509490	0.000299	2.988377	0.506245	-0.000030
1355	1.3472e+02	6.5235	12.483827	0.000258	2.579011	0.436896	-0.000026
1356	1.3482e+02	6.5119	12.454499	0.000295	2.947441	0.499310	-0.000029
1357	1.3492e+02	6.5031	12.426799	0.000278	2.783694	0.471571	-0.000028
1358	1.3502e+02	6.4945	12.399100	0.000278	2.783694	0.471571	-0.000028
1359	1.3512e+02	6.4817	12.370586	0.000287	2.865567	0.485440	-0.000029
1360	1.3522e+02	6.4739	12.341665	0.000291	2.906504	0.492375	-0.000029
1361	1.3532e+02	6.4620	12.314373	0.000274	2.742757	0.464636	-0.000027
1362	1.3542e+02	6.4504	12.286266	0.000282	2.824631	0.478505	-0.000028
1363	1.3552e+02	6.4426	12.256123	0.000303	3.029314	0.513180	-0.000030
1364	1.3562e+02	6.4339	12.230053	0.000262	2.619947	0.443831	-0.000026
1365	1.3572e+02	6.4211	12.203983	0.000262	2.619947	0.443831	-0.000026
1366	1.3582e+02	6.4104	12.175469	0.000287	2.865567	0.485440	-0.000029
1367	1.3592e+02	6.4034	12.148992	0.000266	2.660884	0.450766	-0.000027
1368	1.3602e+02	6.3921	12.123329	0.000258	2.579011	0.436896	-0.000026
1369	1.3612e+02	6.3851	12.097259	0.000262	2.619947	0.443831	-0.000026
1370	1.3622e+02	6.3717	12.071189	0.000262	2.619947	0.443831	-0.000026
1371	1.3631e+02	6.3621	12.043083	0.000282	2.824631	0.478505	-0.000028
1372	1.3641e+02	6.3555	12.015383	0.000278	2.783694	0.471571	-0.000028
1373	1.3651e+02	6.3431	11.991350	0.000242	2.415264	0.409157	-0.000024
1374	1.3661e+02	6.3320	11.959170	0.000323	3.233997	0.547854	-0.000032
1375	1.3671e+02	6.3239	11.933915	0.000254	2.538074	0.429961	-0.000025
1376	1.3681e+02	6.3165	11.903364	0.000307	3.070251	0.520115	-0.000031
1377	1.3691e+02	6.3060	11.871184	0.000323	3.233997	0.547854	-0.000032
1378	1.3701e+02	6.2966	11.850002	0.000213	2.128707	0.360613	-0.000021
1379	1.3711e+02	6.2847	11.817822	0.000323	3.233997	0.547854	-0.000032
1380	1.3721e+02	6.2762	11.796233	0.000217	2.169644	0.367548	-0.000022
1381	1.3731e+02	6.2644	11.763238	0.000332	3.315871	0.561724	-0.000033
1382	1.3741e+02	6.2542	11.737983	0.000254	2.538074	0.429961	-0.000025
1383	1.3751e+02	6.2451	11.705803	0.000323	3.233997	0.547854	-0.000032
1384	1.3761e+02	6.2371	11.675660	0.000303	3.029314	0.513180	-0.000030
1385	1.3771e+02	6.2240	11.646331	0.000295	2.947441	0.499310	-0.000029
1386	1.3781e+02	6.2165	11.615373	0.000311	3.111187	0.527049	-0.000031
1387	1.3791e+02	6.2050	11.582378	0.000332	3.315871	0.561724	-0.000033
1388	1.3801e+02	6.1948	11.555086	0.000274	2.742757	0.464636	-0.000027
1389	1.3811e+02	6.1871	11.522499	0.000327	3.274934	0.554789	-0.000033
1390	1.3821e+02	6.1761	11.490319	0.000323	3.233997	0.547854	-0.000032
1391	1.3831e+02	6.1631	11.460175	0.000303	3.029314	0.513180	-0.000030
1392	1.3840e+02	6.1562	11.427181	0.000332	3.315871	0.561724	-0.000033
1393	1.3850e+02	6.1469	11.398259	0.000291	2.906504	0.492375	-0.000029
1394	1.3860e+02	6.1355	11.361598	0.000368	3.684301	0.624137	-0.000037
1395	1.3870e+02	6.1257	11.334306	0.000274	2.742757	0.464636	-0.000027
1396	1.3880e+02	6.1134	11.303756	0.000307	3.070251	0.520115	-0.000031
1397	1.3890e+02	6.1056	11.269539	0.000344	3.438681	0.582528	-0.000034
1398	1.3900e+02	6.0934	11.236952	0.000327	3.274934	0.554789	-0.000033
1399	1.3910e+02	6.0856	11.200698	0.000364	3.643364	0.617203	-0.000036
1400	1.3920e+02	6.0755	11.172999	0.000278	2.783694	0.471571	-0.000028
1401	1.3930e+02	6.0670	11.142855	0.000303	3.029314	0.513180	-0.000030
1402	1.3940e+02	6.0558	11.110268	0.000327	3.274934	0.554789	-0.000033
1403	1.3950e+02	6.0458	11.076051	0.000344	3.438681	0.582528	-0.000034
1404	1.3960e+02	6.0360	11.043057	0.000332	3.315871	0.561724	-0.000033
1405	1.3970e+02	6.0259	11.013728	0.000295	2.947441	0.499310	-0.000029
1406	1.3980e+02	6.0159	10.979918	0.000340	3.397744	0.575593	-0.000034
1407	1.3990e+02	6.0067	10.946924	0.000332	3.315871	0.561724	-0.000033
1408	1.4000e+02	5.9972	10.912707	0.000344	3.438681	0.582528	-0.000034
1409	1.4010e+02	5.9878	10.878490	0.000344	3.438681	0.582528	-0.000034
1410	1.4020e+02	5.9792	10.847125	0.000315	3.152124	0.533984	-0.000032
1411	1.4029e+02	5.9669	10.813315	0.000340	3.397744	0.575593	-0.000034
1412	1.4039e+02	5.9524	10.779506	0.000340	3.397744	0.575593	-0.000034
1413	1.4049e+02	5.9522	10.748955	0.000307	3.070251	0.520115	-0.000031
1414	1.4059e+02	5.9365	10.714331	0.000348	3.479618	0.589463	-0.000035
1415	1.4069e+02	5.9249	10.678485	0.000360	3.602428	0.610268	-0.000036
1416	1.4079e+02	5.9171	10.646712	0.000319	3.193061	0.540919	-0.000032
1417	1.4089e+02	5.9061	10.614125	0.000327	3.274934	0.554789	-0.000033
1418	1.4099e+02	5.8962	10.578279	0.000360	3.602428	0.610268	-0.000036
1419	1.4109e+02	5.8854	10.544877	0.000336	3.356808	0.568659	-0.000034
1420	1.4119e+02	5.8750	10.513104	0.000319	3.193061	0.540919	-0.000032
1421	1.4129e+02	5.8654	10.476443	0.000368	3.684301	0.624137	-0.000037
1422	1.4139e+02	5.8562	10.439782	0.000368	3.684301	0.624137	-0.000037
1423	1.4149e+02	5.8489	10.410454	0.000295	2.947441	0.499310	-0.000029
1424	1.4159e+02	5.8366	10.373793	0.000368	3.684301	0.624137	-0.000037
1425	1.4169e+02	5.8273	10.340798	0.000332	3.315871	0.561724	-0.000033
1426	1.4179e+02	5.8163	10.306174	0.000348	3.479618	0.589463	-0.000035
1427	1.4189e+02	5.8067	10.272772	0.000336	3.356808	0.568659	-0.000034
1428	1.4199e+02	5.7980	10.236926	0.000360	3.602428	0.610268	-0.000036
1429	1.4209e+02	5.7900	10.203116	0.000340	3.397744	0.575593	-0.000034
1430	1.4219e+02	5.7790	10.171344	0.000319	3.193061	0.540919	-0.000032
1431	1.4228e+02	5.7647	10.133868	0.000377	3.766174	0.638007	-0.000038
1432	1.4238e+02	5.7580	10.101688	0.000323	3.233997	0.547854	-0.000032
1433	1.4248e+02	5.7480	10.068693	0.000332	3.315871	0.561724	-0.000033
1434	1.4258e+02	5.7384	10.032440	0.000364	3.643364	0.617203	-0.000036
1435	1.4268e+02	5.7284	9.998630	0.000340	3.397744	0.575593	-0.000034
1436	1.4278e+02	5.7183	9.964413	0.000344	3.438681	0.582528	-0.000034
1437	1.4288e+02	5.7069	9.928975	0.000356	3.561491	0.603333	-0.000036
1438	1.4298e+02	5.6963	9.893943	0.000352	3.520554	0.596398	-0.000035
1439	1.4308e+02	5.6882	9.858912	0.000352	3.520554	0.596398	-0.000035
1440	1.4318e+02	5.6765	9.821844	0.000373	3.725238	0.631072	-0.000037
1441	1.4328e+02	5.6690	9.783146	0.000389	3.888984	0.658812	-0.000039
1442	1.4338e+02	5.6580	9.749337	0.000340	3.397744	0.575593	-0.000034
1443	1.4348e+02	5.6509	9.712676	0.000368	3.684301	0.624137	-0.000037
1444	1.4358e+02	5.6390	9.676422	0.000364	3.643364	0.617203	-0.000036
1445	1.4368e+02	5.6281	9.641798	0.000348	3.479618	0.589463	-0.000035
1446	1.4378e+02	5.6187	9.606767	0.000352	3.520554	0.596398	-0.000035
1447	1.4388e+02	5.6069	9.573365	0.000336	3.356808	0.568659	-0.000034
1448	1.4398e+02	5.5962	9.538333	0.000352	3.520554	0.596398	-0.000035
1449	1.4408e+02	5.5877	9.500450	0.000381	3.807111	0.644942	-0.000038
1450	1.4418e+02	5.5767	9.462567	0.000381	3.807111	0.644942	-0.000038
1451	1.4428e+02	5.5676	9.425092	0.000377	3.766174	0.638007	-0.000038
1452	1.4437e+02	5.5564	9.388024	0.000373	3.725238	0.631072	-0.000037
1453	1.4447e+02	5.5477	9.348104	0.000401	4.011794	0.679616	-0.000040
1454	1.4457e+02	5.5367	9.306148	0.000422	4.216478	0.714291	-0.000042
1455	1.4467e+02	5.5270	9.271931	0.000344	3.438681	0.582528	-0.000034
1456	1.4477e+02	5.5187	9.233234	0.000389	3.888984	0.658812	-0.000039
1457	1.4487e+02	5.5077	9.198609	0.000348	3.479618	0.589463	-0.000035
1458	1.4497e+02	5.4978	9.161949	0.000368	3.684301	0.624137	-0.000037
1459	1.4507e+02	5.4914	9.124066	0.000381	3.807111	0.644942	-0.000038
1460	1.4517e+02	5.4780	9.086590	0.000377	3.766174	0.638007	-0.000038
1461	1.4527e+02	5.4685	9.048707	0.000381	3.807111	0.644942	-0.000038
1462	1.4537e+02	5.4574	9.014898	0.000340	3.397744	0.575593	-0.000034
1463	1.4547e+02	5.4494	8.974571	0.000405	4.052731	0.686551	-0.000041
1464	1.4557e+02	5.4366	8.944428	0.000303	3.029314	0.513180	-0.000030
1465	1.4567e+02	5.4296	8.903693	0.000409	4.093668	0.693486	-0.000041
1466	1.4577e+02	5.4198	8.870699	0.000332	3.315871	0.561724	-0.000033
1467	1.4587e+02	5.4086	8.830372	0.000405	4.052731	0.686551	-0.000041
1468	1.4597e+02	5.3980	8.797377	0.000332	3.315871	0.561724	-0.000033
1469	1.4607e+02	5.3901	8.759087	0.000385	3.848048	0.651877	-0.000038
1470	1.4617e+02	5.3822	8.725685	0.000336	3.356808	0.568659	-0.000034
1471	1.4626e+02	5.3698	8.686580	0.000393	3.929921	0.665747	-0.000039
1472	1.4636e+02	5.3602	8.653178	0.000336	3.356808	0.568659	-0.000034
1473	1.4646e+02	5.3490	8.620183	0.000332	3.315871	0.561724	-0.000033
1474	1.4656e+02	5.3399	8.586781	0.000336	3.356808	0.568659	-0.000034
1475	1.4666e+02	5.3301	8.552157	0.000348	3.479618	0.589463	-0.000035
1476	1.4676e+02	5.3210	8.519162	0.000332	3.315871	0.561724	-0.000033
1477	1.4686e+02	5.3082	8.484538	0.000348	3.479618	0.589463	-0.000035
1478	1.4696e+02	5.2973	8.453173	0.000315	3.152124	0.533984	-0.000032
1479	1.4706e+02	5.2839	8.418141	0.000352	3.520554	0.596398	-0.000035
1480	1.4716e+02	5.2819	8.380666	0.000377	3.766174	0.638007	-0.000038
1481	1.4726e+02	5.2721	8.350930	0.000299	2.988377	0.506245	-0.000030
1482	1.4736e+02	5.2612	8.313047	0.000381	3.807111	0.644942	-0.000038
1483	1.4746e+02	5.2512	8.280459	0.000327	3.274934	0.554789	-0.000033
1484	1.4756e+02	5.2397	8.245835	0.000348	3.479618	0.589463	-0.000035
1485	1.4766e+02	5.2303	8.212841	0.000332	3.315871	0.561724	-0.000033
1486	1.4776e+02	5.2221	8.180660	0.000323	3.233997	0.547854	-0.000032
1487	1.4786e+02	5.2067	8.143185	0.000377	3.766174	0.638007	-0.000038
1488	1.4796e+02	5.2018	8.114264	0.000291	2.906504	0.492375	-0.000029
1489	1.4806e+02	5.1892	8.078417	0.000360	3.602428	0.610268	-0.000036
1490	1.4816e+02	5.1786	8.042164	0.000364	3.643364	0.617203	-0.000036
1491	1.4825e+02	5.1688	8.009577	0.000327	3.274934	0.554789	-0.000033
1492	1.4835e+02	5.1605	7.974952	0.000348	3.479618	0.589463	-0.000035
1493	1.4845e+02	5.1501	7.942772	0.000323	3.233997	0.547854	-0.000032
1494	1.4855e+02	5.1395	7.907741	0.000352	3.520554	0.596398	-0.000035
1495	1.4865e+02	5.1311	7.876376	0.000315	3.152124	0.533984	-0.000032
1496	1.4875e+02	5.1200	7.845010	0.000315	3.152124	0.533984	-0.000032
1497	1.4885e+02	5.1090	7.806313	0.000389	3.888984	0.658812	-0.000039
1498	1.4895e+02	5.0993	7.777391	0.000291	2.906504	0.492375	-0.000029
1499	1.4905e+02	5.0900	7.742360	0.000352	3.520554	0.596398	-0.000035
1500	1.4915e+02	5.0790	7.704070	0.000385	3.848048	0.651877	-0.000038
1501	1.4925e+02	5.0707	7.675963	0.000282	2.824631	0.478505	-0.000028
1502	1.4935e+02	5.0599	7.642561	0.000336	3.356808	0.568659	-0.000034
1503	1.4945e+02	5.0526	7.604271	0.000385	3.848048	0.651877	-0.000038
1504	1.4955e+02	5.0408	7.576164	0.000282	2.824631	0.478505	-0.000028
1505	1.4965e+02	5.0326	7.538281	0.000381	3.807111	0.644942	-0.000038
1506	1.4975e+02	5.0234	7.510175	0.000282	2.824631	0.478505	-0.000028
1507	1.4985e+02	5.0115	7.479217	0.000311	3.111187	0.527049	-0.000031
1508	1.4995e+02	5.0002	7.443778	0.000356	3.561491	0.603333	-0.000036
1509	1.5005e+02	4.9905	7.407932	0.000360	3.602428	0.610268	-0.000036
1510	1.5015e+02	4.9818	7.376566	0.000315	3.152124	0.533984	-0.000032
1511	1.5025e+02	4.9725	7.342757	0.000340	3.397744	0.575593	-0.000034
1512	1.5034e+02	4.9617	7.308947	0.000340	3.397744	0.575593	-0.000034
1513	1.5044e+02	4.9510	7.273916	0.000352	3.520554	0.596398	-0.000035
1514	1.5054e+02	4.9401	7.242143	0.000319	3.193061	0.540919	-0.000032
1515	1.5064e+02	4.9317	7.203853	0.000385	3.848048	0.651877	-0.000038
1516	1.5074e+02	4.9236	7.173710	0.000303	3.029314	0.513180	-0.000030
1517	1.5084e+02	4.9092	7.138271	0.000356	3.561491	0.603333	-0.000036
1518	1.5094e+02	4.9026	7.102832	0.000356	3.561491	0.603333	-0.000036
1519	1.5104e+02	4.8925	7.074725	0.000282	2.824631	0.478505	-0.000028
1520	1.5114e+02	4.8830	7.036843	0.000381	3.807111	0.644942	-0.000038
1521	1.5124e+02	4.8736	7.000996	0.000360	3.602428	0.610268	-0.000036
1522	1.5134e+02	4.8637	6.972482	0.000287	2.865567	0.485440	-0.000029
1523	1.5144e+02	4.8528	6.940710	0.000319	3.193061	0.540919	-0.000032
1524	1.5154e+02	4.8421	6.908122	0.000327	3.274934	0.554789	-0.000033
1525	1.5164e+02	4.8339	6.875128	0.000332	3.315871	0.561724	-0.000033
1526	1.5174e+02	4.8225	6.839689	0.000356	3.561491	0.603333	-0.000036
1527	1.5184e+02	4.8107	6.808323	0.000315	3.152124	0.533984	-0.000032
1528	1.5194e+02	4.8003	6.777365	0.000311	3.111187	0.527049	-0.000031
1529	1.5204e+02	4.7913	6.742334	0.000352	3.520554	0.596398	-0.000035
1530	1.5214e+02	4.7839	6.709747	0.000327	3.274934	0.554789	-0.000033
1531	1.5224e+02	4.7736	6.675937	0.000340	3.397744	0.575593	-0.000034
1532	1.5233e+02	4.7628	6.643350	0.000327	3.274934	0.554789	-0.000033
1533	1.5243e+02	4.7529	6.611170	0.000323	3.233997	0.547854	-0.000032
1534	1.5253e+02	4.7431	6.579397	0.000319	3.193061	0.540919	-0.000032
1535	1.5263e+02	4.7349	6.549254	0.000303	3.029314	0.513180	-0.000030
1536	1.5273e+02	4.7240	6.519518	0.000299	2.988377	0.506245	-0.000030
1537	1.5283e+02	4.7137	6.491411	0.000282	2.824631	0.478505	-0.000028
1538	1.5293e+02	4.7036	6.458009	0.000336	3.356808	0.568659	-0.000034
1539	1.5303e+02	4.6933	6.425014	0.000332	3.315871	0.561724	-0.000033
1540	1.5313e+02	4.6848	6.394056	0.000311	3.111187	0.527049	-0.000031
1541	1.5323e+02	4.6705	6.361469	0.000327	3.274934	0.554789	-0.000033
1542	1.5333e+02	4.6601	6.327659	0.000340	3.397744	0.575593	-0.000034
1543	1.5343e+02	4.6535	6.297109	0.000307	3.070251	0.520115	-0.000031
1544	1.5353e+02	4.6441	6.262077	0.000352	3.520554	0.596398	-0.000035
1545	1.5363e+02	4.6321	6.227453	0.000348	3.479618	0.589463	-0.000035
1546	1.5373e+02	4.6222	6.193236	0.000344	3.438681	0.582528	-0.000034
1547	1.5383e+02	4.6117	6.161871	0.000315	3.152124	0.533984	-0.000032
1548	1.5393e+02	4.6020	6.129691	0.000323	3.233997	0.547854	-0.000032
1549	1.5403e+02	4.5934	6.098733	0.000311	3.111187	0.527049	-0.000031
1550	1.5413e+02	4.5792	6.063701	0.000352	3.520554	0.596398	-0.000035
1551	1.5422e+02	4.5765	6.029484	0.000344	3.438681	0.582528	-0.000034
1552	1.5432e+02	4.5608	5.993231	0.000364	3.643364	0.617203	-0.000036
1553	1.5442e+02	4.5519	5.961458	0.000319	3.193061	0.540919	-0.000032
1554	1.5452e+02	4.5463	5.925612	0.000360	3.602428	0.610268	-0.000036
1555	1.5462e+02	4.5327	5.884878	0.000409	4.093668	0.693486	-0.000041
1556	1.5472e+02	4.5222	5.852698	0.000323	3.233997	0.547854	-0.000032
1557	1.5482e+02	4.5159	5.813186	0.000397	3.970858	0.672682	-0.000040
1558	1.5492e+02	4.5065	5.776525	0.000368	3.684301	0.624137	-0.000037
1559	1.5502e+02	4.4942	5.742715	0.000340	3.397744	0.575593	-0.000034
1560	1.5512e+02	4.4839	5.705240	0.000377	3.766174	0.638007	-0.000038
1561	1.5522e+02	4.4743	5.673060	0.000323	3.233997	0.547854	-0.000032
1562	1.5532e+02	4.4643	5.631103	0.000422	4.216478	0.714291	-0.000042
1563	1.5542e+02	4.4546	5.598516	0.000327	3.274934	0.554789	-0.000033
1564	1.5552e+02	4.4430	5.560633	0.000381	3.807111	0.644942	-0.000038
1565	1.5562e+02	4.4332	5.523158	0.000377	3.766174	0.638007	-0.000038
1566	1.5572e+02	4.4249	5.490978	0.000323	3.233997	0.547854	-0.000032
1567	1.5582e+02	4.4151	5.453909	0.000373	3.725238	0.631072	-0.000037
1568	1.5592e+02	4.4050	5.415619	0.000385	3.848048	0.651877	-0.000038
1569	1.5602e+02	4.3952	5.379366	0.000364	3.643364	0.617203	-0.000036
1570	1.5612e+02	4.3864	5.339854	0.000397	3.970858	0.672682	-0.000040
1571	1.5622e+02	4.3729	5.304007	0.000360	3.602428	0.610268	-0.000036
1572	1.5631e+02	4.3630	5.263273	0.000409	4.093668	0.693486	-0.000041
1573	1.5641e+02	4.3536	5.227427	0.000360	3.602428	0.610268	-0.000036
1574	1.5651e+02	4.3459	5.192396	0.000352	3.520554	0.596398	-0.000035
1575	1.5661e+02	4.3322	5.149217	0.000434	4.339288	0.735095	-0.000043
1576	1.5671e+02	4.3240	5.115408	0.000340	3.397744	0.575593	-0.000034
1577	1.5681e+02	4.3162	5.075081	0.000405	4.052731	0.686551	-0.000041
1578	1.5691e+02	4.3040	5.039235	0.000360	3.602428	0.610268	-0.000036
1579	1.5701e+02	4.2945	4.999315	0.000401	4.011794	0.679616	-0.000040
1580	1.5711e+02	4.2860	4.962247	0.000373	3.725238	0.631072	-0.000037
1581	1.5721e+02	4.2757	4.925586	0.000368	3.684301	0.624137	-0.000037
1582	1.5731e+02	4.2661	4.886481	0.000393	3.929921	0.665747	-0.000039
1583	1.5741e+02	4.2525	4.849413	0.000373	3.725238	0.631072	-0.000037
1584	1.5751e+02	4.2463	4.811123	0.000385	3.848048	0.651877	-0.000038
1585	1.5761e+02	4.2341	4.772425	0.000389	3.888984	0.658812	-0.000039
1586	1.5771e+02	4.2258	4.733320	0.000393	3.929921	0.665747	-0.000039
1587	1.5781e+02	4.2152	4.691772	0.000418	4.175541	0.707356	-0.000042
1588	1.5791e+02	4.2052	4.655518	0.000364	3.643364	0.617203	-0.000036
1589	1.5801e+02	4.1961	4.614784	0.000409	4.093668	0.693486	-0.000041
1590	1.5811e+02	4.1835	4.576086	0.000389	3.888984	0.658812	-0.000039
1591	1.5821e+02	4.1746	4.536167	0.000401	4.011794	0.679616	-0.000040
1592	1.5830e+02	4.1660	4.498284	0.000381	3.807111	0.644942	-0.000038
1593	1.5840e+02	4.1553	4.457550	0.000409	4.093668	0.693486	-0.000041
1594	1.5850e+02	4.1445	4.417630	0.000401	4.011794	0.679616	-0.000040
1595	1.5860e+02	4.1341	4.380969	0.000368	3.684301	0.624137	-0.000037
1596	1.5870e+02	4.1232	4.342679	0.000385	3.848048	0.651877	-0.000038
1597	1.5880e+02	4.1142	4.302759	0.000401	4.011794	0.679616	-0.000040
1598	1.5890e+02	4.1062	4.261618	0.000413	4.134604	0.700421	-0.000041
1599	1.5900e+02	4.0936	4.229438	0.000323	3.233997	0.547854	-0.000032
1600	1.5910e+02	4.0858	4.186667	0.000430	4.298351	0.728160	-0.000043
1601	1.5920e+02	4.0731	4.144710	0.000422	4.216478	0.714291	-0.000042
1602	1.5930e+02	4.0636	4.108864	0.000360	3.602428	0.610268	-0.000036
1603	1.5940e+02	4.0578	4.067315	0.000418	4.175541	0.707356	-0.000042
1604	1.5950e+02	4.0467	4.022915	0.000446	4.462098	0.755900	-0.000045
1605	1.5960e+02	4.0363	3.985440	0.000377	3.766174	0.638007	-0.000038
1606	1.5970e+02	4.0251	3.946335	0.000393	3.929921	0.665747	-0.000039
1607	1.5980e+02	4.0151	3.905600	0.000409	4.093668	0.693486	-0.000041
1608	1.5990e+02	4.0057	3.862422	0.000434	4.339288	0.735095	-0.000043
1609	1.6000e+02	3.9972	3.823725	0.000389	3.888984	0.658812	-0.000039
1610	1.6010e+02	3.9857	3.780954	0.000430	4.298351	0.728160	-0.000043
1611	1.6019e+02	3.9765	3.744700	0.000364	3.643364	0.617203	-0.000036
1612	1.6029e+02	3.9675	3.701522	0.000434	4.339288	0.735095	-0.000043
1613	1.6039e+02	3.9579	3.659158	0.000426	4.257414	0.721226	-0.000043
1614	1.6049e+02	3.9460	3.620053	0.000393	3.929921	0.665747	-0.000039
1615	1.6059e+02	3.9371	3.575653	0.000446	4.462098	0.755900	-0.000045
1616	1.6069e+02	3.9235	3.539399	0.000364	3.643364	0.617203	-0.000036
1617	1.6079e+02	3.9181	3.490111	0.000495	4.953338	0.839118	-0.000050
1618	1.6089e+02	3.9067	3.449784	0.000405	4.052731	0.686551	-0.000041
1619	1.6099e+02	3.8947	3.409050	0.000409	4.093668	0.693486	-0.000041
1620	1.6109e+02	3.8877	3.364242	0.000450	4.503034	0.762835	-0.000045
1621	1.6119e+02	3.8737	3.321879	0.000426	4.257414	0.721226	-0.000043
1622	1.6129e+02	3.8686	3.280330	0.000418	4.175541	0.707356	-0.000042
1623	1.6139e+02	3.8569	3.235522	0.000450	4.503034	0.762835	-0.000045
1624	1.6149e+02	3.8458	3.193566	0.000422	4.216478	0.714291	-0.000042
1625	1.6159e+02	3.8373	3.147536	0.000463	4.625845	0.783639	-0.000046
1626	1.6169e+02	3.8261	3.108431	0.000393	3.929921	0.665747	-0.000039
1627	1.6179e+02	3.8163	3.065660	0.000430	4.298351	0.728160	-0.000043
1628	1.6189e+02	3.8080	3.026148	0.000397	3.970858	0.672682	-0.000040
1629	1.6199e+02	3.7977	2.984599	0.000418	4.175541	0.707356	-0.000042
1630	1.6209e+02	3.7878	2.943050	0.000418	4.175541	0.707356	-0.000042
1631	1.6219e+02	3.7769	2.901908	0.000413	4.134604	0.700421	-0.000041
1632	1.6228e+02	3.7676	2.860767	0.000413	4.134604	0.700421	-0.000041
1633	1.6238e+02	3.7568	2.816774	0.000442	4.421161	0.748965	-0.000044
1634	1.6248e+02	3.7482	2.776039	0.000409	4.093668	0.693486	-0.000041
1635	1.6258e+02	3.7379	2.736527	0.000397	3.970858	0.672682	-0.000040
1636	1.6268e+02	3.7292	2.694571	0.000422	4.216478	0.714291	-0.000042
1637	1.6278e+02	3.7176	2.658317	0.000364	3.643364	0.617203	-0.000036
1638	1.6288e+02	3.7097	2.616769	0.000418	4.175541	0.707356	-0.000042
1639	1.6298e+02	3.6974	2.576034	0.000409	4.093668	0.693486	-0.000041
1640	1.6308e+02	3.6877	2.533671	0.000426	4.257414	0.721226	-0.000043
1641	1.6318e+02	3.6788	2.494158	0.000397	3.970858	0.672682	-0.000040
1642	1.6328e+02	3.6672	2.455868	0.000385	3.848048	0.651877	-0.000038
1643	1.6338e+02	3.6591	2.415949	0.000401	4.011794	0.679616	-0.000040
1644	1.6348e+02	3.6498	2.374807	0.000413	4.134604	0.700421	-0.000041
1645	1.6358e+02	3.6355	2.335702	0.000393	3.929921	0.665747	-0.000039
1646	1.6368e+02	3.6280	2.300263	0.000356	3.561491	0.603333	-0.000036
1647	1.6378e+02	3.6169	2.257492	0.000430	4.298351	0.728160	-0.000043
1648	1.6388e+02	3.6092	2.220017	0.000377	3.766174	0.638007	-0.000038
1649	1.6398e+02	3.5993	2.179690	0.000405	4.052731	0.686551	-0.000041
1650	1.6408e+02	3.5877	2.141400	0.000385	3.848048	0.651877	-0.000038
1651	1.6418e+02	3.5809	2.104739	0.000368	3.684301	0.624137	-0.000037
1652	1.6427e+02	3.5694	2.062783	0.000422	4.216478	0.714291	-0.000042
1653	1.6437e+02	3.5596	2.020826	0.000422	4.216478	0.714291	-0.000042
1654	1.6447e+02	3.5497	1.984166	0.000368	3.684301	0.624137	-0.000037
1655	1.6457e+02	3.5381	1.941802	0.000426	4.257414	0.721226	-0.000043
1656	1.6467e+02	3.5298	1.901475	0.000405	4.052731	0.686551	-0.000041
1657	1.6477e+02	3.5189	1.861555	0.000401	4.011794	0.679616	-0.000040
1658	1.6487e+02	3.5085	1.821636	0.000401	4.011794	0.679616	-0.000040
1659	1.6497e+02	3.4985	1.785382	0.000364	3.643364	0.617203	-0.000036
1660	1.6507e+02	3.4884	1.744241	0.000413	4.134604	0.700421	-0.000041
1661	1.6517e+02	3.4808	1.709617	0.000348	3.479618	0.589463	-0.000035
1662	1.6527e+02	3.4666	1.669290	0.000405	4.052731	0.686551	-0.000041
1663	1.6537e+02	3.4597	1.632222	0.000373	3.725238	0.631072	-0.000037
1664	1.6547e+02	3.4521	1.592709	0.000397	3.970858	0.672682	-0.000040
1665	1.6557e+02	3.4362	1.552790	0.000401	4.011794	0.679616	-0.000040
1666	1.6567e+02	3.4270	1.513685	0.000393	3.929921	0.665747	-0.000039
1667	1.6577e+02	3.4212	1.475802	0.000381	3.807111	0.644942	-0.000038
1668	1.6587e+02	3.4081	1.435882	0.000401	4.011794	0.679616	-0.000040
1669	1.6597e+02	3.3984	1.394741	0.000413	4.134604	0.700421	-0.000041
1670	1.6607e+02	3.3881	1.357265	0.000377	3.766174	0.638007	-0.000038
1671	1.6616e+02	3.3793	1.317753	0.000397	3.970858	0.672682	-0.000040
1672	1.6626e+02	3.3682	1.280278	0.000377	3.766174	0.638007	-0.000038
1673	1.6636e+02	3.3566	1.239136	0.000413	4.134604	0.700421	-0.000041
1674	1.6646e+02	3.3511	1.198402	0.000409	4.093668	0.693486	-0.000041
1675	1.6656e+02	3.3385	1.162148	0.000364	3.643364	0.617203	-0.000036
1676	1.6666e+02	3.3293	1.123043	0.000393	3.929921	0.665747	-0.000039
1677	1.6676e+02	3.3193	1.087197	0.000360	3.602428	0.610268	-0.000036
1678	1.6686e+02	3.3088	1.046463	0.000409	4.093668	0.693486	-0.000041
1679	1.6696e+02	3.2988	1.004914	0.000418	4.175541	0.707356	-0.000042
1680	1.6706e+02	3.2892	0.969475	0.000356	3.561491	0.603333	-0.000036
1681	1.6716e+02	3.2789	0.928741	0.000409	4.093668	0.693486	-0.000041
1682	1.6726e+02	3.2712	0.888414	0.000405	4.052731	0.686551	-0.000041
1683	1.6736e+02	3.2626	0.848495	0.000401	4.011794	0.679616	-0.000040
1684	1.6746e+02	3.2507	0.808168	0.000405	4.052731	0.686551	-0.000041
1685	1.6756e+02	3.2400	0.767026	0.000413	4.134604	0.700421	-0.000041
1686	1.6766e+02	3.2305	0.731587	0.000356	3.561491	0.603333	-0.000036
1687	1.6776e+02	3.2196	0.689224	0.000426	4.257414	0.721226	-0.000043
1688	1.6786e+02	3.2110	0.653785	0.000356	3.561491	0.603333	-0.000036
1689	1.6796e+02	3.2009	0.610606	0.000434	4.339288	0.735095	-0.000043
1690	1.6806e+02	3.1892	0.575575	0.000352	3.520554	0.596398	-0.000035
1691	1.6816e+02	3.1786	0.534841	0.000409	4.093668	0.693486	-0.000041
1692	1.6825e+02	3.1727	0.494921	0.000401	4.011794	0.679616	-0.000040
1693	1.6835e+02	3.1590	0.460704	0.000344	3.438681	0.582528	-0.000034
1694	1.6845e+02	3.1519	0.419155	0.000418	4.175541	0.707356	-0.000042
1695	1.6855e+02	3.1422	0.384124	0.000352	3.520554	0.596398	-0.000035
1696	1.6865e+02	3.1289	0.342575	0.000418	4.175541	0.707356	-0.000042
1697	1.6875e+02	3.1187	0.308358	0.000344	3.438681	0.582528	-0.000034
1698	1.6885e+02	3.1087	0.270068	0.000385	3.848048	0.651877	-0.000038
1699	1.6895e+02	3.1013	0.226890	0.000434	4.339288	0.735095	-0.000043
1700	1.6905e+02	3.0907	0.190229	0.000368	3.684301	0.624137	-0.000037
1701	1.6915e+02	3.0782	0.153568	0.000368	3.684301	0.624137	-0.000037
1702	1.6925e+02	3.0709	0.112019	0.000418	4.175541	0.707356	-0.000042
1703	1.6935e+02	3.0600	0.077395	0.000348	3.479618	0.589463	-0.000035
1704	1.6945e+02	3.0518	0.042364	0.000352	3.520554	0.596398	-0.000035
1705	1.6955e+02	3.0419	0.006517	0.000360	3.602428	0.610268	-0.000036
1706	1.6965e+02	3.0299	-0.028921	0.000356	3.561491	0.603333	-0.000036
1707	1.6975e+02	3.0208	-0.067619	0.000389	3.888984	0.658812	-0.000039
1708	1.6985e+02	3.0117	-0.104280	0.000368	3.684301	0.624137	-0.000037
1709	1.6995e+02	3.0013	-0.142977	0.000389	3.888984	0.658812	-0.000039
1710	1.7005e+02	2.9884	-0.186563	0.000438	4.380224	0.742030	-0.000044
1711	1.7015e+02	2.9805	-0.222816	0.000364	3.643364	0.617203	-0.000036
1712	1.7024e+02	2.9715	-0.262736	0.000401	4.011794	0.679616	-0.000040
1713	1.7034e+02	2.9607	-0.302248	0.000397	3.970858	0.672682	-0.000040
1714	1.7044e+02	2.9491	-0.337687	0.000356	3.561491	0.603333	-0.000036
1715	1.7054e+02	2.9411	-0.378829	0.000413	4.134604	0.700421	-0.000041
1716	1.7064e+02	2.9334	-0.419970	0.000413	4.134604	0.700421	-0.000041
1717	1.7074e+02	2.9182	-0.458668	0.000389	3.888984	0.658812	-0.000039
1718	1.7084e+02	2.9135	-0.497773	0.000393	3.929921	0.665747	-0.000039
1719	1.7094e+02	2.9027	-0.539322	0.000418	4.175541	0.707356	-0.000042
1720	1.7104e+02	2.8922	-0.579241	0.000401	4.011794	0.679616	-0.000040
1721	1.7114e+02	2.8831	-0.619975	0.000409	4.093668	0.693486	-0.000041
1722	1.7124e+02	2.8725	-0.659488	0.000397	3.970858	0.672682	-0.000040
1723	1.7134e+02	2.8626	-0.700222	0.000409	4.093668	0.693486	-0.000041
1724	1.7144e+02	2.8519	-0.743807	0.000438	4.380224	0.742030	-0.000044
1725	1.7154e+02	2.8443	-0.791059	0.000475	4.748655	0.804444	-0.000047
1726	1.7164e+02	2.8304	-0.831793	0.000409	4.093668	0.693486	-0.000041
1727	1.7174e+02	2.8199	-0.872528	0.000409	4.093668	0.693486	-0.000041
1728	1.7184e+02	2.8123	-0.911633	0.000393	3.929921	0.665747	-0.000039
1729	1.7194e+02	2.8020	-0.955626	0.000442	4.421161	0.748965	-0.000044
1730	1.7204e+02	2.7900	-0.999211	0.000438	4.380224	0.742030	-0.000044
1731	1.7213e+02	2.7824	-1.041982	0.000430	4.298351	0.728160	-0.000043
1732	1.7223e+02	2.7708	-1.083939	0.000422	4.216478	0.714291	-0.000042
1733	1.7233e+02	2.7619	-1.126302	0.000426	4.257414	0.721226	-0.000043
1734	1.7243e+02	2.7502	-1.171925	0.000458	4.584908	0.776704	-0.000046
1735	1.7253e+02	2.7413	-1.215103	0.000434	4.339288	0.735095	-0.000043
1736	1.7263e+02	2.7325	-1.255430	0.000405	4.052731	0.686551	-0.000041
1737	1.7273e+02	2.7216	-1.299015	0.000438	4.380224	0.742030	-0.000044
1738	1.7283e+02	2.7100	-1.345045	0.000463	4.625845	0.783639	-0.000046
1739	1.7293e+02	2.7062	-1.382113	0.000373	3.725238	0.631072	-0.000037
1740	1.7303e+02	2.6920	-1.431402	0.000495	4.953338	0.839118	-0.000050
1741	1.7313e+02	2.6833	-1.473765	0.000426	4.257414	0.721226	-0.000043
1742	1.7323e+02	2.6746	-1.518980	0.000454	4.543971	0.769770	-0.000045
1743	1.7333e+02	2.6642	-1.563381	0.000446	4.462098	0.755900	-0.000045
1744	1.7343e+02	2.6499	-1.604930	0.000418	4.175541	0.707356	-0.000042
1745	1.7353e+02	2.6422	-1.649737	0.000450	4.503034	0.762835	-0.000045
1746	1.7363e+02	2.6279	-1.691286	0.000418	4.175541	0.707356	-0.000042
1747	1.7373e+02	2.6234	-1.739353	0.000483	4.830528	0.818314	-0.000048
1748	1.7383e+02	2.6120	-1.783753	0.000446	4.462098	0.755900	-0.000045
1749	1.7393e+02	2.6018	-1.828561	0.000450	4.503034	0.762835	-0.000045
1750	1.7403e+02	2.5921	-1.871739	0.000434	4.339288	0.735095	-0.000043
1751	1.7413e+02	2.5849	-1.914510	0.000430	4.298351	0.728160	-0.000043
1752	1.7422e+02	2.5705	-1.962984	0.000487	4.871465	0.825248	-0.000049
1753	1.7432e+02	2.5619	-2.006569	0.000438	4.380224	0.742030	-0.000044
1754	1.7442e+02	2.5552	-2.049748	0.000434	4.339288	0.735095	-0.000043
1755	1.7452e+02	2.5468	-2.094555	0.000450	4.503034	0.762835	-0.000045
1756	1.7462e+02	2.5306	-2.141400	0.000471	4.707718	0.797509	-0.000047
1757	1.7472e+02	2.5240	-2.187022	0.000458	4.584908	0.776704	-0.000046
1758	1.7482e+02	2.5131	-2.230608	0.000438	4.380224	0.742030	-0.000044
1759	1.7492e+02	2.5025	-2.279489	0.000491	4.912401	0.832183	-0.000049
1760	1.7502e+02	2.4910	-2.321038	0.000418	4.175541	0.707356	-0.000042
1761	1.7512e+02	2.4847	-2.367068	0.000463	4.625845	0.783639	-0.000046
1762	1.7522e+02	2.4767	-2.409839	0.000430	4.298351	0.728160	-0.000043
1763	1.7532e+02	2.4644	-2.459942	0.000504	5.035211	0.852988	-0.000050
1764	1.7542e+02	2.4528	-2.500676	0.000409	4.093668	0.693486	-0.000041
1765	1.7552e+02	2.4432	-2.547113	0.000467	4.666781	0.790574	-0.000047
1766	1.7562e+02	2.4341	-2.590291	0.000434	4.339288	0.735095	-0.000043
1767	1.7572e+02	2.4231	-2.640394	0.000504	5.035211	0.852988	-0.000050
1768	1.7582e+02	2.4127	-2.683165	0.000430	4.298351	0.728160	-0.000043
1769	1.7592e+02	2.4037	-2.730824	0.000479	4.789591	0.811379	-0.000048
1770	1.7602e+02	2.3951	-2.775225	0.000446	4.462098	0.755900	-0.000045
1771	1.7612e+02	2.3833	-2.819218	0.000442	4.421161	0.748965	-0.000044
1772	1.7621e+02	2.3754	-2.866470	0.000475	4.748655	0.804444	-0.000047
1773	1.7631e+02	2.3651	-2.916573	0.000504	5.035211	0.852988	-0.000050
1774	1.7641e+02	2.3573	-2.960566	0.000442	4.421161	0.748965	-0.000044
1775	1.7651e+02	2.3441	-3.007003	0.000467	4.666781	0.790574	-0.000047
1776	1.7661e+02	2.3335	-3.059957	0.000532	5.321768	0.901532	-0.000053
1777	1.7671e+02	2.3229	-3.106394	0.000467	4.666781	0.790574	-0.000047
1778	1.7681e+02	2.3131	-3.153646	0.000475	4.748655	0.804444	-0.000047
1779	1.7691e+02	2.3033	-3.195602	0.000422	4.216478	0.714291	-0.000042
1780	1.7701e+02	2.2931	-3.244891	0.000495	4.953338	0.839118	-0.000050
1781	1.7711e+02	2.2851	-3.292550	0.000479	4.789591	0.811379	-0.000048
1782	1.7721e+02	2.2718	-3.341838	0.000495	4.953338	0.839118	-0.000050
1783	1.7731e+02	2.2637	-3.390312	0.000487	4.871465	0.825248	-0.000049
1784	1.7741e+02	2.2558	-3.432268	0.000422	4.216478	0.714291	-0.000042
1785	1.7751e+02	2.2459	-3.486038	0.000540	5.403641	0.915402	-0.000054
1786	1.7761e+02	2.2345	-3.533697	0.000479	4.789591	0.811379	-0.000048
1787	1.7771e+02	2.2256	-3.585022	0.000516	5.158021	0.873792	-0.000052
1788	1.7781e+02	2.2128	-3.635125	0.000504	5.035211	0.852988	-0.000050
1789	1.7791e+02	2.2041	-3.686043	0.000512	5.117085	0.866858	-0.000051
1790	1.7801e+02	2.1937	-3.732887	0.000471	4.707718	0.797509	-0.000047
1791	1.7810e+02	2.1832	-3.782176	0.000495	4.953338	0.839118	-0.000050
1792	1.7820e+02	2.1789	-3.833093	0.000512	5.117085	0.866858	-0.000051
1793	1.7830e+02	2.1656	-3.881567	0.000487	4.871465	0.825248	-0.000049
1794	1.7840e+02	2.1548	-3.928412	0.000471	4.707718	0.797509	-0.000047
1795	1.7850e+02	2.1456	-3.976885	0.000487	4.871465	0.825248	-0.000049
1796	1.7860e+02	2.1364	-4.024544	0.000479	4.789591	0.811379	-0.000048
1797	1.7870e+02	2.1311	-4.072611	0.000483	4.830528	0.818314	-0.000048
1798	1.7880e+02	2.1159	-4.121899	0.000495	4.953338	0.839118	-0.000050
1799	1.7890e+02	2.1042	-4.169151	0.000475	4.748655	0.804444	-0.000047
1800	1.7900e+02	2.0975	-4.216810	0.000479	4.789591	0.811379	-0.000048
1801	1.7910e+02	2.0872	-4.265691	0.000491	4.912401	0.832183	-0.000049
1802	1.7920e+02	2.0741	-4.311314	0.000458	4.584908	0.776704	-0.000046
1803	1.7930e+02	2.0604	-4.359380	0.000483	4.830528	0.818314	-0.000048
1804	1.7940e+02	2.0568	-4.408668	0.000495	4.953338	0.839118	-0.000050
1805	1.7950e+02	2.0445	-4.457550	0.000491	4.912401	0.832183	-0.000049
1806	1.7960e+02	2.0370	-4.499506	0.000422	4.216478	0.714291	-0.000042
1807	1.7970e+02	2.0264	-4.549202	0.000499	4.994275	0.846053	-0.000050
1808	1.7980e+02	2.0180	-4.592787	0.000438	4.380224	0.742030	-0.000044
1809	1.7990e+02	2.0055	-4.640854	0.000483	4.830528	0.818314	-0.000048
1810	1.8000e+02	1.9965	-4.690549	0.000499	4.994275	0.846053	-0.000050
1811	1.8009e+02	1.9874	-4.734950	0.000446	4.462098	0.755900	-0.000045
1812	1.8019e+02	1.9749	-4.779757	0.000450	4.503034	0.762835	-0.000045
1813	1.8029e+02	1.9668	-4.828639	0.000491	4.912401	0.832183	-0.000049
1814	1.8039e+02	1.9574	-4.874668	0.000463	4.625845	0.783639	-0.000046
1815	1.8049e+02	1.9487	-4.920698	0.000463	4.625845	0.783639	-0.000046
1816	1.8059e+02	1.9372	-4.964284	0.000438	4.380224	0.742030	-0.000044
1817	1.8069e+02	1.9259	-5.012757	0.000487	4.871465	0.825248	-0.000049
1818	1.8079e+02	1.9170	-5.055121	0.000426	4.257414	0.721226	-0.000043
1819	1.8089e+02	1.9035	-5.103187	0.000483	4.830528	0.818314	-0.000048
1820	1.8099e+02	1.8929	-5.147995	0.000450	4.503034	0.762835	-0.000045
1821	1.8109e+02	1.8851	-5.194840	0.000471	4.707718	0.797509	-0.000047
1822	1.8119e+02	1.8768	-5.237203	0.000426	4.257414	0.721226	-0.000043
1823	1.8129e+02	1.8684	-5.284048	0.000471	4.707718	0.797509	-0.000047
1824	1.8139e+02	1.8557	-5.332521	0.000487	4.871465	0.825248	-0.000049
1825	1.8149e+02	1.8458	-5.377329	0.000450	4.503034	0.762835	-0.000045
1826	1.8159e+02	1.8375	-5.424988	0.000479	4.789591	0.811379	-0.000048
1827	1.8169e+02	1.8261	-5.471425	0.000467	4.666781	0.790574	-0.000047
1828	1.8179e+02	1.8168	-5.517862	0.000467	4.666781	0.790574	-0.000047
1829	1.8189e+02	1.8044	-5.560226	0.000426	4.257414	0.721226	-0.000043
1830	1.8199e+02	1.7977	-5.603404	0.000434	4.339288	0.735095	-0.000043
1831	1.8209e+02	1.7892	-5.651063	0.000479	4.789591	0.811379	-0.000048
1832	1.8218e+02	1.7774	-5.696686	0.000458	4.584908	0.776704	-0.000046
1833	1.8228e+02	1.7688	-5.744752	0.000483	4.830528	0.818314	-0.000048
1834	1.8238e+02	1.7574	-5.791596	0.000471	4.707718	0.797509	-0.000047
1835	1.8248e+02	1.7493	-5.839255	0.000479	4.789591	0.811379	-0.000048
1836	1.8258e+02	1.7382	-5.880397	0.000413	4.134604	0.700421	-0.000041
1837	1.8268e+02	1.7262	-5.926019	0.000458	4.584908	0.776704	-0.000046
1838	1.8278e+02	1.7170	-5.971234	0.000454	4.543971	0.769770	-0.000045
1839	1.8288e+02	1.7098	-6.018894	0.000479	4.789591	0.811379	-0.000048
1840	1.8298e+02	1.6949	-6.064923	0.000463	4.625845	0.783639	-0.000046
1841	1.8308e+02	1.6895	-6.112990	0.000483	4.830528	0.818314	-0.000048
1842	1.8318e+02	1.6749	-6.156983	0.000442	4.421161	0.748965	-0.000044
1843	1.8328e+02	1.6690	-6.199346	0.000426	4.257414	0.721226	-0.000043
1844	1.8338e+02	1.6611	-6.248227	0.000491	4.912401	0.832183	-0.000049
1845	1.8348e+02	1.6472	-6.292220	0.000442	4.421161	0.748965	-0.000044
1846	1.8358e+02	1.6383	-6.338657	0.000467	4.666781	0.790574	-0.000047
1847	1.8368e+02	1.6265	-6.386724	0.000483	4.830528	0.818314	-0.000048
1848	1.8378e+02	1.6180	-6.431532	0.000450	4.503034	0.762835	-0.000045
1849	1.8388e+02	1.6067	-6.476339	0.000450	4.503034	0.762835	-0.000045
1850	1.8398e+02	1.5945	-6.525220	0.000491	4.912401	0.832183	-0.000049
1851	1.8407e+02	1.5891	-6.569621	0.000446	4.462098	0.755900	-0.000045
1852	1.8417e+02	1.5751	-6.620131	0.000508	5.076148	0.859923	-0.000051
1853	1.8427e+02	1.5687	-6.664531	0.000446	4.462098	0.755900	-0.000045
1854	1.8437e+02	1.5567	-6.711376	0.000471	4.707718	0.797509	-0.000047
1855	1.8447e+02	1.5466	-6.755369	0.000442	4.421161	0.748965	-0.000044
1856	1.8457e+02	1.5380	-6.802621	0.000475	4.748655	0.804444	-0.000047
1857	1.8467e+02	1.5276	-6.848243	0.000458	4.584908	0.776704	-0.000046
1858	1.8477e+02	1.5178	-6.893458	0.000454	4.543971	0.769770	-0.000045
1859	1.8487e+02	1.5094	-6.940302	0.000471	4.707718	0.797509	-0.000047
1860	1.8497e+02	1.5018	-6.979000	0.000389	3.888984	0.658812	-0.000039
1861	1.8507e+02	1.4867	-7.028288	0.000495	4.953338	0.839118	-0.000050
1862	1.8517e+02	1.4787	-7.074318	0.000463	4.625845	0.783639	-0.000046
1863	1.8527e+02	1.4667	-7.118311	0.000442	4.421161	0.748965	-0.000044
1864	1.8537e+02	1.4574	-7.162711	0.000446	4.462098	0.755900	-0.000045
1865	1.8547e+02	1.4494	-7.208741	0.000463	4.625845	0.783639	-0.000046
1866	1.8557e+02	1.4378	-7.253549	0.000450	4.503034	0.762835	-0.000045
1867	1.8567e+02	1.4279	-7.296727	0.000434	4.339288	0.735095	-0.000043
1868	1.8577e+02	1.4181	-7.343979	0.000475	4.748655	0.804444	-0.000047
1869	1.8587e+02	1.4072	-7.386750	0.000430	4.298351	0.728160	-0.000043
1870	1.8597e+02	1.3973	-7.431965	0.000454	4.543971	0.769770	-0.000045
1871	1.8606e+02	1.3882	-7.473514	0.000418	4.175541	0.707356	-0.000042
1872	1.8616e+02	1.3789	-7.518729	0.000454	4.543971	0.769770	-0.000045
1873	1.8626e+02	1.3682	-7.565573	0.000471	4.707718	0.797509	-0.000047
1874	1.8636e+02	1.3595	-7.606715	0.000413	4.134604	0.700421	-0.000041
1875	1.8646e+02	1.3484	-7.653152	0.000467	4.666781	0.790574	-0.000047
1876	1.8656e+02	1.3388	-7.693886	0.000409	4.093668	0.693486	-0.000041
1877	1.8666e+02	1.3294	-7.743582	0.000499	4.994275	0.846053	-0.000050
1878	1.8676e+02	1.3159	-7.786760	0.000434	4.339288	0.735095	-0.000043
1879	1.8686e+02	1.3094	-7.832383	0.000458	4.584908	0.776704	-0.000046
1880	1.8696e+02	1.2946	-7.880856	0.000487	4.871465	0.825248	-0.000049
1881	1.8706e+02	1.2866	-7.924442	0.000438	4.380224	0.742030	-0.000044
1882	1.8716e+02	1.2787	-7.971286	0.000471	4.707718	0.797509	-0.000047
1883	1.8726e+02	1.2718	-8.017316	0.000463	4.625845	0.783639	-0.000046
1884	1.8736e+02	1.2586	-8.062938	0.000458	4.584908	0.776704	-0.000046
1885	1.8746e+02	1.2506	-8.110598	0.000479	4.789591	0.811379	-0.000048
1886	1.8756e+02	1.2397	-8.155813	0.000454	4.543971	0.769770	-0.000045
1887	1.8766e+02	1.2299	-8.200620	0.000450	4.503034	0.762835	-0.000045
1888	1.8776e+02	1.2210	-8.251538	0.000512	5.117085	0.866858	-0.000051
1889	1.8786e+02	1.2127	-8.298790	0.000475	4.748655	0.804444	-0.000047
1890	1.8796e+02	1.1979	-8.346856	0.000483	4.830528	0.818314	-0.000048
1891	1.8806e+02	1.1887	-8.395737	0.000491	4.912401	0.832183	-0.000049
1892	1.8815e+02	1.1826	-8.443396	0.000479	4.789591	0.811379	-0.000048
1893	1.8825e+02	1.1700	-8.492685	0.000495	4.953338	0.839118	-0.000050
1894	1.8835e+02	1.1612	-8.541159	0.000487	4.871465	0.825248	-0.000049
1895	1.8845e+02	1.1472	-8.592076	0.000512	5.117085	0.866858	-0.000051
1896	1.8855e+02	1.1426	-8.638513	0.000467	4.666781	0.790574	-0.000047
1897	1.8865e+02	1.1300	-8.688617	0.000504	5.035211	0.852988	-0.000050
1898	1.8875e+02	1.1219	-8.737498	0.000491	4.912401	0.832183	-0.000049
1899	1.8885e+02	1.1103	-8.792489	0.000553	5.526451	0.936206	-0.000055
1900	1.8895e+02	1.1039	-8.838519	0.000463	4.625845	0.783639	-0.000046
1901	1.8905e+02	1.0900	-8.888214	0.000499	4.994275	0.846053	-0.000050
1902	1.8915e+02	1.0824	-8.939132	0.000512	5.117085	0.866858	-0.000051
1903	1.8925e+02	1.0697	-8.988013	0.000491	4.912401	0.832183	-0.000049
1904	1.8935e+02	1.0610	-9.042597	0.000549	5.485515	0.929271	-0.000055
1905	1.8945e+02	1.0509	-9.091071	0.000487	4.871465	0.825248	-0.000049
1906	1.8955e+02	1.0387	-9.136693	0.000458	4.584908	0.776704	-0.000046
1907	1.8965e+02	1.0338	-9.190055	0.000536	5.362705	0.908467	-0.000054
1908	1.8975e+02	1.0203	-9.241380	0.000516	5.158021	0.873792	-0.000052
1909	1.8985e+02	1.0106	-9.292298	0.000512	5.117085	0.866858	-0.000051
1910	1.8995e+02	1.0018	-9.342401	0.000504	5.035211	0.852988	-0.000050
1911	1.9004e+02	0.9920	-9.392912	0.000508	5.076148	0.859923	-0.000051
1912	1.9014e+02	0.9816	-9.441793	0.000491	4.912401	0.832183	-0.000049
1913	1.9024e+02	0.9702	-9.495155	0.000536	5.362705	0.908467	-0.000054
1914	1.9034e+02	0.9614	-9.544443	0.000495	4.953338	0.839118	-0.000050
1915	1.9044e+02	0.9515	-9.600249	0.000561	5.608325	0.950076	-0.000056
1916	1.9054e+02	0.9389	-9.647094	0.000471	4.707718	0.797509	-0.000047
1917	1.9064e+02	0.9319	-9.700456	0.000536	5.362705	0.908467	-0.000054
1918	1.9074e+02	0.9198	-9.754225	0.000540	5.403641	0.915402	-0.000054
1919	1.9084e+02	0.9121	-9.802699	0.000487	4.871465	0.825248	-0.000049
1920	1.9094e+02	0.8990	-9.852802	0.000504	5.035211	0.852988	-0.000050
1921	1.9104e+02	0.8932	-9.904127	0.000516	5.158021	0.873792	-0.000052
1922	1.9114e+02	0.8802	-9.955859	0.000520	5.198958	0.880727	-0.000052
1923	1.9124e+02	0.8717	-10.010851	0.000553	5.526451	0.936206	-0.000055
1924	1.9134e+02	0.8635	-10.063805	0.000532	5.321768	0.901532	-0.000053
1925	1.9144e+02	0.8520	-10.114316	0.000508	5.076148	0.859923	-0.000051
1926	1.9154e+02	0.8405	-10.165641	0.000516	5.158021	0.873792	-0.000052
1927	1.9164e+02	0.8324	-10.218188	0.000528	5.280831	0.894597	-0.000053
1928	1.9174e+02	0.8224	-10.272364	0.000544	5.444578	0.922336	-0.000054
1929	1.9184e+02	0.8143	-10.324097	0.000520	5.198958	0.880727	-0.000052
1930	1.9194e+02	0.8021	-10.378681	0.000549	5.485515	0.929271	-0.000055
1931	1.9203e+02	0.7949	-10.430821	0.000524	5.239895	0.887662	-0.000052
1932	1.9213e+02	0.7785	-10.478480	0.000479	4.789591	0.811379	-0.000048
1933	1.9223e+02	0.7730	-10.534286	0.000561	5.608325	0.950076	-0.000056
1934	1.9233e+02	0.7625	-10.583574	0.000495	4.953338	0.839118	-0.000050
1935	1.9243e+02	0.7523	-10.635714	0.000524	5.239895	0.887662	-0.000052
1936	1.9253e+02	0.7435	-10.693149	0.000577	5.772071	0.977815	-0.000058
1937	1.9263e+02	0.7325	-10.740401	0.000475	4.748655	0.804444	-0.000047
1938	1.9273e+02	0.7208	-10.799873	0.000598	5.976755	1.012490	-0.000060
1939	1.9283e+02	0.7114	-10.845495	0.000458	4.584908	0.776704	-0.000046
1940	1.9293e+02	0.7024	-10.902523	0.000573	5.731135	0.970881	-0.000057
1941	1.9303e+02	0.6905	-10.955478	0.000532	5.321768	0.901532	-0.000053
1942	1.9313e+02	0.6826	-11.012506	0.000573	5.731135	0.970881	-0.000057
1943	1.9323e+02	0.6702	-11.065460	0.000532	5.321768	0.901532	-0.000053
1944	1.9333e+02	0.6623	-11.121266	0.000561	5.608325	0.950076	-0.000056
1945	1.9343e+02	0.6532	-11.174628	0.000536	5.362705	0.908467	-0.000054
1946	1.9353e+02	0.6426	-11.222287	0.000479	4.789591	0.811379	-0.000048
1947	1.9363e+02	0.6306	-11.279315	0.000573	5.731135	0.970881	-0.000057
1948	1.9373e+02	0.6225	-11.337565	0.000585	5.853945	0.991685	-0.000059
1949	1.9383e+02	0.6148	-11.388890	0.000516	5.158021	0.873792	-0.000052
1950	1.9393e+02	0.6039	-11.442660	0.000540	5.403641	0.915402	-0.000054
1951	1.9403e+02	0.5933	-11.494799	0.000524	5.239895	0.887662	-0.000052
1952	1.9412e+02	0.5830	-11.552235	0.000577	5.772071	0.977815	-0.000058
1953	1.9422e+02	0.5750	-11.609263	0.000573	5.731135	0.970881	-0.000057
1954	1.9432e+02	0.5605	-11.665069	0.000561	5.608325	0.950076	-0.000056
1955	1.9442e+02	0.5532	-11.723726	0.000589	5.894882	0.998620	-0.000059
1956	1.9452e+02	0.5407	-11.775866	0.000524	5.239895	0.887662	-0.000052
1957	1.9462e+02	0.5333	-11.836967	0.000614	6.140502	1.040229	-0.000061
1958	1.9472e+02	0.5231	-11.889922	0.000532	5.321768	0.901532	-0.000053
1959	1.9482e+02	0.5107	-11.950616	0.000610	6.099565	1.033294	-0.000061
1960	1.9492e+02	0.5030	-12.001941	0.000516	5.158021	0.873792	-0.000052
1961	1.9502e+02	0.4950	-12.055710	0.000540	5.403641	0.915402	-0.000054
1962	1.9512e+02	0.4838	-12.111109	0.000557	5.567388	0.943141	-0.000056
1963	1.9522e+02	0.4741	-12.162841	0.000520	5.198958	0.880727	-0.000052
1964	1.9532e+02	0.4607	-12.219462	0.000569	5.690198	0.963946	-0.000057
1965	1.9542e+02	0.4539	-12.275675	0.000565	5.649261	0.957011	-0.000056
1966	1.9552e+02	0.4456	-12.330666	0.000553	5.526451	0.936206	-0.000055
1967	1.9562e+02	0.4339	-12.380770	0.000504	5.035211	0.852988	-0.000050
1968	1.9572e+02	0.4244	-12.439834	0.000594	5.935818	1.005555	-0.000059
1969	1.9582e+02	0.4155	-12.495233	0.000557	5.567388	0.943141	-0.000056
1970	1.9592e+02	0.4037	-12.547373	0.000524	5.239895	0.887662	-0.000052
1971	1.9601e+02	0.3919	-12.601142	0.000540	5.403641	0.915402	-0.000054
1972	1.9611e+02	0.3820	-12.656133	0.000553	5.526451	0.936206	-0.000055
1973	1.9621e+02	0.3734	-12.715198	0.000594	5.935818	1.005555	-0.000059
1974	1.9631e+02	0.3648	-12.764486	0.000495	4.953338	0.839118	-0.000050
1975	1.9641e+02	0.3552	-12.818255	0.000540	5.403641	0.915402	-0.000054
1976	1.9651e+02	0.3442	-12.870395	0.000524	5.239895	0.887662	-0.000052
1977	1.9661e+02	0.3331	-12.924164	0.000540	5.403641	0.915402	-0.000054
1978	1.9671e+02	0.3220	-12.978341	0.000544	5.444578	0.922336	-0.000054
1979	1.9681e+02	0.3116	-13.030481	0.000524	5.239895	0.887662	-0.000052
1980	1.9691e+02	0.3055	-13.080584	0.000504	5.035211	0.852988	-0.000050
1981	1.9701e+02	0.2923	-13.133946	0.000536	5.362705	0.908467	-0.000054
1982	1.9711e+02	0.2844	-13.187715	0.000540	5.403641	0.915402	-0.000054
1983	1.9721e+02	0.2754	-13.240670	0.000532	5.321768	0.901532	-0.000053
1984	1.9731e+02	0.2628	-13.289551	0.000491	4.912401	0.832183	-0.000049
1985	1.9741e+02	0.2551	-13.342913	0.000536	5.362705	0.908467	-0.000054
1986	1.9751e+02	0.2454	-13.395867	0.000532	5.321768	0.901532	-0.000053
1987	1.9761e+02	0.2361	-13.447600	0.000520	5.198958	0.880727	-0.000052
1988	1.9771e+02	0.2225	-13.499739	0.000524	5.239895	0.887662	-0.000052
1989	1.9781e+02	0.2145	-13.553509	0.000540	5.403641	0.915402	-0.000054
1990	1.9791e+02	0.2035	-13.608500	0.000553	5.526451	0.936206	-0.000055
1991	1.9800e+02	0.1945	-13.661454	0.000532	5.321768	0.901532	-0.000053
1992	1.9810e+02	0.1863	-13.709521	0.000483	4.830528	0.818314	-0.000048
1993	1.9820e+02	0.1771	-13.764919	0.000557	5.567388	0.943141	-0.000056
1994	1.9830e+02	0.1625	-13.813801	0.000491	4.912401	0.832183	-0.000049
1995	1.9840e+02	0.1561	-13.865940	0.000524	5.239895	0.887662	-0.000052
1996	1.9850e+02	0.1419	-13.918895	0.000532	5.321768	0.901532	-0.000053
1997	1.9860e+02	0.1315	-13.970627	0.000520	5.198958	0.880727	-0.000052
1998	1.9870e+02	0.1228	-14.018694	0.000483	4.830528	0.818314	-0.000048
1999	1.9880e+02	0.1147	-14.073278	0.000549	5.485515	0.929271	-0.000055
2000	1.9890e+02	0.1020	-14.126640	0.000536	5.362705	0.908467	-0.000054
2001	1.9900e+02	0.0957	-14.178780	0.000524	5.239895	0.887662	-0.000052
2002	1.9910e+02	0.0871	-14.230512	0.000520	5.198958	0.880727	-0.000052
2003	1.9920e+02	0.0765	-14.283059	0.000528	5.280831	0.894597	-0.000053
2004	1.9930e+02	0.0647	-14.332348	0.000495	4.953338	0.839118	-0.000050
2005	1.9940e+02	0.0555	-14.386524	0.000544	5.444578	0.922336	-0.000054
2006	1.9950e+02	0.0452	-14.440293	0.000540	5.403641	0.915402	-0.000054
2007	1.9960e+02	0.0349	-14.489582	0.000495	4.953338	0.839118	-0.000050
2008	1.9970e+02	0.0259	-14.546203	0.000569	5.690198	0.963946	-0.000057
2009	1.9980e+02	0.0138	-14.595898	0.000499	4.994275	0.846053	-0.000050
2010	1.9990e+02	0.0082	-14.648038	0.000524	5.239895	0.887662	-0.000052
2011	2.0000e+02	-0.0021	-14.693661	0.000524	5.239895	0.887662	-0.000046

PMax (uC/cm2):	4.08e+01
Pr (uC/cm2):	5.72e+00
-Pr (uC/cm2):	0.00e+00
PLoss (uC/cm2):	0.00e+00
C (Max-Eff) (nF):	4.08e-01
K (Eff):	6.91e+02
Vert. (+/-Pr) Shift (uC/cm2):	2.86e+00
Offset (uC/cm2):	2.04e+01

A (Loop Area - uC/cm2·Volts):	-5.66e-02



Hysteresis Version: 5.48.1 - Radiant Technologies, Inc., 1999 - 9/12/24

