»»»»»»»»»»»»»»»»»»»»»»»»»»»»»»»»»»»» Hysteresis ««««««««««««««««««««««««««««««««««««
»»»  Executed Version:	5.48.1
»»»  Vision Version:	5.48.4 (R)
»»»  Vision Compiled:	9/18/24
»»»  Driver Version:	5.47.0
»»»  Windows Version:	Windows 8 or 8.1
»»»  Processor Information:	x86 (AMD or Intel) - 32 Processors
»»»  Tester Name:	PMF21124-494 (100V)
»»»  Tester S/N:	PMF21124-494
»»»  Internal Amp Type:	100V RevK 270k
»»»  Internal Amp S/N:	iAB2-596/K     
»»»  Execution Count:	1
»»»»»»»»»»»»»»»»»»»»»»»»»»»»»»»»»»»»»»»»»»««««««««««««««««««««««««««««««««««««««««««

Stored:	6/30/2025 - 14:56:2
Configured:	06/30/25 10:19:58 AM
Executed:	06/30/25 02:55:37 PM

»»»»»»»»»»»»»»»»»»»»»»»»»»»»»»»»»»» Sample Info ««««««««««««««««««««««««««««««««««««
Sample Name:	
Lot Name:	
Wafer Name:	
Die Row/Column:	0/0
Capacitor Number:	0
Sample Area (cm2):	1.00e-04
Sample Thickness (microns):	1.50e-01

Amplifier:	Internal

»»»»»»»»»»»»»»»»»»»»»»»»»»»»»»»»»»» Tester Info «««««««««««««««««««««««««««««««««««
Tester Name:	PMF21124-494 (100V)
Tester Serial Number:	PMF21124-494
Return Signal Amp. Level:	0.19 [Index: 3]

»»»»»»»»»»»»»»»»»»»»»»»»»»»»»»»» Hysteresis Info ««««««««««««««««««««««««««««««««««
Task Name:	Hyst-1804
Volts:	10.00
Field:	666.67 (kV/cm)
DCBias:	0.00
DCField:	0.00 (kV/cm)
Hysteresis Period (ms):	2.00e+02
Preset:	Enabled
Preset Delay (ms):	1.00e+03
Profile:	Standard Monopolar

»»»»»»»»»»»»»»»»»»»»»»»»»»»»»»»»»»»»»» Data «««««««««««««««««««««««««««««««««««««««
Points:	2011

Valid Data

Point	Time (ms)	Drive Voltage	Measured Polarization (uC/cm2)	Capacitance (uF)	Normalized Capacitance (uF/cm2)	Dielectric Constant	Instantaneous Current (mA)
   1	0.0000e+00	-0.0009	-24.961610	0.000649	6.492507	1.099860	0.000065
   2	9.9500e-02	0.0092	-24.897016	0.000649	6.492507	1.099860	0.000065
   3	1.9900e-01	0.0200	-24.800125	0.000974	9.738760	1.649791	0.000097
   4	2.9850e-01	0.0288	-24.763791	0.000365	3.652035	0.618671	0.000037
   5	3.9800e-01	0.0392	-24.711308	0.000528	5.275162	0.893637	0.000053
   6	4.9750e-01	0.0485	-24.658825	0.000528	5.275162	0.893637	0.000053
   7	5.9700e-01	0.0581	-24.642677	0.000162	1.623127	0.274965	0.000016
   8	6.9650e-01	0.0676	-24.565971	0.000771	7.709852	1.306084	0.000077
   9	7.9600e-01	0.0784	-24.501377	0.000649	6.492507	1.099860	0.000065
  10	8.9550e-01	0.0882	-24.420634	0.000812	8.115634	1.374826	0.000081
  11	9.9500e-01	0.0986	-24.368151	0.000528	5.275162	0.893637	0.000053
  12	1.0945e+00	0.1093	-24.335854	0.000325	3.246253	0.549930	0.000032
  13	1.1940e+00	0.1177	-24.247037	0.000893	8.927197	1.512308	0.000089
  14	1.2935e+00	0.1289	-24.206666	0.000406	4.057817	0.687413	0.000041
  15	1.3930e+00	0.1385	-24.170332	0.000365	3.652035	0.618671	0.000037
  16	1.4925e+00	0.1485	-24.097663	0.000730	7.304070	1.237343	0.000073
  17	1.5920e+00	0.1587	-24.069403	0.000284	2.840472	0.481189	0.000028
  18	1.6915e+00	0.1690	-23.972512	0.000974	9.738760	1.649791	0.000097
  19	1.7910e+00	0.1780	-23.944252	0.000284	2.840472	0.481189	0.000028
  20	1.8905e+00	0.1884	-23.883695	0.000609	6.086725	1.031119	0.000061
  21	1.9900e+00	0.1980	-23.815064	0.000690	6.898288	1.168602	0.000069
  22	2.0895e+00	0.2078	-23.750470	0.000649	6.492507	1.099860	0.000065
  23	2.1890e+00	0.2179	-23.718172	0.000325	3.246253	0.549930	0.000032
  24	2.2885e+00	0.2271	-23.637430	0.000812	8.115634	1.374826	0.000081
  25	2.3880e+00	0.2377	-23.584947	0.000528	5.275162	0.893637	0.000053
  26	2.4875e+00	0.2473	-23.560724	0.000243	2.434690	0.412448	0.000024
  27	2.5870e+00	0.2582	-23.496130	0.000649	6.492507	1.099860	0.000065
  28	2.6865e+00	0.2682	-23.411350	0.000852	8.521415	1.443567	0.000085
  29	2.7860e+00	0.2776	-23.346756	0.000649	6.492507	1.099860	0.000065
  30	2.8855e+00	0.2868	-23.306385	0.000406	4.057817	0.687413	0.000041
  31	2.9850e+00	0.2982	-23.257939	0.000487	4.869380	0.824895	0.000049
  32	3.0845e+00	0.3069	-23.181233	0.000771	7.709852	1.306084	0.000077
  33	3.1840e+00	0.3185	-23.161048	0.000203	2.028908	0.343706	0.000020
  34	3.2835e+00	0.3268	-23.060119	0.001014	10.144542	1.718532	0.000101
  35	3.3830e+00	0.3378	-22.999562	0.000609	6.086725	1.031119	0.000061
  36	3.4825e+00	0.3471	-22.955154	0.000446	4.463598	0.756154	0.000045
  37	3.5820e+00	0.3572	-22.930931	0.000243	2.434690	0.412448	0.000024
  38	3.6815e+00	0.3673	-22.834040	0.000974	9.738760	1.649791	0.000097
  39	3.7810e+00	0.3770	-22.773483	0.000609	6.086725	1.031119	0.000061
  40	3.8805e+00	0.3871	-22.737148	0.000365	3.652035	0.618671	0.000037
  41	3.9800e+00	0.3979	-22.656406	0.000812	8.115634	1.374826	0.000081
  42	4.0795e+00	0.4067	-22.656406	0.000000	0.000000	0.000000	0.000000
  43	4.1790e+00	0.4173	-22.575663	0.000812	8.115634	1.374826	0.000081
  44	4.2785e+00	0.4275	-22.507032	0.000690	6.898288	1.168602	0.000069
  45	4.3780e+00	0.4367	-22.458586	0.000487	4.869380	0.824895	0.000049
  46	4.4775e+00	0.4468	-22.430326	0.000284	2.840472	0.481189	0.000028
  47	4.5770e+00	0.4559	-22.369769	0.000609	6.086725	1.031119	0.000061
  48	4.6765e+00	0.4665	-22.276915	0.000933	9.332979	1.581049	0.000093
  49	4.7760e+00	0.4776	-22.272878	0.000041	0.405782	0.068741	0.000004
  50	4.8755e+00	0.4865	-22.192135	0.000812	8.115634	1.374826	0.000081
  51	4.9750e+00	0.4974	-22.139652	0.000528	5.275162	0.893637	0.000053
  52	5.0745e+00	0.5080	-22.062947	0.000771	7.709852	1.306084	0.000077
  53	5.1740e+00	0.5167	-22.018538	0.000446	4.463598	0.756154	0.000045
  54	5.2735e+00	0.5263	-21.953944	0.000649	6.492507	1.099860	0.000065
  55	5.3730e+00	0.5363	-21.889350	0.000649	6.492507	1.099860	0.000065
  56	5.4725e+00	0.5466	-21.844941	0.000446	4.463598	0.756154	0.000045
  57	5.5720e+00	0.5567	-21.752087	0.000933	9.332979	1.581049	0.000093
  58	5.6715e+00	0.5663	-21.675382	0.000771	7.709852	1.306084	0.000077
  59	5.7710e+00	0.5755	-21.655196	0.000203	2.028908	0.343706	0.000020
  60	5.8705e+00	0.5863	-21.614825	0.000406	4.057817	0.687413	0.000041
  61	5.9700e+00	0.5969	-21.554268	0.000609	6.086725	1.031119	0.000061
  62	6.0695e+00	0.6053	-21.489674	0.000649	6.492507	1.099860	0.000065
  63	6.1690e+00	0.6160	-21.433154	0.000568	5.680943	0.962378	0.000057
  64	6.2685e+00	0.6264	-21.368559	0.000649	6.492507	1.099860	0.000065
  65	6.3680e+00	0.6361	-21.324151	0.000446	4.463598	0.756154	0.000045
  66	6.4675e+00	0.6472	-21.275705	0.000487	4.869380	0.824895	0.000049
  67	6.5670e+00	0.6564	-21.199000	0.000771	7.709852	1.306084	0.000077
  68	6.6665e+00	0.6664	-21.158628	0.000406	4.057817	0.687413	0.000041
  69	6.7660e+00	0.6760	-21.106146	0.000528	5.275162	0.893637	0.000053
  70	6.8655e+00	0.6857	-21.049626	0.000568	5.680943	0.962378	0.000057
  71	6.9650e+00	0.6949	-20.968883	0.000812	8.115634	1.374826	0.000081
  72	7.0645e+00	0.7058	-20.920437	0.000487	4.869380	0.824895	0.000049
  73	7.1640e+00	0.7166	-20.884103	0.000365	3.652035	0.618671	0.000037
  74	7.2635e+00	0.7249	-20.823546	0.000609	6.086725	1.031119	0.000061
  75	7.3630e+00	0.7351	-20.730692	0.000933	9.332979	1.581049	0.000093
  76	7.4625e+00	0.7462	-20.702432	0.000284	2.840472	0.481189	0.000028
  77	7.5620e+00	0.7553	-20.641875	0.000609	6.086725	1.031119	0.000061
  78	7.6615e+00	0.7652	-20.581318	0.000609	6.086725	1.031119	0.000061
  79	7.7610e+00	0.7744	-20.528835	0.000528	5.275162	0.893637	0.000053
  80	7.8605e+00	0.7851	-20.476352	0.000528	5.275162	0.893637	0.000053
  81	7.9600e+00	0.7954	-20.407721	0.000690	6.898288	1.168602	0.000069
  82	8.0595e+00	0.8061	-20.359276	0.000487	4.869380	0.824895	0.000049
  83	8.1590e+00	0.8150	-20.302756	0.000568	5.680943	0.962378	0.000057
  84	8.2585e+00	0.8247	-20.270459	0.000325	3.246253	0.549930	0.000032
  85	8.3580e+00	0.8353	-20.189716	0.000812	8.115634	1.374826	0.000081
  86	8.4575e+00	0.8446	-20.125122	0.000649	6.492507	1.099860	0.000065
  87	8.5570e+00	0.8551	-20.068602	0.000568	5.680943	0.962378	0.000057
  88	8.6565e+00	0.8649	-20.056490	0.000122	1.217345	0.206224	0.000012
  89	8.7560e+00	0.8748	-19.943451	0.001136	11.361887	1.924756	0.000114
  90	8.8555e+00	0.8852	-19.899042	0.000446	4.463598	0.756154	0.000045
  91	8.9550e+00	0.8955	-19.806188	0.000933	9.332979	1.581049	0.000093
  92	9.0545e+00	0.9052	-19.798114	0.000081	0.811563	0.137483	0.000008
  93	9.1540e+00	0.9142	-19.701222	0.000974	9.738760	1.649791	0.000097
  94	9.2535e+00	0.9245	-19.648740	0.000528	5.275162	0.893637	0.000053
  95	9.3530e+00	0.9347	-19.644703	0.000041	0.405782	0.068741	0.000004
  96	9.4525e+00	0.9445	-19.580108	0.000649	6.492507	1.099860	0.000065
  97	9.5520e+00	0.9547	-19.450920	0.001299	12.985014	2.199721	0.000130
  98	9.6515e+00	0.9650	-19.434771	0.000162	1.623127	0.274965	0.000016
  99	9.7510e+00	0.9748	-19.386326	0.000487	4.869380	0.824895	0.000049
 100	9.8505e+00	0.9850	-19.345954	0.000406	4.057817	0.687413	0.000041
 101	9.9500e+00	0.9937	-19.293472	0.000528	5.275162	0.893637	0.000053
 102	1.0050e+01	1.0040	-19.228878	0.000649	6.492507	1.099860	0.000065
 103	1.0149e+01	1.0141	-19.172358	0.000568	5.680943	0.962378	0.000057
 104	1.0248e+01	1.0241	-19.095652	0.000771	7.709852	1.306084	0.000077
 105	1.0348e+01	1.0340	-19.039132	0.000568	5.680943	0.962378	0.000057
 106	1.0447e+01	1.0429	-19.010872	0.000284	2.840472	0.481189	0.000028
 107	1.0547e+01	1.0540	-18.926092	0.000852	8.521415	1.443567	0.000085
 108	1.0646e+01	1.0641	-18.845350	0.000812	8.115634	1.374826	0.000081
 109	1.0746e+01	1.0741	-18.825164	0.000203	2.028908	0.343706	0.000020
 110	1.0845e+01	1.0838	-18.768644	0.000568	5.680943	0.962378	0.000057
 111	1.0945e+01	1.0937	-18.675790	0.000933	9.332979	1.581049	0.000093
 112	1.1044e+01	1.1035	-18.683864	-0.000081	-0.811563	-0.137483	-0.000008
 113	1.1144e+01	1.1133	-18.635419	0.000487	4.869380	0.824895	0.000049
 114	1.1243e+01	1.1237	-18.550639	0.000852	8.521415	1.443567	0.000085
 115	1.1343e+01	1.1333	-18.486045	0.000649	6.492507	1.099860	0.000065
 116	1.1443e+01	1.1430	-18.433562	0.000528	5.275162	0.893637	0.000053
 117	1.1542e+01	1.1539	-18.409339	0.000243	2.434690	0.412448	0.000024
 118	1.1642e+01	1.1639	-18.332633	0.000771	7.709852	1.306084	0.000077
 119	1.1741e+01	1.1738	-18.292262	0.000406	4.057817	0.687413	0.000041
 120	1.1841e+01	1.1832	-18.207482	0.000852	8.521415	1.443567	0.000085
 121	1.1940e+01	1.1922	-18.134814	0.000730	7.304070	1.237343	0.000073
 122	1.2040e+01	1.2034	-18.086368	0.000487	4.869380	0.824895	0.000049
 123	1.2139e+01	1.2141	-18.013700	0.000730	7.304070	1.237343	0.000073
 124	1.2239e+01	1.2241	-18.013700	0.000000	0.000000	0.000000	0.000000
 125	1.2338e+01	1.2334	-17.932957	0.000812	8.115634	1.374826	0.000081
 126	1.2438e+01	1.2437	-17.856251	0.000771	7.709852	1.306084	0.000077
 127	1.2537e+01	1.2534	-17.803769	0.000528	5.275162	0.893637	0.000053
 128	1.2636e+01	1.2634	-17.755323	0.000487	4.869380	0.824895	0.000049
 129	1.2736e+01	1.2719	-17.686692	0.000690	6.898288	1.168602	0.000069
 130	1.2835e+01	1.2823	-17.614023	0.000730	7.304070	1.237343	0.000073
 131	1.2935e+01	1.2923	-17.585763	0.000284	2.840472	0.481189	0.000028
 132	1.3034e+01	1.3007	-17.529243	0.000568	5.680943	0.962378	0.000057
 133	1.3134e+01	1.3128	-17.448501	0.000812	8.115634	1.374826	0.000081
 134	1.3233e+01	1.3215	-17.428315	0.000203	2.028908	0.343706	0.000020
 135	1.3333e+01	1.3322	-17.351609	0.000771	7.709852	1.306084	0.000077
 136	1.3432e+01	1.3422	-17.319312	0.000325	3.246253	0.549930	0.000032
 137	1.3532e+01	1.3528	-17.222421	0.000974	9.738760	1.649791	0.000097
 138	1.3632e+01	1.3625	-17.218384	0.000041	0.405782	0.068741	0.000004
 139	1.3731e+01	1.3711	-17.121493	0.000974	9.738760	1.649791	0.000097
 140	1.3831e+01	1.3821	-17.077084	0.000446	4.463598	0.756154	0.000045
 141	1.3930e+01	1.3924	-17.040750	0.000365	3.652035	0.618671	0.000037
 142	1.4030e+01	1.4016	-16.972119	0.000690	6.898288	1.168602	0.000069
 143	1.4129e+01	1.4114	-16.943859	0.000284	2.840472	0.481189	0.000028
 144	1.4229e+01	1.4220	-16.855042	0.000893	8.927197	1.512308	0.000089
 145	1.4328e+01	1.4329	-16.774299	0.000812	8.115634	1.374826	0.000081
 146	1.4428e+01	1.4416	-16.717779	0.000568	5.680943	0.962378	0.000057
 147	1.4527e+01	1.4526	-16.689519	0.000284	2.840472	0.481189	0.000028
 148	1.4627e+01	1.4618	-16.645111	0.000446	4.463598	0.756154	0.000045
 149	1.4726e+01	1.4715	-16.536108	0.001096	10.956105	1.856014	0.000110
 150	1.4825e+01	1.4813	-16.507848	0.000284	2.840472	0.481189	0.000028
 151	1.4925e+01	1.4906	-16.467477	0.000406	4.057817	0.687413	0.000041
 152	1.5024e+01	1.5013	-16.398845	0.000690	6.898288	1.168602	0.000069
 153	1.5124e+01	1.5115	-16.330214	0.000690	6.898288	1.168602	0.000069
 154	1.5223e+01	1.5208	-16.293880	0.000365	3.652035	0.618671	0.000037
 155	1.5323e+01	1.5314	-16.213137	0.000812	8.115634	1.374826	0.000081
 156	1.5422e+01	1.5417	-16.188914	0.000243	2.434690	0.412448	0.000024
 157	1.5522e+01	1.5508	-16.120283	0.000690	6.898288	1.168602	0.000069
 158	1.5621e+01	1.5609	-16.055689	0.000649	6.492507	1.099860	0.000065
 159	1.5721e+01	1.5710	-15.983020	0.000730	7.304070	1.237343	0.000073
 160	1.5820e+01	1.5811	-15.958798	0.000243	2.434690	0.412448	0.000024
 161	1.5920e+01	1.5916	-15.882092	0.000771	7.709852	1.306084	0.000077
 162	1.6020e+01	1.6009	-15.809424	0.000730	7.304070	1.237343	0.000073
 163	1.6119e+01	1.6113	-15.797312	0.000122	1.217345	0.206224	0.000012
 164	1.6218e+01	1.6205	-15.732718	0.000649	6.492507	1.099860	0.000065
 165	1.6318e+01	1.6303	-15.672161	0.000609	6.086725	1.031119	0.000061
 166	1.6418e+01	1.6406	-15.611604	0.000609	6.086725	1.031119	0.000061
 167	1.6517e+01	1.6505	-15.587381	0.000243	2.434690	0.412448	0.000024
 168	1.6616e+01	1.6610	-15.478378	0.001096	10.956105	1.856014	0.000110
 169	1.6716e+01	1.6708	-15.446081	0.000325	3.246253	0.549930	0.000032
 170	1.6816e+01	1.6799	-15.442044	0.000041	0.405782	0.068741	0.000004
 171	1.6915e+01	1.6908	-15.333042	0.001096	10.956105	1.856014	0.000110
 172	1.7015e+01	1.7013	-15.292670	0.000406	4.057817	0.687413	0.000041
 173	1.7114e+01	1.7111	-15.260373	0.000325	3.246253	0.549930	0.000032
 174	1.7213e+01	1.7213	-15.191742	0.000690	6.898288	1.168602	0.000069
 175	1.7313e+01	1.7310	-15.147333	0.000446	4.463598	0.756154	0.000045
 176	1.7413e+01	1.7407	-15.062553	0.000852	8.521415	1.443567	0.000085
 177	1.7512e+01	1.7497	-14.977774	0.000852	8.521415	1.443567	0.000085
 178	1.7611e+01	1.7610	-14.949514	0.000284	2.840472	0.481189	0.000028
 179	1.7711e+01	1.7700	-14.901068	0.000487	4.869380	0.824895	0.000049
 180	1.7811e+01	1.7805	-14.836474	0.000649	6.492507	1.099860	0.000065
 181	1.7910e+01	1.7901	-14.788028	0.000487	4.869380	0.824895	0.000049
 182	1.8009e+01	1.7996	-14.723434	0.000649	6.492507	1.099860	0.000065
 183	1.8109e+01	1.8096	-14.670951	0.000528	5.275162	0.893637	0.000053
 184	1.8209e+01	1.8195	-14.662877	0.000081	0.811563	0.137483	0.000008
 185	1.8308e+01	1.8294	-14.602320	0.000609	6.086725	1.031119	0.000061
 186	1.8407e+01	1.8402	-14.517540	0.000852	8.521415	1.443567	0.000085
 187	1.8507e+01	1.8499	-14.440835	0.000771	7.709852	1.306084	0.000077
 188	1.8607e+01	1.8590	-14.408537	0.000325	3.246253	0.549930	0.000032
 189	1.8706e+01	1.8697	-14.339906	0.000690	6.898288	1.168602	0.000069
 190	1.8805e+01	1.8803	-14.299535	0.000406	4.057817	0.687413	0.000041
 191	1.8905e+01	1.8895	-14.226866	0.000730	7.304070	1.237343	0.000073
 192	1.9005e+01	1.8991	-14.190532	0.000365	3.652035	0.618671	0.000037
 193	1.9104e+01	1.9096	-14.162272	0.000284	2.840472	0.481189	0.000028
 194	1.9203e+01	1.9185	-14.113827	0.000487	4.869380	0.824895	0.000049
 195	1.9303e+01	1.9296	-14.012898	0.001014	10.144542	1.718532	0.000101
 196	1.9402e+01	1.9404	-13.992712	0.000203	2.028908	0.343706	0.000020
 197	1.9502e+01	1.9489	-13.907933	0.000852	8.521415	1.443567	0.000085
 198	1.9602e+01	1.9591	-13.855450	0.000528	5.275162	0.893637	0.000053
 199	1.9701e+01	1.9687	-13.831227	0.000243	2.434690	0.412448	0.000024
 200	1.9800e+01	1.9784	-13.754521	0.000771	7.709852	1.306084	0.000077
 201	1.9900e+01	1.9897	-13.718187	0.000365	3.652035	0.618671	0.000037
 202	2.0000e+01	1.9990	-13.613222	0.001055	10.550324	1.787273	0.000105
 203	2.0099e+01	2.0096	-13.613222	0.000000	0.000000	0.000000	0.000000
 204	2.0198e+01	2.0190	-13.516330	0.000974	9.738760	1.649791	0.000097
 205	2.0298e+01	2.0281	-13.496145	0.000203	2.028908	0.343706	0.000020
 206	2.0398e+01	2.0387	-13.447699	0.000487	4.869380	0.824895	0.000049
 207	2.0497e+01	2.0488	-13.395216	0.000528	5.275162	0.893637	0.000053
 208	2.0596e+01	2.0582	-13.306399	0.000893	8.927197	1.512308	0.000089
 209	2.0696e+01	2.0690	-13.282177	0.000243	2.434690	0.412448	0.000024
 210	2.0796e+01	2.0785	-13.193360	0.000893	8.927197	1.512308	0.000089
 211	2.0895e+01	2.0892	-13.189322	0.000041	0.405782	0.068741	0.000004
 212	2.0994e+01	2.0992	-13.096468	0.000933	9.332979	1.581049	0.000093
 213	2.1094e+01	2.1095	-13.068208	0.000284	2.840472	0.481189	0.000028
 214	2.1194e+01	2.1180	-13.007651	0.000609	6.086725	1.031119	0.000061
 215	2.1293e+01	2.1281	-12.939020	0.000690	6.898288	1.168602	0.000069
 216	2.1392e+01	2.1390	-12.870389	0.000690	6.898288	1.168602	0.000069
 217	2.1492e+01	2.1484	-12.842129	0.000284	2.840472	0.481189	0.000028
 218	2.1591e+01	2.1578	-12.809832	0.000325	3.246253	0.549930	0.000032
 219	2.1691e+01	2.1677	-12.773497	0.000365	3.652035	0.618671	0.000037
 220	2.1791e+01	2.1786	-12.725052	0.000487	4.869380	0.824895	0.000049
 221	2.1890e+01	2.1891	-12.632198	0.000933	9.332979	1.581049	0.000093
 222	2.1989e+01	2.1986	-12.620086	0.000122	1.217345	0.206224	0.000012
 223	2.2089e+01	2.2097	-12.515121	0.001055	10.550324	1.787273	0.000105
 224	2.2189e+01	2.2179	-12.462638	0.000528	5.275162	0.893637	0.000053
 225	2.2288e+01	2.2282	-12.394007	0.000690	6.898288	1.168602	0.000069
 226	2.2387e+01	2.2378	-12.381895	0.000122	1.217345	0.206224	0.000012
 227	2.2487e+01	2.2479	-12.345561	0.000365	3.652035	0.618671	0.000037
 228	2.2587e+01	2.2580	-12.256744	0.000893	8.927197	1.512308	0.000089
 229	2.2686e+01	2.2677	-12.216373	0.000406	4.057817	0.687413	0.000041
 230	2.2785e+01	2.2778	-12.220410	-0.000041	-0.405782	-0.068741	-0.000004
 231	2.2885e+01	2.2878	-12.095259	0.001258	12.579232	2.130980	0.000126
 232	2.2985e+01	2.2973	-12.042776	0.000528	5.275162	0.893637	0.000053
 233	2.3084e+01	2.3076	-11.974145	0.000690	6.898288	1.168602	0.000069
 234	2.3183e+01	2.3181	-11.990293	-0.000162	-1.623127	-0.274965	-0.000016
 235	2.3283e+01	2.3273	-11.893402	0.000974	9.738760	1.649791	0.000097
 236	2.3383e+01	2.3378	-11.857068	0.000365	3.652035	0.618671	0.000037
 237	2.3482e+01	2.3471	-11.788436	0.000690	6.898288	1.168602	0.000069
 238	2.3581e+01	2.3574	-11.768251	0.000203	2.028908	0.343706	0.000020
 239	2.3681e+01	2.3668	-11.691545	0.000771	7.709852	1.306084	0.000077
 240	2.3780e+01	2.3775	-11.667322	0.000243	2.434690	0.412448	0.000024
 241	2.3880e+01	2.3880	-11.614840	0.000528	5.275162	0.893637	0.000053
 242	2.3980e+01	2.3977	-11.513911	0.001014	10.144542	1.718532	0.000101
 243	2.4079e+01	2.4068	-11.485651	0.000284	2.840472	0.481189	0.000028
 244	2.4178e+01	2.4172	-11.412983	0.000730	7.304070	1.237343	0.000073
 245	2.4278e+01	2.4270	-11.356463	0.000568	5.680943	0.962378	0.000057
 246	2.4378e+01	2.4375	-11.336277	0.000203	2.028908	0.343706	0.000020
 247	2.4477e+01	2.4471	-11.303980	0.000325	3.246253	0.549930	0.000032
 248	2.4576e+01	2.4570	-11.203052	0.001014	10.144542	1.718532	0.000101
 249	2.4676e+01	2.4669	-11.170755	0.000325	3.246253	0.549930	0.000032
 250	2.4776e+01	2.4772	-11.142495	0.000284	2.840472	0.481189	0.000028
 251	2.4875e+01	2.4874	-11.057715	0.000852	8.521415	1.443567	0.000085
 252	2.4974e+01	2.4967	-11.009269	0.000487	4.869380	0.824895	0.000049
 253	2.5074e+01	2.5062	-10.989083	0.000203	2.028908	0.343706	0.000020
 254	2.5174e+01	2.5159	-10.960824	0.000284	2.840472	0.481189	0.000028
 255	2.5273e+01	2.5265	-10.843747	0.001177	11.767669	1.993497	0.000118
 256	2.5372e+01	2.5363	-10.819524	0.000243	2.434690	0.412448	0.000024
 257	2.5472e+01	2.5453	-10.746855	0.000730	7.304070	1.237343	0.000073
 258	2.5572e+01	2.5566	-10.730707	0.000162	1.623127	0.274965	0.000016
 259	2.5671e+01	2.5658	-10.649964	0.000812	8.115634	1.374826	0.000081
 260	2.5770e+01	2.5753	-10.601518	0.000487	4.869380	0.824895	0.000049
 261	2.5870e+01	2.5863	-10.536924	0.000649	6.492507	1.099860	0.000065
 262	2.5970e+01	2.5948	-10.492516	0.000446	4.463598	0.756154	0.000045
 263	2.6069e+01	2.6054	-10.504627	-0.000122	-1.217345	-0.206224	-0.000012
 264	2.6169e+01	2.6156	-10.375439	0.001299	12.985014	2.199721	0.000130
 265	2.6268e+01	2.6274	-10.367365	0.000081	0.811563	0.137483	0.000008
 266	2.6367e+01	2.6360	-10.322956	0.000446	4.463598	0.756154	0.000045
 267	2.6467e+01	2.6456	-10.230102	0.000933	9.332979	1.581049	0.000093
 268	2.6567e+01	2.6562	-10.169545	0.000609	6.086725	1.031119	0.000061
 269	2.6666e+01	2.6662	-10.153396	0.000162	1.623127	0.274965	0.000016
 270	2.6765e+01	2.6751	-10.096876	0.000568	5.680943	0.962378	0.000057
 271	2.6865e+01	2.6858	-10.040357	0.000568	5.680943	0.962378	0.000057
 272	2.6965e+01	2.6962	-9.991911	0.000487	4.869380	0.824895	0.000049
 273	2.7064e+01	2.7060	-9.943465	0.000487	4.869380	0.824895	0.000049
 274	2.7163e+01	2.7146	-9.903094	0.000406	4.057817	0.687413	0.000041
 275	2.7263e+01	2.7262	-9.882908	0.000203	2.028908	0.343706	0.000020
 276	2.7363e+01	2.7361	-9.790054	0.000933	9.332979	1.581049	0.000093
 277	2.7462e+01	2.7451	-9.737571	0.000528	5.275162	0.893637	0.000053
 278	2.7561e+01	2.7555	-9.701237	0.000365	3.652035	0.618671	0.000037
 279	2.7661e+01	2.7654	-9.636643	0.000649	6.492507	1.099860	0.000065
 280	2.7761e+01	2.7749	-9.620494	0.000162	1.623127	0.274965	0.000016
 281	2.7860e+01	2.7851	-9.531677	0.000893	8.927197	1.512308	0.000089
 282	2.7959e+01	2.7953	-9.531677	0.000000	0.000000	0.000000	0.000000
 283	2.8059e+01	2.8055	-9.422675	0.001096	10.956105	1.856014	0.000110
 284	2.8159e+01	2.8145	-9.370192	0.000528	5.275162	0.893637	0.000053
 285	2.8258e+01	2.8252	-9.329821	0.000406	4.057817	0.687413	0.000041
 286	2.8358e+01	2.8347	-9.301561	0.000284	2.840472	0.481189	0.000028
 287	2.8457e+01	2.8452	-9.253115	0.000487	4.869380	0.824895	0.000049
 288	2.8556e+01	2.8551	-9.184484	0.000690	6.898288	1.168602	0.000069
 289	2.8656e+01	2.8649	-9.136038	0.000487	4.869380	0.824895	0.000049
 290	2.8756e+01	2.8748	-9.107778	0.000284	2.840472	0.481189	0.000028
 291	2.8855e+01	2.8854	-9.035110	0.000730	7.304070	1.237343	0.000073
 292	2.8954e+01	2.8939	-9.002813	0.000325	3.246253	0.549930	0.000032
 293	2.9054e+01	2.9046	-8.958404	0.000446	4.463598	0.756154	0.000045
 294	2.9154e+01	2.9139	-8.889773	0.000690	6.898288	1.168602	0.000069
 295	2.9253e+01	2.9237	-8.821142	0.000690	6.898288	1.168602	0.000069
 296	2.9352e+01	2.9356	-8.788845	0.000325	3.246253	0.549930	0.000032
 297	2.9452e+01	2.9435	-8.732325	0.000568	5.680943	0.962378	0.000057
 298	2.9552e+01	2.9548	-8.667730	0.000649	6.492507	1.099860	0.000065
 299	2.9651e+01	2.9644	-8.635433	0.000325	3.246253	0.549930	0.000032
 300	2.9750e+01	2.9739	-8.542579	0.000933	9.332979	1.581049	0.000093
 301	2.9850e+01	2.9846	-8.558728	-0.000162	-1.623127	-0.274965	-0.000016
 302	2.9950e+01	2.9936	-8.494134	0.000649	6.492507	1.099860	0.000065
 303	3.0049e+01	3.0042	-8.457799	0.000365	3.652035	0.618671	0.000037
 304	3.0148e+01	3.0143	-8.348797	0.001096	10.956105	1.856014	0.000110
 305	3.0248e+01	3.0237	-8.336685	0.000122	1.217345	0.206224	0.000012
 306	3.0348e+01	3.0337	-8.324574	0.000122	1.217345	0.206224	0.000012
 307	3.0447e+01	3.0446	-8.235757	0.000893	8.927197	1.512308	0.000089
 308	3.0547e+01	3.0543	-8.199423	0.000365	3.652035	0.618671	0.000037
 309	3.0646e+01	3.0638	-8.118680	0.000812	8.115634	1.374826	0.000081
 310	3.0745e+01	3.0739	-8.070234	0.000487	4.869380	0.824895	0.000049
 311	3.0845e+01	3.0840	-8.013714	0.000568	5.680943	0.962378	0.000057
 312	3.0945e+01	3.0929	-7.932972	0.000812	8.115634	1.374826	0.000081
 313	3.1044e+01	3.1039	-7.924897	0.000081	0.811563	0.137483	0.000008
 314	3.1143e+01	3.1147	-7.880489	0.000446	4.463598	0.756154	0.000045
 315	3.1243e+01	3.1249	-7.832043	0.000487	4.869380	0.824895	0.000049
 316	3.1343e+01	3.1335	-7.787635	0.000446	4.463598	0.756154	0.000045
 317	3.1442e+01	3.1438	-7.731115	0.000568	5.680943	0.962378	0.000057
 318	3.1541e+01	3.1535	-7.727078	0.000041	0.405782	0.068741	0.000004
 319	3.1641e+01	3.1631	-7.662484	0.000649	6.492507	1.099860	0.000065
 320	3.1741e+01	3.1736	-7.561555	0.001014	10.144542	1.718532	0.000101
 321	3.1840e+01	3.1832	-7.517147	0.000446	4.463598	0.756154	0.000045
 322	3.1939e+01	3.1924	-7.476775	0.000406	4.057817	0.687413	0.000041
 323	3.2039e+01	3.2031	-7.460627	0.000162	1.623127	0.274965	0.000016
 324	3.2139e+01	3.2137	-7.396033	0.000649	6.492507	1.099860	0.000065
 325	3.2238e+01	3.2220	-7.371810	0.000243	2.434690	0.412448	0.000024
 326	3.2337e+01	3.2336	-7.307216	0.000649	6.492507	1.099860	0.000065
 327	3.2437e+01	3.2428	-7.238584	0.000690	6.898288	1.168602	0.000069
 328	3.2536e+01	3.2534	-7.226473	0.000122	1.217345	0.206224	0.000012
 329	3.2636e+01	3.2629	-7.141693	0.000852	8.521415	1.443567	0.000085
 330	3.2736e+01	3.2726	-7.109396	0.000325	3.246253	0.549930	0.000032
 331	3.2835e+01	3.2834	-7.028653	0.000812	8.115634	1.374826	0.000081
 332	3.2934e+01	3.2924	-7.032690	-0.000041	-0.405782	-0.068741	-0.000004
 333	3.3034e+01	3.3030	-6.968096	0.000649	6.492507	1.099860	0.000065
 334	3.3133e+01	3.3121	-6.915614	0.000528	5.275162	0.893637	0.000053
 335	3.3233e+01	3.3231	-6.859094	0.000568	5.680943	0.962378	0.000057
 336	3.3333e+01	3.3323	-6.838908	0.000203	2.028908	0.343706	0.000020
 337	3.3432e+01	3.3428	-6.762202	0.000771	7.709852	1.306084	0.000077
 338	3.3532e+01	3.3521	-6.721831	0.000406	4.057817	0.687413	0.000041
 339	3.3631e+01	3.3620	-6.669348	0.000528	5.275162	0.893637	0.000053
 340	3.3730e+01	3.3727	-6.584568	0.000852	8.521415	1.443567	0.000085
 341	3.3830e+01	3.3829	-6.588606	-0.000041	-0.405782	-0.068741	-0.000004
 342	3.3929e+01	3.3923	-6.524011	0.000649	6.492507	1.099860	0.000065
 343	3.4029e+01	3.4026	-6.483640	0.000406	4.057817	0.687413	0.000041
 344	3.4129e+01	3.4127	-6.443269	0.000406	4.057817	0.687413	0.000041
 345	3.4228e+01	3.4220	-6.386749	0.000568	5.680943	0.962378	0.000057
 346	3.4328e+01	3.4320	-6.297932	0.000893	8.927197	1.512308	0.000089
 347	3.4427e+01	3.4420	-6.289857	0.000081	0.811563	0.137483	0.000008
 348	3.4526e+01	3.4525	-6.241412	0.000487	4.869380	0.824895	0.000049
 349	3.4626e+01	3.4603	-6.201040	0.000406	4.057817	0.687413	0.000041
 350	3.4725e+01	3.4722	-6.148558	0.000528	5.275162	0.893637	0.000053
 351	3.4825e+01	3.4819	-6.075889	0.000730	7.304070	1.237343	0.000073
 352	3.4925e+01	3.4927	-6.023407	0.000528	5.275162	0.893637	0.000053
 353	3.5024e+01	3.5029	-6.007258	0.000162	1.623127	0.274965	0.000016
 354	3.5123e+01	3.5118	-5.978998	0.000284	2.840472	0.481189	0.000028
 355	3.5223e+01	3.5223	-5.898255	0.000812	8.115634	1.374826	0.000081
 356	3.5322e+01	3.5308	-5.874032	0.000243	2.434690	0.412448	0.000024
 357	3.5422e+01	3.5406	-5.809438	0.000649	6.492507	1.099860	0.000065
 358	3.5522e+01	3.5511	-5.785216	0.000243	2.434690	0.412448	0.000024
 359	3.5621e+01	3.5613	-5.712547	0.000730	7.304070	1.237343	0.000073
 360	3.5721e+01	3.5716	-5.664101	0.000487	4.869380	0.824895	0.000049
 361	3.5820e+01	3.5814	-5.611619	0.000528	5.275162	0.893637	0.000053
 362	3.5919e+01	3.5916	-5.547025	0.000649	6.492507	1.099860	0.000065
 363	3.6019e+01	3.6015	-5.534913	0.000122	1.217345	0.206224	0.000012
 364	3.6118e+01	3.6119	-5.498579	0.000365	3.652035	0.618671	0.000037
 365	3.6218e+01	3.6213	-5.446096	0.000528	5.275162	0.893637	0.000053
 366	3.6318e+01	3.6316	-5.381502	0.000649	6.492507	1.099860	0.000065
 367	3.6417e+01	3.6409	-5.324982	0.000568	5.680943	0.962378	0.000057
 368	3.6517e+01	3.6521	-5.292685	0.000325	3.246253	0.549930	0.000032
 369	3.6616e+01	3.6612	-5.256351	0.000365	3.652035	0.618671	0.000037
 370	3.6715e+01	3.6716	-5.183682	0.000730	7.304070	1.237343	0.000073
 371	3.6815e+01	3.6810	-5.151385	0.000325	3.246253	0.549930	0.000032
 372	3.6914e+01	3.6909	-5.106977	0.000446	4.463598	0.756154	0.000045
 373	3.7014e+01	3.7004	-5.042383	0.000649	6.492507	1.099860	0.000065
 374	3.7114e+01	3.7115	-5.002011	0.000406	4.057817	0.687413	0.000041
 375	3.7213e+01	3.7206	-4.953566	0.000487	4.869380	0.824895	0.000049
 376	3.7313e+01	3.7311	-4.945491	0.000081	0.811563	0.137483	0.000008
 377	3.7412e+01	3.7399	-4.872823	0.000730	7.304070	1.237343	0.000073
 378	3.7511e+01	3.7509	-4.816303	0.000568	5.680943	0.962378	0.000057
 379	3.7611e+01	3.7605	-4.779969	0.000365	3.652035	0.618671	0.000037
 380	3.7711e+01	3.7698	-4.747672	0.000325	3.246253	0.549930	0.000032
 381	3.7810e+01	3.7804	-4.675003	0.000730	7.304070	1.237343	0.000073
 382	3.7910e+01	3.7899	-4.662892	0.000122	1.217345	0.206224	0.000012
 383	3.8009e+01	3.8009	-4.610409	0.000528	5.275162	0.893637	0.000053
 384	3.8108e+01	3.8101	-4.598298	0.000122	1.217345	0.206224	0.000012
 385	3.8208e+01	3.8203	-4.489295	0.001096	10.956105	1.856014	0.000110
 386	3.8307e+01	3.8305	-4.481221	0.000081	0.811563	0.137483	0.000008
 387	3.8407e+01	3.8396	-4.416626	0.000649	6.492507	1.099860	0.000065
 388	3.8507e+01	3.8494	-4.352032	0.000649	6.492507	1.099860	0.000065
 389	3.8606e+01	3.8596	-4.307624	0.000446	4.463598	0.756154	0.000045
 390	3.8706e+01	3.8696	-4.271290	0.000365	3.652035	0.618671	0.000037
 391	3.8805e+01	3.8795	-4.238993	0.000325	3.246253	0.549930	0.000032
 392	3.8904e+01	3.8900	-4.218807	0.000203	2.028908	0.343706	0.000020
 393	3.9004e+01	3.8998	-4.101730	0.001177	11.767669	1.993497	0.000118
 394	3.9103e+01	3.9090	-4.109804	-0.000081	-0.811563	-0.137483	-0.000008
 395	3.9203e+01	3.9198	-4.033099	0.000771	7.709852	1.306084	0.000077
 396	3.9303e+01	3.9290	-3.988690	0.000446	4.463598	0.756154	0.000045
 397	3.9402e+01	3.9394	-3.968504	0.000203	2.028908	0.343706	0.000020
 398	3.9502e+01	3.9497	-3.944282	0.000243	2.434690	0.412448	0.000024
 399	3.9601e+01	3.9594	-3.883725	0.000609	6.086725	1.031119	0.000061
 400	3.9700e+01	3.9693	-3.831242	0.000528	5.275162	0.893637	0.000053
 401	3.9800e+01	3.9789	-3.778759	0.000528	5.275162	0.893637	0.000053
 402	3.9900e+01	3.9892	-3.710128	0.000690	6.898288	1.168602	0.000069
 403	3.9999e+01	3.9989	-3.693979	0.000162	1.623127	0.274965	0.000016
 404	4.0099e+01	4.0087	-3.657645	0.000365	3.652035	0.618671	0.000037
 405	4.0198e+01	4.0191	-3.601125	0.000568	5.680943	0.962378	0.000057
 406	4.0297e+01	4.0292	-3.556717	0.000446	4.463598	0.756154	0.000045
 407	4.0397e+01	4.0391	-3.504234	0.000528	5.275162	0.893637	0.000053
 408	4.0496e+01	4.0487	-3.480011	0.000243	2.434690	0.412448	0.000024
 409	4.0596e+01	4.0586	-3.415417	0.000649	6.492507	1.099860	0.000065
 410	4.0696e+01	4.0682	-3.346786	0.000690	6.898288	1.168602	0.000069
 411	4.0795e+01	4.0788	-3.371008	-0.000243	-2.434690	-0.412448	-0.000024
 412	4.0895e+01	4.0884	-3.314488	0.000568	5.680943	0.962378	0.000057
 413	4.0994e+01	4.0987	-3.266043	0.000487	4.869380	0.824895	0.000049
 414	4.1093e+01	4.1076	-3.205486	0.000609	6.086725	1.031119	0.000061
 415	4.1193e+01	4.1177	-3.140892	0.000649	6.492507	1.099860	0.000065
 416	4.1292e+01	4.1293	-3.072260	0.000690	6.898288	1.168602	0.000069
 417	4.1392e+01	4.1385	-3.068223	0.000041	0.405782	0.068741	0.000004
 418	4.1492e+01	4.1482	-2.999592	0.000690	6.898288	1.168602	0.000069
 419	4.1591e+01	4.1593	-2.991518	0.000081	0.811563	0.137483	0.000008
 420	4.1691e+01	4.1671	-2.918849	0.000730	7.304070	1.237343	0.000073
 421	4.1790e+01	4.1779	-2.922886	-0.000041	-0.405782	-0.068741	-0.000004
 422	4.1889e+01	4.1882	-2.842144	0.000812	8.115634	1.374826	0.000081
 423	4.1989e+01	4.1985	-2.805809	0.000365	3.652035	0.618671	0.000037
 424	4.2089e+01	4.2085	-2.733141	0.000730	7.304070	1.237343	0.000073
 425	4.2188e+01	4.2178	-2.721029	0.000122	1.217345	0.206224	0.000012
 426	4.2288e+01	4.2282	-2.680658	0.000406	4.057817	0.687413	0.000041
 427	4.2387e+01	4.2376	-2.607990	0.000730	7.304070	1.237343	0.000073
 428	4.2486e+01	4.2488	-2.555507	0.000528	5.275162	0.893637	0.000053
 429	4.2586e+01	4.2576	-2.515136	0.000406	4.057817	0.687413	0.000041
 430	4.2685e+01	4.2681	-2.515136	0.000000	0.000000	0.000000	0.000000
 431	4.2785e+01	4.2772	-2.450541	0.000649	6.492507	1.099860	0.000065
 432	4.2885e+01	4.2870	-2.389984	0.000609	6.086725	1.031119	0.000061
 433	4.2984e+01	4.2962	-2.369799	0.000203	2.028908	0.343706	0.000020
 434	4.3084e+01	4.3082	-2.280982	0.000893	8.927197	1.512308	0.000089
 435	4.3183e+01	4.3177	-2.276945	0.000041	0.405782	0.068741	0.000004
 436	4.3282e+01	4.3274	-2.240610	0.000365	3.652035	0.618671	0.000037
 437	4.3382e+01	4.3372	-2.171979	0.000690	6.898288	1.168602	0.000069
 438	4.3481e+01	4.3475	-2.135645	0.000365	3.652035	0.618671	0.000037
 439	4.3581e+01	4.3572	-2.099311	0.000365	3.652035	0.618671	0.000037
 440	4.3681e+01	4.3676	-2.038754	0.000609	6.086725	1.031119	0.000061
 441	4.3780e+01	4.3777	-2.014531	0.000243	2.434690	0.412448	0.000024
 442	4.3880e+01	4.3867	-1.953974	0.000609	6.086725	1.031119	0.000061
 443	4.3979e+01	4.3974	-1.917639	0.000365	3.652035	0.618671	0.000037
 444	4.4078e+01	4.4067	-1.849008	0.000690	6.898288	1.168602	0.000069
 445	4.4178e+01	4.4170	-1.832860	0.000162	1.623127	0.274965	0.000016
 446	4.4278e+01	4.4262	-1.820748	0.000122	1.217345	0.206224	0.000012
 447	4.4377e+01	4.4369	-1.723857	0.000974	9.738760	1.649791	0.000097
 448	4.4477e+01	4.4469	-1.731931	-0.000081	-0.811563	-0.137483	-0.000008
 449	4.4576e+01	4.4560	-1.651189	0.000812	8.115634	1.374826	0.000081
 450	4.4675e+01	4.4667	-1.626966	0.000243	2.434690	0.412448	0.000024
 451	4.4775e+01	4.4773	-1.562372	0.000649	6.492507	1.099860	0.000065
 452	4.4874e+01	4.4871	-1.554297	0.000081	0.811563	0.137483	0.000008
 453	4.4974e+01	4.4966	-1.497777	0.000568	5.680943	0.962378	0.000057
 454	4.5074e+01	4.5068	-1.433183	0.000649	6.492507	1.099860	0.000065
 455	4.5173e+01	4.5174	-1.388775	0.000446	4.463598	0.756154	0.000045
 456	4.5273e+01	4.5267	-1.328218	0.000609	6.086725	1.031119	0.000061
 457	4.5372e+01	4.5373	-1.299958	0.000284	2.840472	0.481189	0.000028
 458	4.5471e+01	4.5457	-1.271698	0.000284	2.840472	0.481189	0.000028
 459	4.5571e+01	4.5567	-1.243438	0.000284	2.840472	0.481189	0.000028
 460	4.5670e+01	4.5663	-1.186918	0.000568	5.680943	0.962378	0.000057
 461	4.5770e+01	4.5757	-1.130398	0.000568	5.680943	0.962378	0.000057
 462	4.5870e+01	4.5863	-1.102138	0.000284	2.840472	0.481189	0.000028
 463	4.5969e+01	4.5969	-1.041581	0.000609	6.086725	1.031119	0.000061
 464	4.6069e+01	4.6063	-1.001210	0.000406	4.057817	0.687413	0.000041
 465	4.6168e+01	4.6164	-0.972950	0.000284	2.840472	0.481189	0.000028
 466	4.6267e+01	4.6267	-0.904318	0.000690	6.898288	1.168602	0.000069
 467	4.6367e+01	4.6362	-0.859910	0.000446	4.463598	0.756154	0.000045
 468	4.6467e+01	4.6460	-0.795316	0.000649	6.492507	1.099860	0.000065
 469	4.6566e+01	4.6563	-0.799353	-0.000041	-0.405782	-0.068741	-0.000004
 470	4.6666e+01	4.6664	-0.742833	0.000568	5.680943	0.962378	0.000057
 471	4.6765e+01	4.6764	-0.710536	0.000325	3.246253	0.549930	0.000032
 472	4.6864e+01	4.6861	-0.682276	0.000284	2.840472	0.481189	0.000028
 473	4.6964e+01	4.6957	-0.617682	0.000649	6.492507	1.099860	0.000065
 474	4.7063e+01	4.7063	-0.593459	0.000243	2.434690	0.412448	0.000024
 475	4.7163e+01	4.7161	-0.496568	0.000974	9.738760	1.649791	0.000097
 476	4.7263e+01	4.7247	-0.496568	0.000000	0.000000	0.000000	0.000000
 477	4.7362e+01	4.7352	-0.456196	0.000406	4.057817	0.687413	0.000041
 478	4.7462e+01	4.7463	-0.399676	0.000568	5.680943	0.962378	0.000057
 479	4.7561e+01	4.7552	-0.355268	0.000446	4.463598	0.756154	0.000045
 480	4.7660e+01	4.7645	-0.314897	0.000406	4.057817	0.687413	0.000041
 481	4.7760e+01	4.7762	-0.306822	0.000081	0.811563	0.137483	0.000008
 482	4.7859e+01	4.7858	-0.218005	0.000893	8.927197	1.512308	0.000089
 483	4.7959e+01	4.7955	-0.185708	0.000325	3.246253	0.549930	0.000032
 484	4.8059e+01	4.8052	-0.117077	0.000690	6.898288	1.168602	0.000069
 485	4.8158e+01	4.8150	-0.084780	0.000325	3.246253	0.549930	0.000032
 486	4.8258e+01	4.8255	-0.052483	0.000325	3.246253	0.549930	0.000032
 487	4.8357e+01	4.8349	-0.024223	0.000284	2.840472	0.481189	0.000028
 488	4.8456e+01	4.8453	-0.008074	0.000162	1.623127	0.274965	0.000016
 489	4.8556e+01	4.8550	0.080743	0.000893	8.927197	1.512308	0.000089
 490	4.8656e+01	4.8653	0.113040	0.000325	3.246253	0.549930	0.000032
 491	4.8755e+01	4.8751	0.165523	0.000528	5.275162	0.893637	0.000053
 492	4.8855e+01	4.8849	0.197820	0.000325	3.246253	0.549930	0.000032
 493	4.8954e+01	4.8947	0.230117	0.000325	3.246253	0.549930	0.000032
 494	4.9053e+01	4.9049	0.298748	0.000690	6.898288	1.168602	0.000069
 495	4.9153e+01	4.9155	0.327008	0.000284	2.840472	0.481189	0.000028
 496	4.9252e+01	4.9243	0.343157	0.000162	1.623127	0.274965	0.000016
 497	4.9352e+01	4.9349	0.383528	0.000406	4.057817	0.687413	0.000041
 498	4.9452e+01	4.9447	0.456196	0.000730	7.304070	1.237343	0.000073
 499	4.9551e+01	4.9551	0.480419	0.000243	2.434690	0.412448	0.000024
 500	4.9651e+01	4.9645	0.528865	0.000487	4.869380	0.824895	0.000049
 501	4.9750e+01	4.9741	0.565199	0.000365	3.652035	0.618671	0.000037
 502	4.9849e+01	4.9841	0.645942	0.000812	8.115634	1.374826	0.000081
 503	4.9949e+01	4.9949	0.649979	0.000041	0.405782	0.068741	0.000004
 504	5.0048e+01	5.0043	0.698424	0.000487	4.869380	0.824895	0.000049
 505	5.0148e+01	5.0139	0.750907	0.000528	5.275162	0.893637	0.000053
 506	5.0248e+01	5.0245	0.779167	0.000284	2.840472	0.481189	0.000028
 507	5.0347e+01	5.0349	0.863947	0.000852	8.521415	1.443567	0.000085
 508	5.0447e+01	5.0436	0.880096	0.000162	1.623127	0.274965	0.000016
 509	5.0546e+01	5.0535	0.940653	0.000609	6.086725	1.031119	0.000061
 510	5.0645e+01	5.0642	0.932578	-0.000081	-0.811563	-0.137483	-0.000008
 511	5.0745e+01	5.0733	1.009284	0.000771	7.709852	1.306084	0.000077
 512	5.0844e+01	5.0835	1.041581	0.000325	3.246253	0.549930	0.000032
 513	5.0944e+01	5.0948	1.090027	0.000487	4.869380	0.824895	0.000049
 514	5.1044e+01	5.1032	1.130398	0.000406	4.057817	0.687413	0.000041
 515	5.1143e+01	5.1138	1.118287	-0.000122	-1.217345	-0.206224	-0.000012
 516	5.1242e+01	5.1238	1.203066	0.000852	8.521415	1.443567	0.000085
 517	5.1342e+01	5.1308	1.227289	0.000243	2.434690	0.412448	0.000024
 518	5.1441e+01	5.1437	1.255549	0.000284	2.840472	0.481189	0.000028
 519	5.1541e+01	5.1531	1.336292	0.000812	8.115634	1.374826	0.000081
 520	5.1641e+01	5.1640	1.352440	0.000162	1.623127	0.274965	0.000016
 521	5.1740e+01	5.1735	1.412998	0.000609	6.086725	1.031119	0.000061
 522	5.1840e+01	5.1827	1.429146	0.000162	1.623127	0.274965	0.000016
 523	5.1939e+01	5.1933	1.505852	0.000771	7.709852	1.306084	0.000077
 524	5.2038e+01	5.2029	1.526037	0.000203	2.028908	0.343706	0.000020
 525	5.2138e+01	5.2125	1.578520	0.000528	5.275162	0.893637	0.000053
 526	5.2237e+01	5.2232	1.602743	0.000243	2.434690	0.412448	0.000024
 527	5.2337e+01	5.2329	1.667337	0.000649	6.492507	1.099860	0.000065
 528	5.2437e+01	5.2430	1.679448	0.000122	1.217345	0.206224	0.000012
 529	5.2536e+01	5.2527	1.740006	0.000609	6.086725	1.031119	0.000061
 530	5.2636e+01	5.2628	1.800563	0.000609	6.086725	1.031119	0.000061
 531	5.2735e+01	5.2731	1.828822	0.000284	2.840472	0.481189	0.000028
 532	5.2834e+01	5.2826	1.869194	0.000406	4.057817	0.687413	0.000041
 533	5.2934e+01	5.2923	1.941862	0.000730	7.304070	1.237343	0.000073
 534	5.3033e+01	5.3039	1.978197	0.000365	3.652035	0.618671	0.000037
 535	5.3133e+01	5.3118	2.002419	0.000243	2.434690	0.412448	0.000024
 536	5.3233e+01	5.3216	2.042791	0.000406	4.057817	0.687413	0.000041
 537	5.3332e+01	5.3333	2.050865	0.000081	0.811563	0.137483	0.000008
 538	5.3431e+01	5.3425	2.091236	0.000406	4.057817	0.687413	0.000041
 539	5.3531e+01	5.3522	2.135645	0.000446	4.463598	0.756154	0.000045
 540	5.3630e+01	5.3625	2.180053	0.000446	4.463598	0.756154	0.000045
 541	5.3730e+01	5.3728	2.216388	0.000365	3.652035	0.618671	0.000037
 542	5.3830e+01	5.3828	2.248685	0.000325	3.246253	0.549930	0.000032
 543	5.3929e+01	5.3925	2.325390	0.000771	7.709852	1.306084	0.000077
 544	5.4029e+01	5.4021	2.317316	-0.000081	-0.811563	-0.137483	-0.000008
 545	5.4128e+01	5.4131	2.402096	0.000852	8.521415	1.443567	0.000085
 546	5.4227e+01	5.4222	2.434393	0.000325	3.246253	0.549930	0.000032
 547	5.4327e+01	5.4327	2.450541	0.000162	1.623127	0.274965	0.000016
 548	5.4426e+01	5.4422	2.511098	0.000609	6.086725	1.031119	0.000061
 549	5.4526e+01	5.4519	2.559544	0.000487	4.869380	0.824895	0.000049
 550	5.4626e+01	5.4606	2.583767	0.000243	2.434690	0.412448	0.000024
 551	5.4725e+01	5.4714	2.616064	0.000325	3.246253	0.549930	0.000032
 552	5.4825e+01	5.4816	2.668547	0.000528	5.275162	0.893637	0.000053
 553	5.4924e+01	5.4934	2.716992	0.000487	4.869380	0.824895	0.000049
 554	5.5023e+01	5.5016	2.733141	0.000162	1.623127	0.274965	0.000016
 555	5.5123e+01	5.5117	2.789661	0.000568	5.680943	0.962378	0.000057
 556	5.5222e+01	5.5215	2.846181	0.000568	5.680943	0.962378	0.000057
 557	5.5322e+01	5.5309	2.866366	0.000203	2.028908	0.343706	0.000020
 558	5.5422e+01	5.5410	2.918849	0.000528	5.275162	0.893637	0.000053
 559	5.5521e+01	5.5514	2.939035	0.000203	2.028908	0.343706	0.000020
 560	5.5620e+01	5.5615	2.991518	0.000528	5.275162	0.893637	0.000053
 561	5.5720e+01	5.5726	3.035926	0.000446	4.463598	0.756154	0.000045
 562	5.5819e+01	5.5813	3.068223	0.000325	3.246253	0.549930	0.000032
 563	5.5919e+01	5.5906	3.116669	0.000487	4.869380	0.824895	0.000049
 564	5.6019e+01	5.6011	3.148966	0.000325	3.246253	0.549930	0.000032
 565	5.6118e+01	5.6109	3.181263	0.000325	3.246253	0.549930	0.000032
 566	5.6218e+01	5.6206	3.221634	0.000406	4.057817	0.687413	0.000041
 567	5.6317e+01	5.6318	3.262006	0.000406	4.057817	0.687413	0.000041
 568	5.6416e+01	5.6409	3.302377	0.000406	4.057817	0.687413	0.000041
 569	5.6516e+01	5.6517	3.354860	0.000528	5.275162	0.893637	0.000053
 570	5.6615e+01	5.6605	3.403305	0.000487	4.869380	0.824895	0.000049
 571	5.6715e+01	5.6705	3.431565	0.000284	2.840472	0.481189	0.000028
 572	5.6815e+01	5.6813	3.459825	0.000284	2.840472	0.481189	0.000028
 573	5.6914e+01	5.6910	3.488085	0.000284	2.840472	0.481189	0.000028
 574	5.7014e+01	5.7003	3.564791	0.000771	7.709852	1.306084	0.000077
 575	5.7113e+01	5.7104	3.572865	0.000081	0.811563	0.137483	0.000008
 576	5.7212e+01	5.7212	3.617274	0.000446	4.463598	0.756154	0.000045
 577	5.7312e+01	5.7304	3.677831	0.000609	6.086725	1.031119	0.000061
 578	5.7411e+01	5.7409	3.689942	0.000122	1.217345	0.206224	0.000012
 579	5.7511e+01	5.7510	3.730313	0.000406	4.057817	0.687413	0.000041
 580	5.7611e+01	5.7604	3.778759	0.000487	4.869380	0.824895	0.000049
 581	5.7710e+01	5.7708	3.827205	0.000487	4.869380	0.824895	0.000049
 582	5.7809e+01	5.7800	3.867576	0.000406	4.057817	0.687413	0.000041
 583	5.7909e+01	5.7906	3.924096	0.000568	5.680943	0.962378	0.000057
 584	5.8008e+01	5.8002	3.948319	0.000243	2.434690	0.412448	0.000024
 585	5.8108e+01	5.8105	3.984653	0.000365	3.652035	0.618671	0.000037
 586	5.8208e+01	5.8204	4.029061	0.000446	4.463598	0.756154	0.000045
 587	5.8307e+01	5.8294	4.049247	0.000203	2.028908	0.343706	0.000020
 588	5.8407e+01	5.8399	4.069433	0.000203	2.028908	0.343706	0.000020
 589	5.8506e+01	5.8498	4.158250	0.000893	8.927197	1.512308	0.000089
 590	5.8605e+01	5.8595	4.202658	0.000446	4.463598	0.756154	0.000045
 591	5.8705e+01	5.8700	4.198621	-0.000041	-0.405782	-0.068741	-0.000004
 592	5.8804e+01	5.8799	4.243030	0.000446	4.463598	0.756154	0.000045
 593	5.8904e+01	5.8907	4.295512	0.000528	5.275162	0.893637	0.000053
 594	5.9004e+01	5.8993	4.331847	0.000365	3.652035	0.618671	0.000037
 595	5.9103e+01	5.9104	4.364144	0.000325	3.246253	0.549930	0.000032
 596	5.9203e+01	5.9191	4.408552	0.000446	4.463598	0.756154	0.000045
 597	5.9302e+01	5.9293	4.412589	0.000041	0.405782	0.068741	0.000004
 598	5.9401e+01	5.9393	4.505443	0.000933	9.332979	1.581049	0.000093
 599	5.9501e+01	5.9499	4.513518	0.000081	0.811563	0.137483	0.000008
 600	5.9600e+01	5.9590	4.545815	0.000325	3.246253	0.549930	0.000032
 601	5.9700e+01	5.9698	4.618483	0.000730	7.304070	1.237343	0.000073
 602	5.9800e+01	5.9794	4.622520	0.000041	0.405782	0.068741	0.000004
 603	5.9899e+01	5.9887	4.679040	0.000568	5.680943	0.962378	0.000057
 604	5.9998e+01	5.9992	4.751709	0.000730	7.304070	1.237343	0.000073
 605	6.0098e+01	6.0092	4.755746	0.000041	0.405782	0.068741	0.000004
 606	6.0197e+01	6.0189	4.808229	0.000528	5.275162	0.893637	0.000053
 607	6.0297e+01	6.0291	4.828414	0.000203	2.028908	0.343706	0.000020
 608	6.0397e+01	6.0394	4.880897	0.000528	5.275162	0.893637	0.000053
 609	6.0496e+01	6.0489	4.933380	0.000528	5.275162	0.893637	0.000053
 610	6.0596e+01	6.0590	4.949528	0.000162	1.623127	0.274965	0.000016
 611	6.0695e+01	6.0694	4.977788	0.000284	2.840472	0.481189	0.000028
 612	6.0794e+01	6.0787	5.030271	0.000528	5.275162	0.893637	0.000053
 613	6.0894e+01	6.0900	5.086791	0.000568	5.680943	0.962378	0.000057
 614	6.0993e+01	6.0980	5.143311	0.000568	5.680943	0.962378	0.000057
 615	6.1093e+01	6.1089	5.151385	0.000081	0.811563	0.137483	0.000008
 616	6.1193e+01	6.1189	5.191757	0.000406	4.057817	0.687413	0.000041
 617	6.1292e+01	6.1288	5.240202	0.000487	4.869380	0.824895	0.000049
 618	6.1392e+01	6.1382	5.280574	0.000406	4.057817	0.687413	0.000041
 619	6.1491e+01	6.1497	5.288648	0.000081	0.811563	0.137483	0.000008
 620	6.1590e+01	6.1581	5.345168	0.000568	5.680943	0.962378	0.000057
 621	6.1690e+01	6.1687	5.405725	0.000609	6.086725	1.031119	0.000061
 622	6.1789e+01	6.1784	5.417836	0.000122	1.217345	0.206224	0.000012
 623	6.1889e+01	6.1882	5.450133	0.000325	3.246253	0.549930	0.000032
 624	6.1989e+01	6.1982	5.498579	0.000487	4.869380	0.824895	0.000049
 625	6.2088e+01	6.2078	5.534913	0.000365	3.652035	0.618671	0.000037
 626	6.2188e+01	6.2182	5.551062	0.000162	1.623127	0.274965	0.000016
 627	6.2287e+01	6.2284	5.643916	0.000933	9.332979	1.581049	0.000093
 628	6.2386e+01	6.2378	5.668139	0.000243	2.434690	0.412448	0.000024
 629	6.2486e+01	6.2476	5.647953	-0.000203	-2.028908	-0.343706	-0.000020
 630	6.2586e+01	6.2569	5.744844	0.000974	9.738760	1.649791	0.000097
 631	6.2685e+01	6.2679	5.777141	0.000325	3.246253	0.549930	0.000032
 632	6.2785e+01	6.2781	5.801364	0.000243	2.434690	0.412448	0.000024
 633	6.2884e+01	6.2878	5.861921	0.000609	6.086725	1.031119	0.000061
 634	6.2983e+01	6.2978	5.910367	0.000487	4.869380	0.824895	0.000049
 635	6.3083e+01	6.3069	5.946701	0.000365	3.652035	0.618671	0.000037
 636	6.3182e+01	6.3172	5.987072	0.000406	4.057817	0.687413	0.000041
 637	6.3282e+01	6.3265	6.003221	0.000162	1.623127	0.274965	0.000016
 638	6.3382e+01	6.3369	6.007258	0.000041	0.405782	0.068741	0.000004
 639	6.3481e+01	6.3467	6.116261	0.001096	10.956105	1.856014	0.000110
 640	6.3581e+01	6.3573	6.132409	0.000162	1.623127	0.274965	0.000016
 641	6.3680e+01	6.3667	6.176818	0.000446	4.463598	0.756154	0.000045
 642	6.3779e+01	6.3776	6.213152	0.000365	3.652035	0.618671	0.000037
 643	6.3879e+01	6.3874	6.241412	0.000284	2.840472	0.481189	0.000028
 644	6.3978e+01	6.3969	6.273709	0.000325	3.246253	0.549930	0.000032
 645	6.4078e+01	6.4063	6.285820	0.000122	1.217345	0.206224	0.000012
 646	6.4177e+01	6.4160	6.374637	0.000893	8.927197	1.512308	0.000089
 647	6.4277e+01	6.4272	6.402897	0.000284	2.840472	0.481189	0.000028
 648	6.4376e+01	6.4358	6.451343	0.000487	4.869380	0.824895	0.000049
 649	6.4476e+01	6.4462	6.467491	0.000162	1.623127	0.274965	0.000016
 650	6.4576e+01	6.4565	6.479603	0.000122	1.217345	0.206224	0.000012
 651	6.4675e+01	6.4665	6.580531	0.001014	10.144542	1.718532	0.000101
 652	6.4775e+01	6.4764	6.600717	0.000203	2.028908	0.343706	0.000020
 653	6.4874e+01	6.4865	6.641088	0.000406	4.057817	0.687413	0.000041
 654	6.4974e+01	6.4957	6.681460	0.000406	4.057817	0.687413	0.000041
 655	6.5073e+01	6.5065	6.693571	0.000122	1.217345	0.206224	0.000012
 656	6.5172e+01	6.5154	6.733942	0.000406	4.057817	0.687413	0.000041
 657	6.5272e+01	6.5253	6.802574	0.000690	6.898288	1.168602	0.000069
 658	6.5371e+01	6.5360	6.814685	0.000122	1.217345	0.206224	0.000012
 659	6.5471e+01	6.5475	6.867168	0.000528	5.275162	0.893637	0.000053
 660	6.5570e+01	6.5559	6.879279	0.000122	1.217345	0.206224	0.000012
 661	6.5670e+01	6.5658	6.947911	0.000690	6.898288	1.168602	0.000069
 662	6.5769e+01	6.5763	6.951948	0.000041	0.405782	0.068741	0.000004
 663	6.5869e+01	6.5858	7.040765	0.000893	8.927197	1.512308	0.000089
 664	6.5969e+01	6.5954	7.044802	0.000041	0.405782	0.068741	0.000004
 665	6.6068e+01	6.6061	7.097285	0.000528	5.275162	0.893637	0.000053
 666	6.6168e+01	6.6152	7.129582	0.000325	3.246253	0.549930	0.000032
 667	6.6267e+01	6.6257	7.165916	0.000365	3.652035	0.618671	0.000037
 668	6.6367e+01	6.6362	7.173990	0.000081	0.811563	0.137483	0.000008
 669	6.6466e+01	6.6454	7.291067	0.001177	11.767669	1.993497	0.000118
 670	6.6566e+01	6.6553	7.278956	-0.000122	-1.217345	-0.206224	-0.000012
 671	6.6665e+01	6.6662	7.315290	0.000365	3.652035	0.618671	0.000037
 672	6.6764e+01	6.6754	7.371810	0.000568	5.680943	0.962378	0.000057
 673	6.6864e+01	6.6843	7.383921	0.000122	1.217345	0.206224	0.000012
 674	6.6963e+01	6.6962	7.420255	0.000365	3.652035	0.618671	0.000037
 675	6.7063e+01	6.7052	7.452553	0.000325	3.246253	0.549930	0.000032
 676	6.7162e+01	6.7156	7.521184	0.000690	6.898288	1.168602	0.000069
 677	6.7262e+01	6.7251	7.561555	0.000406	4.057817	0.687413	0.000041
 678	6.7362e+01	6.7347	7.618075	0.000568	5.680943	0.962378	0.000057
 679	6.7461e+01	6.7456	7.610001	-0.000081	-0.811563	-0.137483	-0.000008
 680	6.7561e+01	6.7541	7.698818	0.000893	8.927197	1.512308	0.000089
 681	6.7660e+01	6.7648	7.719004	0.000203	2.028908	0.343706	0.000020
 682	6.7760e+01	6.7753	7.783598	0.000649	6.492507	1.099860	0.000065
 683	6.7859e+01	6.7859	7.811858	0.000284	2.840472	0.481189	0.000028
 684	6.7959e+01	6.7956	7.811858	0.000000	0.000000	0.000000	0.000000
 685	6.8058e+01	6.8047	7.892600	0.000812	8.115634	1.374826	0.000081
 686	6.8157e+01	6.8148	7.916823	0.000243	2.434690	0.412448	0.000024
 687	6.8257e+01	6.8246	7.953157	0.000365	3.652035	0.618671	0.000037
 688	6.8356e+01	6.8345	7.973343	0.000203	2.028908	0.343706	0.000020
 689	6.8456e+01	6.8441	8.009677	0.000365	3.652035	0.618671	0.000037
 690	6.8555e+01	6.8531	8.078309	0.000690	6.898288	1.168602	0.000069
 691	6.8655e+01	6.8648	8.094457	0.000162	1.623127	0.274965	0.000016
 692	6.8754e+01	6.8746	8.163088	0.000690	6.898288	1.168602	0.000069
 693	6.8854e+01	6.8853	8.183274	0.000203	2.028908	0.343706	0.000020
 694	6.8954e+01	6.8941	8.231720	0.000487	4.869380	0.824895	0.000049
 695	6.9053e+01	6.9045	8.247868	0.000162	1.623127	0.274965	0.000016
 696	6.9153e+01	6.9144	8.284203	0.000365	3.652035	0.618671	0.000037
 697	6.9252e+01	6.9243	8.320537	0.000365	3.652035	0.618671	0.000037
 698	6.9352e+01	6.9361	8.364945	0.000446	4.463598	0.756154	0.000045
 699	6.9451e+01	6.9444	8.413391	0.000487	4.869380	0.824895	0.000049
 700	6.9550e+01	6.9531	8.477985	0.000649	6.492507	1.099860	0.000065
 701	6.9650e+01	6.9630	8.562765	0.000852	8.521415	1.443567	0.000085
 702	6.9749e+01	6.9741	8.522394	-0.000406	-4.057817	-0.687413	-0.000041
 703	6.9849e+01	6.9846	8.562765	0.000406	4.057817	0.687413	0.000041
 704	6.9948e+01	6.9946	8.631396	0.000690	6.898288	1.168602	0.000069
 705	7.0048e+01	7.0034	8.631396	0.000000	0.000000	0.000000	0.000000
 706	7.0147e+01	7.0145	8.659656	0.000284	2.840472	0.481189	0.000028
 707	7.0247e+01	7.0232	8.732325	0.000730	7.304070	1.237343	0.000073
 708	7.0347e+01	7.0334	8.756547	0.000243	2.434690	0.412448	0.000024
 709	7.0446e+01	7.0426	8.817104	0.000609	6.086725	1.031119	0.000061
 710	7.0546e+01	7.0535	8.853439	0.000365	3.652035	0.618671	0.000037
 711	7.0645e+01	7.0629	8.926107	0.000730	7.304070	1.237343	0.000073
 712	7.0745e+01	7.0730	8.950330	0.000243	2.434690	0.412448	0.000024
 713	7.0844e+01	7.0827	8.970516	0.000203	2.028908	0.343706	0.000020
 714	7.0944e+01	7.0936	8.990701	0.000203	2.028908	0.343706	0.000020
 715	7.1043e+01	7.1040	9.063370	0.000730	7.304070	1.237343	0.000073
 716	7.1142e+01	7.1130	9.075481	0.000122	1.217345	0.206224	0.000012
 717	7.1242e+01	7.1232	9.071444	-0.000041	-0.405782	-0.068741	-0.000004
 718	7.1341e+01	7.1321	9.152187	0.000812	8.115634	1.374826	0.000081
 719	7.1441e+01	7.1423	9.176410	0.000243	2.434690	0.412448	0.000024
 720	7.1540e+01	7.1533	9.212744	0.000365	3.652035	0.618671	0.000037
 721	7.1640e+01	7.1620	9.241004	0.000284	2.840472	0.481189	0.000028
 722	7.1740e+01	7.1729	9.321746	0.000812	8.115634	1.374826	0.000081
 723	7.1839e+01	7.1822	9.313672	-0.000081	-0.811563	-0.137483	-0.000008
 724	7.1939e+01	7.1933	9.394415	0.000812	8.115634	1.374826	0.000081
 725	7.2038e+01	7.2026	9.406526	0.000122	1.217345	0.206224	0.000012
 726	7.2138e+01	7.2119	9.467083	0.000609	6.086725	1.031119	0.000061
 727	7.2237e+01	7.2224	9.523603	0.000568	5.680943	0.962378	0.000057
 728	7.2337e+01	7.2323	9.527640	0.000041	0.405782	0.068741	0.000004
 729	7.2436e+01	7.2416	9.588197	0.000609	6.086725	1.031119	0.000061
 730	7.2535e+01	7.2530	9.616457	0.000284	2.840472	0.481189	0.000028
 731	7.2635e+01	7.2628	9.681051	0.000649	6.492507	1.099860	0.000065
 732	7.2734e+01	7.2719	9.677014	-0.000041	-0.405782	-0.068741	-0.000004
 733	7.2834e+01	7.2817	9.741609	0.000649	6.492507	1.099860	0.000065
 734	7.2933e+01	7.2925	9.757757	0.000162	1.623127	0.274965	0.000016
 735	7.3033e+01	7.3015	9.814277	0.000568	5.680943	0.962378	0.000057
 736	7.3132e+01	7.3125	9.874834	0.000609	6.086725	1.031119	0.000061
 737	7.3232e+01	7.3226	9.903094	0.000284	2.840472	0.481189	0.000028
 738	7.3332e+01	7.3324	9.931354	0.000284	2.840472	0.481189	0.000028
 739	7.3431e+01	7.3424	9.971725	0.000406	4.057817	0.687413	0.000041
 740	7.3531e+01	7.3511	10.056505	0.000852	8.521415	1.443567	0.000085
 741	7.3630e+01	7.3631	10.044394	-0.000122	-1.217345	-0.206224	-0.000012
 742	7.3730e+01	7.3721	10.096876	0.000528	5.275162	0.893637	0.000053
 743	7.3829e+01	7.3815	10.137248	0.000406	4.057817	0.687413	0.000041
 744	7.3928e+01	7.3911	10.165508	0.000284	2.840472	0.481189	0.000028
 745	7.4028e+01	7.4026	10.238176	0.000730	7.304070	1.237343	0.000073
 746	7.4127e+01	7.4126	10.258362	0.000203	2.028908	0.343706	0.000020
 747	7.4227e+01	7.4221	10.298733	0.000406	4.057817	0.687413	0.000041
 748	7.4326e+01	7.4319	10.331030	0.000325	3.246253	0.549930	0.000032
 749	7.4426e+01	7.4419	10.363327	0.000325	3.246253	0.549930	0.000032
 750	7.4525e+01	7.4520	10.427922	0.000649	6.492507	1.099860	0.000065
 751	7.4625e+01	7.4626	10.464256	0.000365	3.652035	0.618671	0.000037
 752	7.4725e+01	7.4722	10.504627	0.000406	4.057817	0.687413	0.000041
 753	7.4824e+01	7.4806	10.536924	0.000325	3.246253	0.549930	0.000032
 754	7.4924e+01	7.4920	10.577296	0.000406	4.057817	0.687413	0.000041
 755	7.5023e+01	7.5018	10.625741	0.000487	4.869380	0.824895	0.000049
 756	7.5123e+01	7.5102	10.654001	0.000284	2.840472	0.481189	0.000028
 757	7.5222e+01	7.5214	10.722633	0.000690	6.898288	1.168602	0.000069
 758	7.5322e+01	7.5320	10.714558	-0.000081	-0.811563	-0.137483	-0.000008
 759	7.5421e+01	7.5410	10.754930	0.000406	4.057817	0.687413	0.000041
 760	7.5520e+01	7.5517	10.807412	0.000528	5.275162	0.893637	0.000053
 761	7.5620e+01	7.5611	10.863932	0.000568	5.680943	0.962378	0.000057
 762	7.5719e+01	7.5715	10.908341	0.000446	4.463598	0.756154	0.000045
 763	7.5819e+01	7.5806	10.940638	0.000325	3.246253	0.549930	0.000032
 764	7.5918e+01	7.5900	11.013306	0.000730	7.304070	1.237343	0.000073
 765	7.6018e+01	7.6005	11.025418	0.000122	1.217345	0.206224	0.000012
 766	7.6118e+01	7.6108	11.069826	0.000446	4.463598	0.756154	0.000045
 767	7.6217e+01	7.6211	11.110198	0.000406	4.057817	0.687413	0.000041
 768	7.6317e+01	7.6299	11.162680	0.000528	5.275162	0.893637	0.000053
 769	7.6416e+01	7.6413	11.186903	0.000243	2.434690	0.412448	0.000024
 770	7.6516e+01	7.6493	11.227274	0.000406	4.057817	0.687413	0.000041
 771	7.6615e+01	7.6605	11.291869	0.000649	6.492507	1.099860	0.000065
 772	7.6715e+01	7.6699	11.299943	0.000081	0.811563	0.137483	0.000008
 773	7.6814e+01	7.6807	11.360500	0.000609	6.086725	1.031119	0.000061
 774	7.6913e+01	7.6904	11.445280	0.000852	8.521415	1.443567	0.000085
 775	7.7013e+01	7.7007	11.437206	-0.000081	-0.811563	-0.137483	-0.000008
 776	7.7112e+01	7.7094	11.473540	0.000365	3.652035	0.618671	0.000037
 777	7.7212e+01	7.7206	11.505837	0.000325	3.246253	0.549930	0.000032
 778	7.7311e+01	7.7299	11.578505	0.000730	7.304070	1.237343	0.000073
 779	7.7411e+01	7.7402	11.598691	0.000203	2.028908	0.343706	0.000020
 780	7.7510e+01	7.7502	11.655211	0.000568	5.680943	0.962378	0.000057
 781	7.7610e+01	7.7599	11.635025	-0.000203	-2.028908	-0.343706	-0.000020
 782	7.7710e+01	7.7705	11.703657	0.000690	6.898288	1.168602	0.000069
 783	7.7809e+01	7.7804	11.756139	0.000528	5.275162	0.893637	0.000053
 784	7.7909e+01	7.7904	11.800548	0.000446	4.463598	0.756154	0.000045
 785	7.8008e+01	7.7998	11.828808	0.000284	2.840472	0.481189	0.000028
 786	7.8108e+01	7.8095	11.885328	0.000568	5.680943	0.962378	0.000057
 787	7.8207e+01	7.8201	11.913588	0.000284	2.840472	0.481189	0.000028
 788	7.8306e+01	7.8301	11.966070	0.000528	5.275162	0.893637	0.000053
 789	7.8406e+01	7.8399	11.990293	0.000243	2.434690	0.412448	0.000024
 790	7.8505e+01	7.8490	12.054887	0.000649	6.492507	1.099860	0.000065
 791	7.8605e+01	7.8591	12.119481	0.000649	6.492507	1.099860	0.000065
 792	7.8704e+01	7.8691	12.139667	0.000203	2.028908	0.343706	0.000020
 793	7.8804e+01	7.8795	12.163890	0.000243	2.434690	0.412448	0.000024
 794	7.8903e+01	7.8895	12.220410	0.000568	5.680943	0.962378	0.000057
 795	7.9003e+01	7.8990	12.228484	0.000081	0.811563	0.137483	0.000008
 796	7.9103e+01	7.9087	12.309227	0.000812	8.115634	1.374826	0.000081
 797	7.9202e+01	7.9203	12.305190	-0.000041	-0.405782	-0.068741	-0.000004
 798	7.9302e+01	7.9288	12.402081	0.000974	9.738760	1.649791	0.000097
 799	7.9401e+01	7.9395	12.398044	-0.000041	-0.405782	-0.068741	-0.000004
 800	7.9501e+01	7.9483	12.486861	0.000893	8.927197	1.512308	0.000089
 801	7.9600e+01	7.9578	12.543381	0.000568	5.680943	0.962378	0.000057
 802	7.9700e+01	7.9682	12.571641	0.000284	2.840472	0.481189	0.000028
 803	7.9799e+01	7.9803	12.644309	0.000730	7.304070	1.237343	0.000073
 804	7.9898e+01	7.9884	12.656421	0.000122	1.217345	0.206224	0.000012
 805	7.9998e+01	7.9986	12.741200	0.000852	8.521415	1.443567	0.000085
 806	8.0097e+01	8.0083	12.749275	0.000081	0.811563	0.137483	0.000008
 807	8.0197e+01	8.0189	12.777535	0.000284	2.840472	0.481189	0.000028
 808	8.0296e+01	8.0293	12.830017	0.000528	5.275162	0.893637	0.000053
 809	8.0396e+01	8.0387	12.894612	0.000649	6.492507	1.099860	0.000065
 810	8.0496e+01	8.0476	12.947094	0.000528	5.275162	0.893637	0.000053
 811	8.0595e+01	8.0589	12.995540	0.000487	4.869380	0.824895	0.000049
 812	8.0695e+01	8.0682	13.019763	0.000243	2.434690	0.412448	0.000024
 813	8.0794e+01	8.0786	13.064171	0.000446	4.463598	0.756154	0.000045
 814	8.0894e+01	8.0884	13.112617	0.000487	4.869380	0.824895	0.000049
 815	8.0993e+01	8.0981	13.177211	0.000649	6.492507	1.099860	0.000065
 816	8.1093e+01	8.1080	13.189322	0.000122	1.217345	0.206224	0.000012
 817	8.1192e+01	8.1187	13.229694	0.000406	4.057817	0.687413	0.000041
 818	8.1291e+01	8.1277	13.290251	0.000609	6.086725	1.031119	0.000061
 819	8.1391e+01	8.1382	13.342734	0.000528	5.275162	0.893637	0.000053
 820	8.1490e+01	8.1476	13.403291	0.000609	6.086725	1.031119	0.000061
 821	8.1590e+01	8.1583	13.395216	-0.000081	-0.811563	-0.137483	-0.000008
 822	8.1689e+01	8.1675	13.459811	0.000649	6.492507	1.099860	0.000065
 823	8.1789e+01	8.1776	13.504219	0.000446	4.463598	0.756154	0.000045
 824	8.1888e+01	8.1876	13.552665	0.000487	4.869380	0.824895	0.000049
 825	8.1988e+01	8.1982	13.564776	0.000122	1.217345	0.206224	0.000012
 826	8.2088e+01	8.2118	13.645519	0.000812	8.115634	1.374826	0.000081
 827	8.2187e+01	8.2173	13.702039	0.000568	5.680943	0.962378	0.000057
 828	8.2287e+01	8.2275	13.730299	0.000284	2.840472	0.481189	0.000028
 829	8.2386e+01	8.2377	13.766633	0.000365	3.652035	0.618671	0.000037
 830	8.2486e+01	8.2474	13.875636	0.001096	10.956105	1.856014	0.000110
 831	8.2585e+01	8.2587	13.859487	-0.000162	-1.623127	-0.274965	-0.000016
 832	8.2684e+01	8.2666	13.916007	0.000568	5.680943	0.962378	0.000057
 833	8.2784e+01	8.2772	13.964453	0.000487	4.869380	0.824895	0.000049
 834	8.2883e+01	8.2872	14.025010	0.000609	6.086725	1.031119	0.000061
 835	8.2983e+01	8.2983	14.029047	0.000041	0.405782	0.068741	0.000004
 836	8.3082e+01	8.3081	14.069418	0.000406	4.057817	0.687413	0.000041
 837	8.3182e+01	8.3170	14.150161	0.000812	8.115634	1.374826	0.000081
 838	8.3281e+01	8.3270	14.198606	0.000487	4.869380	0.824895	0.000049
 839	8.3381e+01	8.3370	14.234941	0.000365	3.652035	0.618671	0.000037
 840	8.3481e+01	8.3472	14.287423	0.000528	5.275162	0.893637	0.000053
 841	8.3580e+01	8.3570	14.303572	0.000162	1.623127	0.274965	0.000016
 842	8.3680e+01	8.3671	14.356055	0.000528	5.275162	0.893637	0.000053
 843	8.3779e+01	8.3774	14.428723	0.000730	7.304070	1.237343	0.000073
 844	8.3879e+01	8.3871	14.493317	0.000649	6.492507	1.099860	0.000065
 845	8.3978e+01	8.3973	14.545800	0.000528	5.275162	0.893637	0.000053
 846	8.4078e+01	8.4072	14.565986	0.000203	2.028908	0.343706	0.000020
 847	8.4177e+01	8.4165	14.646728	0.000812	8.115634	1.374826	0.000081
 848	8.4276e+01	8.4267	14.674988	0.000284	2.840472	0.481189	0.000028
 849	8.4376e+01	8.4364	14.691137	0.000162	1.623127	0.274965	0.000016
 850	8.4475e+01	8.4464	14.755731	0.000649	6.492507	1.099860	0.000065
 851	8.4575e+01	8.4570	14.820325	0.000649	6.492507	1.099860	0.000065
 852	8.4674e+01	8.4659	14.888957	0.000690	6.898288	1.168602	0.000069
 853	8.4774e+01	8.4754	14.917217	0.000284	2.840472	0.481189	0.000028
 854	8.4874e+01	8.4857	14.985848	0.000690	6.898288	1.168602	0.000069
 855	8.4973e+01	8.4964	15.014108	0.000284	2.840472	0.481189	0.000028
 856	8.5073e+01	8.5049	15.030256	0.000162	1.623127	0.274965	0.000016
 857	8.5172e+01	8.5162	15.086776	0.000568	5.680943	0.962378	0.000057
 858	8.5272e+01	8.5255	15.167519	0.000812	8.115634	1.374826	0.000081
 859	8.5371e+01	8.5361	15.228076	0.000609	6.086725	1.031119	0.000061
 860	8.5471e+01	8.5462	15.228076	0.000000	0.000000	0.000000	0.000000
 861	8.5570e+01	8.5552	15.260373	0.000325	3.246253	0.549930	0.000032
 862	8.5669e+01	8.5645	15.369376	0.001096	10.956105	1.856014	0.000110
 863	8.5769e+01	8.5769	15.442044	0.000730	7.304070	1.237343	0.000073
 864	8.5868e+01	8.5867	15.450118	0.000081	0.811563	0.137483	0.000008
 865	8.5968e+01	8.5969	15.514713	0.000649	6.492507	1.099860	0.000065
 866	8.6067e+01	8.6060	15.559121	0.000446	4.463598	0.756154	0.000045
 867	8.6167e+01	8.6171	15.615641	0.000568	5.680943	0.962378	0.000057
 868	8.6266e+01	8.6264	15.668124	0.000528	5.275162	0.893637	0.000053
 869	8.6366e+01	8.6346	15.704458	0.000365	3.652035	0.618671	0.000037
 870	8.6466e+01	8.6454	15.765015	0.000609	6.086725	1.031119	0.000061
 871	8.6565e+01	8.6552	15.849795	0.000852	8.521415	1.443567	0.000085
 872	8.6665e+01	8.6658	15.853832	0.000041	0.405782	0.068741	0.000004
 873	8.6764e+01	8.6747	15.918426	0.000649	6.492507	1.099860	0.000065
 874	8.6864e+01	8.6856	15.995132	0.000771	7.709852	1.306084	0.000077
 875	8.6963e+01	8.6951	16.027429	0.000325	3.246253	0.549930	0.000032
 876	8.7063e+01	8.7051	16.067800	0.000406	4.057817	0.687413	0.000041
 877	8.7162e+01	8.7153	16.096060	0.000284	2.840472	0.481189	0.000028
 878	8.7261e+01	8.7247	16.192951	0.000974	9.738760	1.649791	0.000097
 879	8.7361e+01	8.7354	16.221211	0.000284	2.840472	0.481189	0.000028
 880	8.7460e+01	8.7451	16.253508	0.000325	3.246253	0.549930	0.000032
 881	8.7560e+01	8.7549	16.301954	0.000487	4.869380	0.824895	0.000049
 882	8.7659e+01	8.7647	16.346363	0.000446	4.463598	0.756154	0.000045
 883	8.7759e+01	8.7744	16.423068	0.000771	7.709852	1.306084	0.000077
 884	8.7859e+01	8.7849	16.471514	0.000487	4.869380	0.824895	0.000049
 885	8.7958e+01	8.7940	16.519959	0.000487	4.869380	0.824895	0.000049
 886	8.8058e+01	8.8049	16.596665	0.000771	7.709852	1.306084	0.000077
 887	8.8157e+01	8.8142	16.641074	0.000446	4.463598	0.756154	0.000045
 888	8.8257e+01	8.8240	16.681445	0.000406	4.057817	0.687413	0.000041
 889	8.8356e+01	8.8340	16.758150	0.000771	7.709852	1.306084	0.000077
 890	8.8456e+01	8.8452	16.798522	0.000406	4.057817	0.687413	0.000041
 891	8.8555e+01	8.8534	16.834856	0.000365	3.652035	0.618671	0.000037
 892	8.8654e+01	8.8639	16.903487	0.000690	6.898288	1.168602	0.000069
 893	8.8754e+01	8.8746	16.964044	0.000609	6.086725	1.031119	0.000061
 894	8.8853e+01	8.8837	17.016527	0.000528	5.275162	0.893637	0.000053
 895	8.8953e+01	8.8943	17.085158	0.000690	6.898288	1.168602	0.000069
 896	8.9052e+01	8.9033	17.113418	0.000284	2.840472	0.481189	0.000028
 897	8.9152e+01	8.9124	17.186087	0.000730	7.304070	1.237343	0.000073
 898	8.9251e+01	8.9229	17.250681	0.000649	6.492507	1.099860	0.000065
 899	8.9351e+01	8.9331	17.291052	0.000406	4.057817	0.687413	0.000041
 900	8.9451e+01	8.9415	17.319312	0.000284	2.840472	0.481189	0.000028
 901	8.9550e+01	8.9529	17.396018	0.000771	7.709852	1.306084	0.000077
 902	8.9650e+01	8.9620	17.436389	0.000406	4.057817	0.687413	0.000041
 903	8.9749e+01	8.9730	17.480798	0.000446	4.463598	0.756154	0.000045
 904	8.9849e+01	8.9826	17.569615	0.000893	8.927197	1.512308	0.000089
 905	8.9948e+01	8.9933	17.618060	0.000487	4.869380	0.824895	0.000049
 906	9.0047e+01	9.0033	17.666506	0.000487	4.869380	0.824895	0.000049
 907	9.0147e+01	9.0121	17.723026	0.000568	5.680943	0.962378	0.000057
 908	9.0246e+01	9.0227	17.819917	0.000974	9.738760	1.649791	0.000097
 909	9.0346e+01	9.0332	17.876437	0.000568	5.680943	0.962378	0.000057
 910	9.0445e+01	9.0430	17.896623	0.000203	2.028908	0.343706	0.000020
 911	9.0545e+01	9.0530	17.953143	0.000568	5.680943	0.962378	0.000057
 912	9.0644e+01	9.0628	17.997551	0.000446	4.463598	0.756154	0.000045
 913	9.0744e+01	9.0726	18.098480	0.001014	10.144542	1.718532	0.000101
 914	9.0844e+01	9.0826	18.142888	0.000446	4.463598	0.756154	0.000045
 915	9.0943e+01	9.0934	18.199408	0.000568	5.680943	0.962378	0.000057
 916	9.1043e+01	9.1019	18.268039	0.000690	6.898288	1.168602	0.000069
 917	9.1142e+01	9.1128	18.296299	0.000284	2.840472	0.481189	0.000028
 918	9.1242e+01	9.1214	18.385116	0.000893	8.927197	1.512308	0.000089
 919	9.1341e+01	9.1328	18.437599	0.000528	5.275162	0.893637	0.000053
 920	9.1441e+01	9.1425	18.473933	0.000365	3.652035	0.618671	0.000037
 921	9.1540e+01	9.1516	18.522379	0.000487	4.869380	0.824895	0.000049
 922	9.1639e+01	9.1626	18.635419	0.001136	11.361887	1.924756	0.000114
 923	9.1739e+01	9.1724	18.659641	0.000243	2.434690	0.412448	0.000024
 924	9.1838e+01	9.1818	18.756533	0.000974	9.738760	1.649791	0.000097
 925	9.1938e+01	9.1914	18.788830	0.000325	3.246253	0.549930	0.000032
 926	9.2037e+01	9.2020	18.853424	0.000649	6.492507	1.099860	0.000065
 927	9.2137e+01	9.2122	18.913981	0.000609	6.086725	1.031119	0.000061
 928	9.2237e+01	9.2210	18.958389	0.000446	4.463598	0.756154	0.000045
 929	9.2336e+01	9.2314	19.014909	0.000568	5.680943	0.962378	0.000057
 930	9.2436e+01	9.2393	19.123912	0.001096	10.956105	1.856014	0.000110
 931	9.2535e+01	9.2520	19.160246	0.000365	3.652035	0.618671	0.000037
 932	9.2635e+01	9.2619	19.228878	0.000690	6.898288	1.168602	0.000069
 933	9.2734e+01	9.2725	19.240989	0.000122	1.217345	0.206224	0.000012
 934	9.2834e+01	9.2814	19.317695	0.000771	7.709852	1.306084	0.000077
 935	9.2933e+01	9.2916	19.414586	0.000974	9.738760	1.649791	0.000097
 936	9.3032e+01	9.3009	19.458994	0.000446	4.463598	0.756154	0.000045
 937	9.3132e+01	9.3115	19.519551	0.000609	6.086725	1.031119	0.000061
 938	9.3231e+01	9.3213	19.604331	0.000852	8.521415	1.443567	0.000085
 939	9.3331e+01	9.3317	19.652777	0.000487	4.869380	0.824895	0.000049
 940	9.3430e+01	9.3414	19.721408	0.000690	6.898288	1.168602	0.000069
 941	9.3530e+01	9.3512	19.786002	0.000649	6.492507	1.099860	0.000065
 942	9.3629e+01	9.3613	19.834448	0.000487	4.869380	0.824895	0.000049
 943	9.3729e+01	9.3705	19.907116	0.000730	7.304070	1.237343	0.000073
 944	9.3829e+01	9.3811	19.963636	0.000568	5.680943	0.962378	0.000057
 945	9.3928e+01	9.3912	20.024193	0.000609	6.086725	1.031119	0.000061
 946	9.4028e+01	9.4001	20.076676	0.000528	5.275162	0.893637	0.000053
 947	9.4127e+01	9.4116	20.169530	0.000933	9.332979	1.581049	0.000093
 948	9.4227e+01	9.4202	20.230087	0.000609	6.086725	1.031119	0.000061
 949	9.4326e+01	9.4308	20.298718	0.000690	6.898288	1.168602	0.000069
 950	9.4425e+01	9.4411	20.367350	0.000690	6.898288	1.168602	0.000069
 951	9.4525e+01	9.4513	20.391573	0.000243	2.434690	0.412448	0.000024
 952	9.4624e+01	9.4606	20.488464	0.000974	9.738760	1.649791	0.000097
 953	9.4724e+01	9.4704	20.549021	0.000609	6.086725	1.031119	0.000061
 954	9.4823e+01	9.4812	20.637838	0.000893	8.927197	1.512308	0.000089
 955	9.4923e+01	9.4910	20.670135	0.000325	3.246253	0.549930	0.000032
 956	9.5022e+01	9.5000	20.758952	0.000893	8.927197	1.512308	0.000089
 957	9.5122e+01	9.5117	20.855843	0.000974	9.738760	1.649791	0.000097
 958	9.5222e+01	9.5197	20.880066	0.000243	2.434690	0.412448	0.000024
 959	9.5321e+01	9.5300	20.964846	0.000852	8.521415	1.443567	0.000085
 960	9.5421e+01	9.5399	21.041551	0.000771	7.709852	1.306084	0.000077
 961	9.5520e+01	9.5500	21.081923	0.000406	4.057817	0.687413	0.000041
 962	9.5620e+01	9.5594	21.170740	0.000893	8.927197	1.512308	0.000089
 963	9.5719e+01	9.5712	21.215148	0.000446	4.463598	0.756154	0.000045
 964	9.5819e+01	9.5802	21.295891	0.000812	8.115634	1.374826	0.000081
 965	9.5918e+01	9.5898	21.384708	0.000893	8.927197	1.512308	0.000089
 966	9.6017e+01	9.5987	21.453339	0.000690	6.898288	1.168602	0.000069
 967	9.6117e+01	9.6097	21.526008	0.000730	7.304070	1.237343	0.000073
 968	9.6216e+01	9.6191	21.582528	0.000568	5.680943	0.962378	0.000057
 969	9.6316e+01	9.6301	21.659233	0.000771	7.709852	1.306084	0.000077
 970	9.6415e+01	9.6387	21.731902	0.000730	7.304070	1.237343	0.000073
 971	9.6515e+01	9.6497	21.828793	0.000974	9.738760	1.649791	0.000097
 972	9.6615e+01	9.6598	21.913573	0.000852	8.521415	1.443567	0.000085
 973	9.6714e+01	9.6696	21.941833	0.000284	2.840472	0.481189	0.000028
 974	9.6814e+01	9.6793	22.050835	0.001096	10.956105	1.856014	0.000110
 975	9.6913e+01	9.6901	22.079095	0.000284	2.840472	0.481189	0.000028
 976	9.7013e+01	9.6988	22.184061	0.001055	10.550324	1.787273	0.000105
 977	9.7112e+01	9.7087	22.236544	0.000528	5.275162	0.893637	0.000053
 978	9.7212e+01	9.7192	22.321323	0.000852	8.521415	1.443567	0.000085
 979	9.7311e+01	9.7292	22.381881	0.000609	6.086725	1.031119	0.000061
 980	9.7410e+01	9.7391	22.474735	0.000933	9.332979	1.581049	0.000093
 981	9.7510e+01	9.7485	22.543366	0.000690	6.898288	1.168602	0.000069
 982	9.7609e+01	9.7577	22.624109	0.000812	8.115634	1.374826	0.000081
 983	9.7709e+01	9.7693	22.680629	0.000568	5.680943	0.962378	0.000057
 984	9.7808e+01	9.7779	22.765408	0.000852	8.521415	1.443567	0.000085
 985	9.7908e+01	9.7881	22.834040	0.000690	6.898288	1.168602	0.000069
 986	9.8007e+01	9.7980	22.947080	0.001136	11.361887	1.924756	0.000114
 987	9.8107e+01	9.8090	23.003599	0.000568	5.680943	0.962378	0.000057
 988	9.8207e+01	9.8193	23.088379	0.000852	8.521415	1.443567	0.000085
 989	9.8306e+01	9.8291	23.144899	0.000568	5.680943	0.962378	0.000057
 990	9.8406e+01	9.8377	23.221605	0.000771	7.709852	1.306084	0.000077
 991	9.8505e+01	9.8487	23.298310	0.000771	7.709852	1.306084	0.000077
 992	9.8605e+01	9.8584	23.358867	0.000609	6.086725	1.031119	0.000061
 993	9.8704e+01	9.8682	23.435573	0.000771	7.709852	1.306084	0.000077
 994	9.8803e+01	9.8779	23.520353	0.000852	8.521415	1.443567	0.000085
 995	9.8903e+01	9.8883	23.601096	0.000812	8.115634	1.374826	0.000081
 996	9.9002e+01	9.8975	23.645504	0.000446	4.463598	0.756154	0.000045
 997	9.9102e+01	9.9083	23.782767	0.001380	13.796577	2.337203	0.000138
 998	9.9201e+01	9.9179	23.847361	0.000649	6.492507	1.099860	0.000065
 999	9.9301e+01	9.9284	23.944252	0.000974	9.738760	1.649791	0.000097
1000	9.9400e+01	9.9371	24.037106	0.000933	9.332979	1.581049	0.000093
1001	9.9500e+01	9.9484	24.097663	0.000609	6.086725	1.031119	0.000061
1002	9.9600e+01	9.9585	24.174369	0.000771	7.709852	1.306084	0.000077
1003	9.9699e+01	9.9683	24.247037	0.000730	7.304070	1.237343	0.000073
1004	9.9799e+01	9.9775	24.352003	0.001055	10.550324	1.787273	0.000105
1005	9.9898e+01	9.9880	24.400448	0.000487	4.869380	0.824895	0.000049
1006	9.9998e+01	9.9980	24.489265	0.000893	8.927197	1.512308	0.000089
1007	1.0010e+02	9.9881	24.533674	-0.000446	-4.463598	-0.756154	0.000045
1008	1.0020e+02	9.9780	24.590194	-0.000568	-5.680943	-0.962378	0.000057
1009	1.0030e+02	9.9683	24.578082	0.000122	1.217345	0.206224	-0.000012
1010	1.0040e+02	9.9573	24.590194	-0.000122	-1.217345	-0.206224	0.000012
1011	1.0050e+02	9.9478	24.618454	-0.000284	-2.840472	-0.481189	0.000028
1012	1.0059e+02	9.9371	24.626528	-0.000081	-0.811563	-0.137483	0.000008
1013	1.0069e+02	9.9277	24.622491	0.000041	0.405782	0.068741	-0.000004
1014	1.0079e+02	9.9180	24.666899	-0.000446	-4.463598	-0.756154	0.000045
1015	1.0089e+02	9.9072	24.679011	-0.000122	-1.217345	-0.206224	0.000012
1016	1.0099e+02	9.8981	24.679011	-0.000000	-0.000000	-0.000000	0.000000
1017	1.0109e+02	9.8877	24.731494	-0.000528	-5.275162	-0.893637	0.000053
1018	1.0119e+02	9.8779	24.747642	-0.000162	-1.623127	-0.274965	0.000016
1019	1.0129e+02	9.8683	24.719382	0.000284	2.840472	0.481189	-0.000028
1020	1.0139e+02	9.8584	24.779939	-0.000609	-6.086725	-1.031119	0.000061
1021	1.0149e+02	9.8475	24.808199	-0.000284	-2.840472	-0.481189	0.000028
1022	1.0159e+02	9.8389	24.824348	-0.000162	-1.623127	-0.274965	0.000016
1023	1.0169e+02	9.8291	24.832422	-0.000081	-0.811563	-0.137483	0.000008
1024	1.0179e+02	9.8193	24.852608	-0.000203	-2.028908	-0.343706	0.000020
1025	1.0189e+02	9.8077	24.844533	0.000081	0.811563	0.137483	-0.000008
1026	1.0199e+02	9.7979	24.836459	0.000081	0.811563	0.137483	-0.000008
1027	1.0209e+02	9.7894	24.848570	-0.000122	-1.217345	-0.206224	0.000012
1028	1.0219e+02	9.7791	24.864719	-0.000162	-1.623127	-0.274965	0.000016
1029	1.0229e+02	9.7684	24.864719	-0.000000	-0.000000	-0.000000	0.000000
1030	1.0239e+02	9.7607	24.897016	-0.000325	-3.246253	-0.549930	0.000032
1031	1.0248e+02	9.7482	24.892979	0.000041	0.405782	0.068741	-0.000004
1032	1.0258e+02	9.7388	24.929313	-0.000365	-3.652035	-0.618671	0.000037
1033	1.0268e+02	9.7296	24.897016	0.000325	3.246253	0.549930	-0.000032
1034	1.0278e+02	9.7195	24.917202	-0.000203	-2.028908	-0.343706	0.000020
1035	1.0288e+02	9.7095	24.945462	-0.000284	-2.840472	-0.481189	0.000028
1036	1.0298e+02	9.6986	24.917202	0.000284	2.840472	0.481189	-0.000028
1037	1.0308e+02	9.6889	24.961610	-0.000446	-4.463598	-0.756154	0.000045
1038	1.0318e+02	9.6799	24.937387	0.000243	2.434690	0.412448	-0.000024
1039	1.0328e+02	9.6692	24.941425	-0.000041	-0.405782	-0.068741	0.000004
1040	1.0338e+02	9.6588	24.925276	0.000162	1.623127	0.274965	-0.000016
1041	1.0348e+02	9.6490	24.933350	-0.000081	-0.811563	-0.137483	0.000008
1042	1.0358e+02	9.6400	24.941425	-0.000081	-0.811563	-0.137483	0.000008
1043	1.0368e+02	9.6304	24.913165	0.000284	2.840472	0.481189	-0.000028
1044	1.0378e+02	9.6192	24.945462	-0.000325	-3.246253	-0.549930	0.000032
1045	1.0388e+02	9.6085	24.945462	-0.000000	-0.000000	-0.000000	0.000000
1046	1.0398e+02	9.6000	24.933350	0.000122	1.217345	0.206224	-0.000012
1047	1.0408e+02	9.5898	24.913165	0.000203	2.028908	0.343706	-0.000020
1048	1.0418e+02	9.5795	24.913165	-0.000000	-0.000000	-0.000000	0.000000
1049	1.0428e+02	9.5693	24.905090	0.000081	0.811563	0.137483	-0.000008
1050	1.0438e+02	9.5596	24.913165	-0.000081	-0.811563	-0.137483	0.000008
1051	1.0447e+02	9.5514	24.961610	-0.000487	-4.869380	-0.824895	0.000049
1052	1.0457e+02	9.5410	24.876830	0.000852	8.521415	1.443567	-0.000085
1053	1.0467e+02	9.5300	24.880868	-0.000041	-0.405782	-0.068741	0.000004
1054	1.0477e+02	9.5203	24.901053	-0.000203	-2.028908	-0.343706	0.000020
1055	1.0487e+02	9.5099	24.897016	0.000041	0.405782	0.068741	-0.000004
1056	1.0497e+02	9.4995	24.892979	0.000041	0.405782	0.068741	-0.000004
1057	1.0507e+02	9.4900	24.864719	0.000284	2.840472	0.481189	-0.000028
1058	1.0517e+02	9.4796	24.884905	-0.000203	-2.028908	-0.343706	0.000020
1059	1.0527e+02	9.4696	24.897016	-0.000122	-1.217345	-0.206224	0.000012
1060	1.0537e+02	9.4607	24.856645	0.000406	4.057817	0.687413	-0.000041
1061	1.0547e+02	9.4509	24.888942	-0.000325	-3.246253	-0.549930	0.000032
1062	1.0557e+02	9.4410	24.856645	0.000325	3.246253	0.549930	-0.000032
1063	1.0567e+02	9.4312	24.848570	0.000081	0.811563	0.137483	-0.000008
1064	1.0577e+02	9.4202	24.844533	0.000041	0.405782	0.068741	-0.000004
1065	1.0587e+02	9.4107	24.816273	0.000284	2.840472	0.481189	-0.000028
1066	1.0597e+02	9.3994	24.852608	-0.000365	-3.652035	-0.618671	0.000037
1067	1.0607e+02	9.3910	24.840496	0.000122	1.217345	0.206224	-0.000012
1068	1.0617e+02	9.3806	24.836459	0.000041	0.405782	0.068741	-0.000004
1069	1.0627e+02	9.3707	24.832422	0.000041	0.405782	0.068741	-0.000004
1070	1.0637e+02	9.3606	24.812236	0.000203	2.028908	0.343706	-0.000020
1071	1.0647e+02	9.3525	24.755716	0.000568	5.680943	0.962378	-0.000057
1072	1.0656e+02	9.3411	24.767828	-0.000122	-1.217345	-0.206224	0.000012
1073	1.0666e+02	9.3311	24.771865	-0.000041	-0.405782	-0.068741	0.000004
1074	1.0676e+02	9.3213	24.796088	-0.000243	-2.434690	-0.412448	0.000024
1075	1.0686e+02	9.3118	24.739568	0.000568	5.680943	0.962378	-0.000057
1076	1.0696e+02	9.3006	24.775902	-0.000365	-3.652035	-0.618671	0.000037
1077	1.0706e+02	9.2902	24.735531	0.000406	4.057817	0.687413	-0.000041
1078	1.0716e+02	9.2813	24.763791	-0.000284	-2.840472	-0.481189	0.000028
1079	1.0726e+02	9.2711	24.735531	0.000284	2.840472	0.481189	-0.000028
1080	1.0736e+02	9.2627	24.699196	0.000365	3.652035	0.618671	-0.000037
1081	1.0746e+02	9.2529	24.707271	-0.000081	-0.811563	-0.137483	0.000008
1082	1.0756e+02	9.2420	24.703234	0.000041	0.405782	0.068741	-0.000004
1083	1.0766e+02	9.2322	24.674974	0.000284	2.840472	0.481189	-0.000028
1084	1.0776e+02	9.2210	24.674974	-0.000000	-0.000000	-0.000000	0.000000
1085	1.0786e+02	9.2124	24.630565	0.000446	4.463598	0.756154	-0.000045
1086	1.0796e+02	9.2017	24.650751	-0.000203	-2.028908	-0.343706	0.000020
1087	1.0806e+02	9.1926	24.598268	0.000528	5.275162	0.893637	-0.000053
1088	1.0816e+02	9.1813	24.618454	-0.000203	-2.028908	-0.343706	0.000020
1089	1.0826e+02	9.1724	24.586157	0.000325	3.246253	0.549930	-0.000032
1090	1.0836e+02	9.1626	24.598268	-0.000122	-1.217345	-0.206224	0.000012
1091	1.0845e+02	9.1534	24.574045	0.000243	2.434690	0.412448	-0.000024
1092	1.0855e+02	9.1422	24.553860	0.000203	2.028908	0.343706	-0.000020
1093	1.0865e+02	9.1315	24.557897	-0.000041	-0.405782	-0.068741	0.000004
1094	1.0875e+02	9.1223	24.533674	0.000243	2.434690	0.412448	-0.000024
1095	1.0885e+02	9.1132	24.517525	0.000162	1.623127	0.274965	-0.000016
1096	1.0895e+02	9.1022	24.501377	0.000162	1.623127	0.274965	-0.000016
1097	1.0905e+02	9.0921	24.489265	0.000122	1.217345	0.206224	-0.000012
1098	1.0915e+02	9.0836	24.456968	0.000325	3.246253	0.549930	-0.000032
1099	1.0925e+02	9.0733	24.485228	-0.000284	-2.840472	-0.481189	0.000028
1100	1.0935e+02	9.0625	24.440820	0.000446	4.463598	0.756154	-0.000045
1101	1.0945e+02	9.0522	24.408523	0.000325	3.246253	0.549930	-0.000032
1102	1.0955e+02	9.0436	24.424671	-0.000162	-1.623127	-0.274965	0.000016
1103	1.0965e+02	9.0335	24.424671	-0.000000	-0.000000	-0.000000	0.000000
1104	1.0975e+02	9.0222	24.380263	0.000446	4.463598	0.756154	-0.000045
1105	1.0985e+02	9.0117	24.352003	0.000284	2.840472	0.481189	-0.000028
1106	1.0995e+02	9.0028	24.360077	-0.000081	-0.811563	-0.137483	0.000008
1107	1.1005e+02	8.9926	24.347966	0.000122	1.217345	0.206224	-0.000012
1108	1.1015e+02	8.9821	24.360077	-0.000122	-1.217345	-0.206224	0.000012
1109	1.1025e+02	8.9737	24.299520	0.000609	6.086725	1.031119	-0.000061
1110	1.1035e+02	8.9630	24.287409	0.000122	1.217345	0.206224	-0.000012
1111	1.1044e+02	8.9527	24.263186	0.000243	2.434690	0.412448	-0.000024
1112	1.1054e+02	8.9429	24.275297	-0.000122	-1.217345	-0.206224	0.000012
1113	1.1064e+02	8.9332	24.230889	0.000446	4.463598	0.756154	-0.000045
1114	1.1074e+02	8.9227	24.247037	-0.000162	-1.623127	-0.274965	0.000016
1115	1.1084e+02	8.9136	24.174369	0.000730	7.304070	1.237343	-0.000073
1116	1.1094e+02	8.9034	24.190517	-0.000162	-1.623127	-0.274965	0.000016
1117	1.1104e+02	8.8935	24.121886	0.000690	6.898288	1.168602	-0.000069
1118	1.1114e+02	8.8831	24.158220	-0.000365	-3.652035	-0.618671	0.000037
1119	1.1124e+02	8.8730	24.121886	0.000365	3.652035	0.618671	-0.000037
1120	1.1134e+02	8.8641	24.117849	0.000041	0.405782	0.068741	-0.000004
1121	1.1144e+02	8.8531	24.077478	0.000406	4.057817	0.687413	-0.000041
1122	1.1154e+02	8.8437	24.069403	0.000081	0.811563	0.137483	-0.000008
1123	1.1164e+02	8.8342	24.049218	0.000203	2.028908	0.343706	-0.000020
1124	1.1174e+02	8.8243	24.012883	0.000365	3.652035	0.618671	-0.000037
1125	1.1184e+02	8.8139	23.980586	0.000325	3.246253	0.549930	-0.000032
1126	1.1194e+02	8.8042	24.000772	-0.000203	-2.028908	-0.343706	0.000020
1127	1.1204e+02	8.7943	24.004809	-0.000041	-0.405782	-0.068741	0.000004
1128	1.1214e+02	8.7851	23.960401	0.000446	4.463598	0.756154	-0.000045
1129	1.1224e+02	8.7745	23.948289	0.000122	1.217345	0.206224	-0.000012
1130	1.1234e+02	8.7650	23.903881	0.000446	4.463598	0.756154	-0.000045
1131	1.1244e+02	8.7550	23.891769	0.000122	1.217345	0.206224	-0.000012
1132	1.1253e+02	8.7444	23.875621	0.000162	1.623127	0.274965	-0.000016
1133	1.1263e+02	8.7357	23.883695	-0.000081	-0.811563	-0.137483	0.000008
1134	1.1273e+02	8.7244	23.835249	0.000487	4.869380	0.824895	-0.000049
1135	1.1283e+02	8.7146	23.815064	0.000203	2.028908	0.343706	-0.000020
1136	1.1293e+02	8.7038	23.798915	0.000162	1.623127	0.274965	-0.000016
1137	1.1303e+02	8.6955	23.819101	-0.000203	-2.028908	-0.343706	0.000020
1138	1.1313e+02	8.6846	23.778729	0.000406	4.057817	0.687413	-0.000041
1139	1.1323e+02	8.6752	23.774692	0.000041	0.405782	0.068741	-0.000004
1140	1.1333e+02	8.6661	23.746432	0.000284	2.840472	0.481189	-0.000028
1141	1.1343e+02	8.6551	23.702024	0.000446	4.463598	0.756154	-0.000045
1142	1.1353e+02	8.6450	23.689913	0.000122	1.217345	0.206224	-0.000012
1143	1.1363e+02	8.6351	23.649541	0.000406	4.057817	0.687413	-0.000041
1144	1.1373e+02	8.6251	23.657615	-0.000081	-0.811563	-0.137483	0.000008
1145	1.1383e+02	8.6157	23.625318	0.000325	3.246253	0.549930	-0.000032
1146	1.1393e+02	8.6048	23.621281	0.000041	0.405782	0.068741	-0.000004
1147	1.1403e+02	8.5962	23.588984	0.000325	3.246253	0.549930	-0.000032
1148	1.1413e+02	8.5864	23.572836	0.000162	1.623127	0.274965	-0.000016
1149	1.1423e+02	8.5745	23.524390	0.000487	4.869380	0.824895	-0.000049
1150	1.1433e+02	8.5661	23.520353	0.000041	0.405782	0.068741	-0.000004
1151	1.1442e+02	8.5557	23.500167	0.000203	2.028908	0.343706	-0.000020
1152	1.1452e+02	8.5454	23.512279	-0.000122	-1.217345	-0.206224	0.000012
1153	1.1462e+02	8.5370	23.451722	0.000609	6.086725	1.031119	-0.000061
1154	1.1472e+02	8.5264	23.423462	0.000284	2.840472	0.481189	-0.000028
1155	1.1482e+02	8.5174	23.427499	-0.000041	-0.405782	-0.068741	0.000004
1156	1.1492e+02	8.5062	23.370979	0.000568	5.680943	0.962378	-0.000057
1157	1.1502e+02	8.4962	23.362905	0.000081	0.811563	0.137483	-0.000008
1158	1.1512e+02	8.4858	23.350793	0.000122	1.217345	0.206224	-0.000012
1159	1.1522e+02	8.4766	23.326570	0.000243	2.434690	0.412448	-0.000024
1160	1.1532e+02	8.4668	23.282162	0.000446	4.463598	0.756154	-0.000045
1161	1.1542e+02	8.4564	23.266013	0.000162	1.623127	0.274965	-0.000016
1162	1.1552e+02	8.4475	23.233716	0.000325	3.246253	0.549930	-0.000032
1163	1.1562e+02	8.4367	23.233716	-0.000000	-0.000000	-0.000000	0.000000
1164	1.1572e+02	8.4266	23.189308	0.000446	4.463598	0.756154	-0.000045
1165	1.1582e+02	8.4163	23.173159	0.000162	1.623127	0.274965	-0.000016
1166	1.1592e+02	8.4071	23.165085	0.000081	0.811563	0.137483	-0.000008
1167	1.1602e+02	8.3961	23.157011	0.000081	0.811563	0.137483	-0.000008
1168	1.1612e+02	8.3862	23.096454	0.000609	6.086725	1.031119	-0.000061
1169	1.1622e+02	8.3765	23.124714	-0.000284	-2.840472	-0.481189	0.000028
1170	1.1632e+02	8.3663	23.060119	0.000649	6.492507	1.099860	-0.000065
1171	1.1642e+02	8.3566	23.039934	0.000203	2.028908	0.343706	-0.000020
1172	1.1651e+02	8.3469	23.031859	0.000081	0.811563	0.137483	-0.000008
1173	1.1661e+02	8.3378	23.007637	0.000243	2.434690	0.412448	-0.000024
1174	1.1671e+02	8.3266	22.987451	0.000203	2.028908	0.343706	-0.000020
1175	1.1681e+02	8.3170	22.951117	0.000365	3.652035	0.618671	-0.000037
1176	1.1691e+02	8.3081	22.943042	0.000081	0.811563	0.137483	-0.000008
1177	1.1701e+02	8.2969	22.890560	0.000528	5.275162	0.893637	-0.000053
1178	1.1711e+02	8.2874	22.866337	0.000243	2.434690	0.412448	-0.000024
1179	1.1721e+02	8.2780	22.850188	0.000162	1.623127	0.274965	-0.000016
1180	1.1731e+02	8.2675	22.825965	0.000243	2.434690	0.412448	-0.000024
1181	1.1741e+02	8.2574	22.797706	0.000284	2.840472	0.481189	-0.000028
1182	1.1751e+02	8.2471	22.781557	0.000162	1.623127	0.274965	-0.000016
1183	1.1761e+02	8.2375	22.741186	0.000406	4.057817	0.687413	-0.000041
1184	1.1771e+02	8.2261	22.704851	0.000365	3.652035	0.618671	-0.000037
1185	1.1781e+02	8.2171	22.704851	-0.000000	-0.000000	-0.000000	0.000000
1186	1.1791e+02	8.2069	22.684666	0.000203	2.028908	0.343706	-0.000020
1187	1.1801e+02	8.1982	22.648331	0.000365	3.652035	0.618671	-0.000037
1188	1.1811e+02	8.1886	22.644294	0.000041	0.405782	0.068741	-0.000004
1189	1.1821e+02	8.1781	22.587774	0.000568	5.680943	0.962378	-0.000057
1190	1.1831e+02	8.1683	22.603923	-0.000162	-1.623127	-0.274965	0.000016
1191	1.1841e+02	8.1573	22.547403	0.000568	5.680943	0.962378	-0.000057
1192	1.1850e+02	8.1483	22.519143	0.000284	2.840472	0.481189	-0.000028
1193	1.1860e+02	8.1378	22.531255	-0.000122	-1.217345	-0.206224	0.000012
1194	1.1870e+02	8.1277	22.474735	0.000568	5.680943	0.962378	-0.000057
1195	1.1880e+02	8.1181	22.458586	0.000162	1.623127	0.274965	-0.000016
1196	1.1890e+02	8.1078	22.446475	0.000122	1.217345	0.206224	-0.000012
1197	1.1900e+02	8.0981	22.389955	0.000568	5.680943	0.962378	-0.000057
1198	1.1910e+02	8.0878	22.385918	0.000041	0.405782	0.068741	-0.000004
1199	1.1920e+02	8.0782	22.341509	0.000446	4.463598	0.756154	-0.000045
1200	1.1930e+02	8.0679	22.313249	0.000284	2.840472	0.481189	-0.000028
1201	1.1940e+02	8.0579	22.305175	0.000081	0.811563	0.137483	-0.000008
1202	1.1950e+02	8.0488	22.293064	0.000122	1.217345	0.206224	-0.000012
1203	1.1960e+02	8.0389	22.284989	0.000081	0.811563	0.137483	-0.000008
1204	1.1970e+02	8.0277	22.252692	0.000325	3.246253	0.549930	-0.000032
1205	1.1980e+02	8.0180	22.188098	0.000649	6.492507	1.099860	-0.000065
1206	1.1990e+02	8.0088	22.171949	0.000162	1.623127	0.274965	-0.000016
1207	1.2000e+02	7.9984	22.167912	0.000041	0.405782	0.068741	-0.000004
1208	1.2010e+02	7.9878	22.099281	0.000690	6.898288	1.168602	-0.000069
1209	1.2020e+02	7.9792	22.103318	-0.000041	-0.405782	-0.068741	0.000004
1210	1.2030e+02	7.9688	22.038724	0.000649	6.492507	1.099860	-0.000065
1211	1.2039e+02	7.9592	22.018538	0.000203	2.028908	0.343706	-0.000020
1212	1.2049e+02	7.9488	22.026613	-0.000081	-0.811563	-0.137483	0.000008
1213	1.2059e+02	7.9395	21.994316	0.000325	3.246253	0.549930	-0.000032
1214	1.2069e+02	7.9282	21.941833	0.000528	5.275162	0.893637	-0.000053
1215	1.2079e+02	7.9189	21.897424	0.000446	4.463598	0.756154	-0.000045
1216	1.2089e+02	7.9093	21.889350	0.000081	0.811563	0.137483	-0.000008
1217	1.2099e+02	7.8989	21.889350	-0.000000	-0.000000	-0.000000	0.000000
1218	1.2109e+02	7.8891	21.853016	0.000365	3.652035	0.618671	-0.000037
1219	1.2119e+02	7.8795	21.800533	0.000528	5.275162	0.893637	-0.000053
1220	1.2129e+02	7.8693	21.772273	0.000284	2.840472	0.481189	-0.000028
1221	1.2139e+02	7.8596	21.731902	0.000406	4.057817	0.687413	-0.000041
1222	1.2149e+02	7.8487	21.727865	0.000041	0.405782	0.068741	-0.000004
1223	1.2159e+02	7.8396	21.683456	0.000446	4.463598	0.756154	-0.000045
1224	1.2169e+02	7.8297	21.671345	0.000122	1.217345	0.206224	-0.000012
1225	1.2179e+02	7.8203	21.667308	0.000041	0.405782	0.068741	-0.000004
1226	1.2189e+02	7.8099	21.622899	0.000446	4.463598	0.756154	-0.000045
1227	1.2199e+02	7.7995	21.594639	0.000284	2.840472	0.481189	-0.000028
1228	1.2209e+02	7.7901	21.602713	-0.000081	-0.811563	-0.137483	0.000008
1229	1.2219e+02	7.7804	21.550231	0.000528	5.275162	0.893637	-0.000053
1230	1.2229e+02	7.7694	21.497748	0.000528	5.275162	0.893637	-0.000053
1231	1.2239e+02	7.7599	21.465451	0.000325	3.246253	0.549930	-0.000032
1232	1.2248e+02	7.7494	21.465451	-0.000000	-0.000000	-0.000000	0.000000
1233	1.2258e+02	7.7400	21.388745	0.000771	7.709852	1.306084	-0.000077
1234	1.2268e+02	7.7303	21.404894	-0.000162	-1.623127	-0.274965	0.000016
1235	1.2278e+02	7.7201	21.368559	0.000365	3.652035	0.618671	-0.000037
1236	1.2288e+02	7.7094	21.344337	0.000243	2.434690	0.412448	-0.000024
1237	1.2298e+02	7.6999	21.308002	0.000365	3.652035	0.618671	-0.000037
1238	1.2308e+02	7.6904	21.279742	0.000284	2.840472	0.481189	-0.000028
1239	1.2318e+02	7.6796	21.263594	0.000162	1.623127	0.274965	-0.000016
1240	1.2328e+02	7.6709	21.219185	0.000446	4.463598	0.756154	-0.000045
1241	1.2338e+02	7.6608	21.194963	0.000243	2.434690	0.412448	-0.000024
1242	1.2348e+02	7.6498	21.174777	0.000203	2.028908	0.343706	-0.000020
1243	1.2358e+02	7.6408	21.142480	0.000325	3.246253	0.549930	-0.000032
1244	1.2368e+02	7.6311	21.122294	0.000203	2.028908	0.343706	-0.000020
1245	1.2378e+02	7.6209	21.130368	-0.000081	-0.811563	-0.137483	0.000008
1246	1.2388e+02	7.6110	21.102109	0.000284	2.840472	0.481189	-0.000028
1247	1.2398e+02	7.6011	21.009254	0.000933	9.332979	1.581049	-0.000093
1248	1.2408e+02	7.5900	21.009254	-0.000000	-0.000000	-0.000000	0.000000
1249	1.2418e+02	7.5802	20.980994	0.000284	2.840472	0.481189	-0.000028
1250	1.2428e+02	7.5710	20.948697	0.000325	3.246253	0.549930	-0.000032
1251	1.2438e+02	7.5617	20.912363	0.000365	3.652035	0.618671	-0.000037
1252	1.2447e+02	7.5515	20.896215	0.000162	1.623127	0.274965	-0.000016
1253	1.2457e+02	7.5408	20.827583	0.000690	6.898288	1.168602	-0.000069
1254	1.2467e+02	7.5308	20.827583	-0.000000	-0.000000	-0.000000	0.000000
1255	1.2477e+02	7.5217	20.803360	0.000243	2.434690	0.412448	-0.000024
1256	1.2487e+02	7.5112	20.795286	0.000081	0.811563	0.137483	-0.000008
1257	1.2497e+02	7.5015	20.750878	0.000446	4.463598	0.756154	-0.000045
1258	1.2507e+02	7.4920	20.710506	0.000406	4.057817	0.687413	-0.000041
1259	1.2517e+02	7.4815	20.653986	0.000568	5.680943	0.962378	-0.000057
1260	1.2527e+02	7.4713	20.658024	-0.000041	-0.405782	-0.068741	0.000004
1261	1.2537e+02	7.4612	20.601504	0.000568	5.680943	0.962378	-0.000057
1262	1.2547e+02	7.4512	20.609578	-0.000081	-0.811563	-0.137483	0.000008
1263	1.2557e+02	7.4419	20.569207	0.000406	4.057817	0.687413	-0.000041
1264	1.2567e+02	7.4321	20.504612	0.000649	6.492507	1.099860	-0.000065
1265	1.2577e+02	7.4224	20.520761	-0.000162	-1.623127	-0.274965	0.000016
1266	1.2587e+02	7.4123	20.472315	0.000487	4.869380	0.824895	-0.000049
1267	1.2597e+02	7.4017	20.407721	0.000649	6.492507	1.099860	-0.000065
1268	1.2607e+02	7.3919	20.415795	-0.000081	-0.811563	-0.137483	0.000008
1269	1.2617e+02	7.3822	20.375424	0.000406	4.057817	0.687413	-0.000041
1270	1.2627e+02	7.3715	20.359276	0.000162	1.623127	0.274965	-0.000016
1271	1.2636e+02	7.3621	20.331016	0.000284	2.840472	0.481189	-0.000028
1272	1.2646e+02	7.3522	20.294681	0.000365	3.652035	0.618671	-0.000037
1273	1.2656e+02	7.3426	20.278533	0.000162	1.623127	0.274965	-0.000016
1274	1.2666e+02	7.3318	20.222013	0.000568	5.680943	0.962378	-0.000057
1275	1.2676e+02	7.3230	20.213939	0.000081	0.811563	0.137483	-0.000008
1276	1.2686e+02	7.3115	20.197790	0.000162	1.623127	0.274965	-0.000016
1277	1.2696e+02	7.3024	20.133196	0.000649	6.492507	1.099860	-0.000065
1278	1.2706e+02	7.2922	20.117047	0.000162	1.623127	0.274965	-0.000016
1279	1.2716e+02	7.2816	20.108973	0.000081	0.811563	0.137483	-0.000008
1280	1.2726e+02	7.2729	20.060527	0.000487	4.869380	0.824895	-0.000049
1281	1.2736e+02	7.2622	20.016119	0.000446	4.463598	0.756154	-0.000045
1282	1.2746e+02	7.2526	20.008045	0.000081	0.811563	0.137483	-0.000008
1283	1.2756e+02	7.2424	19.959599	0.000487	4.869380	0.824895	-0.000049
1284	1.2766e+02	7.2326	19.895005	0.000649	6.492507	1.099860	-0.000065
1285	1.2776e+02	7.2230	19.899042	-0.000041	-0.405782	-0.068741	0.000004
1286	1.2786e+02	7.2137	19.834448	0.000649	6.492507	1.099860	-0.000065
1287	1.2796e+02	7.2026	19.818299	0.000162	1.623127	0.274965	-0.000016
1288	1.2806e+02	7.1934	19.794077	0.000243	2.434690	0.412448	-0.000024
1289	1.2816e+02	7.1833	19.798114	-0.000041	-0.405782	-0.068741	0.000004
1290	1.2826e+02	7.1729	19.737557	0.000609	6.086725	1.031119	-0.000061
1291	1.2835e+02	7.1622	19.721408	0.000162	1.623127	0.274965	-0.000016
1292	1.2845e+02	7.1533	19.652777	0.000690	6.898288	1.168602	-0.000069
1293	1.2855e+02	7.1436	19.652777	-0.000000	-0.000000	-0.000000	0.000000
1294	1.2865e+02	7.1330	19.600294	0.000528	5.275162	0.893637	-0.000053
1295	1.2875e+02	7.1233	19.572034	0.000284	2.840472	0.481189	-0.000028
1296	1.2885e+02	7.1131	19.567997	0.000041	0.405782	0.068741	-0.000004
1297	1.2895e+02	7.1046	19.551848	0.000162	1.623127	0.274965	-0.000016
1298	1.2905e+02	7.0933	19.491291	0.000609	6.086725	1.031119	-0.000061
1299	1.2915e+02	7.0836	19.483217	0.000081	0.811563	0.137483	-0.000008
1300	1.2925e+02	7.0736	19.406511	0.000771	7.709852	1.306084	-0.000077
1301	1.2935e+02	7.0631	19.406511	-0.000000	-0.000000	-0.000000	0.000000
1302	1.2945e+02	7.0533	19.394400	0.000122	1.217345	0.206224	-0.000012
1303	1.2955e+02	7.0438	19.341917	0.000528	5.275162	0.893637	-0.000053
1304	1.2965e+02	7.0338	19.358066	-0.000162	-1.623127	-0.274965	0.000016
1305	1.2975e+02	7.0239	19.297509	0.000609	6.086725	1.031119	-0.000061
1306	1.2985e+02	7.0140	19.257137	0.000406	4.057817	0.687413	-0.000041
1307	1.2995e+02	7.0040	19.240989	0.000162	1.623127	0.274965	-0.000016
1308	1.3005e+02	6.9926	19.184469	0.000568	5.680943	0.962378	-0.000057
1309	1.3015e+02	6.9837	19.172358	0.000122	1.217345	0.206224	-0.000012
1310	1.3025e+02	6.9747	19.140061	0.000325	3.246253	0.549930	-0.000032
1311	1.3034e+02	6.9645	19.099689	0.000406	4.057817	0.687413	-0.000041
1312	1.3044e+02	6.9542	19.095652	0.000041	0.405782	0.068741	-0.000004
1313	1.3054e+02	6.9436	19.047206	0.000487	4.869380	0.824895	-0.000049
1314	1.3064e+02	6.9344	19.002798	0.000446	4.463598	0.756154	-0.000045
1315	1.3074e+02	6.9241	18.990687	0.000122	1.217345	0.206224	-0.000012
1316	1.3084e+02	6.9146	18.950315	0.000406	4.057817	0.687413	-0.000041
1317	1.3094e+02	6.9045	18.930129	0.000203	2.028908	0.343706	-0.000020
1318	1.3104e+02	6.8939	18.865535	0.000649	6.492507	1.099860	-0.000065
1319	1.3114e+02	6.8842	18.841312	0.000243	2.434690	0.412448	-0.000024
1320	1.3124e+02	6.8750	18.825164	0.000162	1.623127	0.274965	-0.000016
1321	1.3134e+02	6.8637	18.784793	0.000406	4.057817	0.687413	-0.000041
1322	1.3144e+02	6.8542	18.792867	-0.000081	-0.811563	-0.137483	0.000008
1323	1.3154e+02	6.8451	18.704050	0.000893	8.927197	1.512308	-0.000089
1324	1.3164e+02	6.8357	18.679827	0.000243	2.434690	0.412448	-0.000024
1325	1.3174e+02	6.8245	18.683864	-0.000041	-0.405782	-0.068741	0.000004
1326	1.3184e+02	6.8145	18.647530	0.000365	3.652035	0.618671	-0.000037
1327	1.3194e+02	6.8044	18.574862	0.000730	7.304070	1.237343	-0.000073
1328	1.3204e+02	6.7945	18.554676	0.000203	2.028908	0.343706	-0.000020
1329	1.3214e+02	6.7843	18.534490	0.000203	2.028908	0.343706	-0.000020
1330	1.3224e+02	6.7745	18.510267	0.000243	2.434690	0.412448	-0.000024
1331	1.3234e+02	6.7654	18.469896	0.000406	4.057817	0.687413	-0.000041
1332	1.3243e+02	6.7547	18.421450	0.000487	4.869380	0.824895	-0.000049
1333	1.3253e+02	6.7454	18.397228	0.000243	2.434690	0.412448	-0.000024
1334	1.3263e+02	6.7341	18.364930	0.000325	3.246253	0.549930	-0.000032
1335	1.3273e+02	6.7258	18.336671	0.000284	2.840472	0.481189	-0.000028
1336	1.3283e+02	6.7150	18.316485	0.000203	2.028908	0.343706	-0.000020
1337	1.3293e+02	6.7054	18.280151	0.000365	3.652035	0.618671	-0.000037
1338	1.3303e+02	6.6945	18.203445	0.000771	7.709852	1.306084	-0.000077
1339	1.3313e+02	6.6846	18.227668	-0.000243	-2.434690	-0.412448	0.000024
1340	1.3323e+02	6.6753	18.175185	0.000528	5.275162	0.893637	-0.000053
1341	1.3333e+02	6.6647	18.130777	0.000446	4.463598	0.756154	-0.000045
1342	1.3343e+02	6.6553	18.086368	0.000446	4.463598	0.756154	-0.000045
1343	1.3353e+02	6.6460	18.102517	-0.000162	-1.623127	-0.274965	0.000016
1344	1.3363e+02	6.6360	18.037922	0.000649	6.492507	1.099860	-0.000065
1345	1.3373e+02	6.6270	18.021774	0.000162	1.623127	0.274965	-0.000016
1346	1.3383e+02	6.6155	17.953143	0.000690	6.898288	1.168602	-0.000069
1347	1.3393e+02	6.6055	17.945068	0.000081	0.811563	0.137483	-0.000008
1348	1.3403e+02	6.5954	17.904697	0.000406	4.057817	0.687413	-0.000041
1349	1.3413e+02	6.5853	17.896623	0.000081	0.811563	0.137483	-0.000008
1350	1.3423e+02	6.5758	17.860289	0.000365	3.652035	0.618671	-0.000037
1351	1.3432e+02	6.5667	17.815880	0.000446	4.463598	0.756154	-0.000045
1352	1.3442e+02	6.5563	17.795694	0.000203	2.028908	0.343706	-0.000020
1353	1.3452e+02	6.5462	17.735137	0.000609	6.086725	1.031119	-0.000061
1354	1.3462e+02	6.5366	17.714952	0.000203	2.028908	0.343706	-0.000020
1355	1.3472e+02	6.5268	17.678617	0.000365	3.652035	0.618671	-0.000037
1356	1.3482e+02	6.5170	17.686692	-0.000081	-0.811563	-0.137483	0.000008
1357	1.3492e+02	6.5064	17.646320	0.000406	4.057817	0.687413	-0.000041
1358	1.3502e+02	6.4954	17.605949	0.000406	4.057817	0.687413	-0.000041
1359	1.3512e+02	6.4874	17.541355	0.000649	6.492507	1.099860	-0.000065
1360	1.3522e+02	6.4758	17.505021	0.000365	3.652035	0.618671	-0.000037
1361	1.3532e+02	6.4666	17.505021	-0.000000	-0.000000	-0.000000	0.000000
1362	1.3542e+02	6.4556	17.468686	0.000365	3.652035	0.618671	-0.000037
1363	1.3552e+02	6.4460	17.416204	0.000528	5.275162	0.893637	-0.000053
1364	1.3562e+02	6.4370	17.396018	0.000203	2.028908	0.343706	-0.000020
1365	1.3572e+02	6.4260	17.375832	0.000203	2.028908	0.343706	-0.000020
1366	1.3582e+02	6.4160	17.355647	0.000203	2.028908	0.343706	-0.000020
1367	1.3592e+02	6.4056	17.327387	0.000284	2.840472	0.481189	-0.000028
1368	1.3602e+02	6.3966	17.254718	0.000730	7.304070	1.237343	-0.000073
1369	1.3612e+02	6.3871	17.250681	0.000041	0.405782	0.068741	-0.000004
1370	1.3622e+02	6.3771	17.182050	0.000690	6.898288	1.168602	-0.000069
1371	1.3631e+02	6.3668	17.178013	0.000041	0.405782	0.068741	-0.000004
1372	1.3641e+02	6.3561	17.141678	0.000365	3.652035	0.618671	-0.000037
1373	1.3651e+02	6.3470	17.121493	0.000203	2.028908	0.343706	-0.000020
1374	1.3661e+02	6.3368	17.040750	0.000812	8.115634	1.374826	-0.000081
1375	1.3671e+02	6.3277	17.024601	0.000162	1.623127	0.274965	-0.000016
1376	1.3681e+02	6.3165	16.972119	0.000528	5.275162	0.893637	-0.000053
1377	1.3691e+02	6.3068	16.972119	-0.000000	-0.000000	-0.000000	0.000000
1378	1.3701e+02	6.2981	16.915599	0.000568	5.680943	0.962378	-0.000057
1379	1.3711e+02	6.2887	16.919636	-0.000041	-0.405782	-0.068741	0.000004
1380	1.3721e+02	6.2786	16.867153	0.000528	5.275162	0.893637	-0.000053
1381	1.3731e+02	6.2684	16.842930	0.000243	2.434690	0.412448	-0.000024
1382	1.3741e+02	6.2585	16.786410	0.000568	5.680943	0.962378	-0.000057
1383	1.3751e+02	6.2482	16.774299	0.000122	1.217345	0.206224	-0.000012
1384	1.3761e+02	6.2374	16.717779	0.000568	5.680943	0.962378	-0.000057
1385	1.3771e+02	6.2284	16.665296	0.000528	5.275162	0.893637	-0.000053
1386	1.3781e+02	6.2182	16.657222	0.000081	0.811563	0.137483	-0.000008
1387	1.3791e+02	6.2084	16.624925	0.000325	3.246253	0.549930	-0.000032
1388	1.3801e+02	6.1980	16.572442	0.000528	5.275162	0.893637	-0.000053
1389	1.3811e+02	6.1886	16.511885	0.000609	6.086725	1.031119	-0.000061
1390	1.3821e+02	6.1785	16.523997	-0.000122	-1.217345	-0.206224	0.000012
1391	1.3831e+02	6.1686	16.463440	0.000609	6.086725	1.031119	-0.000061
1392	1.3840e+02	6.1579	16.447291	0.000162	1.623127	0.274965	-0.000016
1393	1.3850e+02	6.1485	16.406920	0.000406	4.057817	0.687413	-0.000041
1394	1.3860e+02	6.1370	16.382697	0.000243	2.434690	0.412448	-0.000024
1395	1.3870e+02	6.1285	16.330214	0.000528	5.275162	0.893637	-0.000053
1396	1.3880e+02	6.1178	16.297917	0.000325	3.246253	0.549930	-0.000032
1397	1.3890e+02	6.1090	16.261583	0.000365	3.652035	0.618671	-0.000037
1398	1.3900e+02	6.0978	16.237360	0.000243	2.434690	0.412448	-0.000024
1399	1.3910e+02	6.0887	16.184877	0.000528	5.275162	0.893637	-0.000053
1400	1.3920e+02	6.0796	16.160654	0.000243	2.434690	0.412448	-0.000024
1401	1.3930e+02	6.0694	16.096060	0.000649	6.492507	1.099860	-0.000065
1402	1.3940e+02	6.0584	16.112209	-0.000162	-1.623127	-0.274965	0.000016
1403	1.3950e+02	6.0494	16.063763	0.000487	4.869380	0.824895	-0.000049
1404	1.3960e+02	6.0383	16.019355	0.000446	4.463598	0.756154	-0.000045
1405	1.3970e+02	6.0290	16.019355	-0.000000	-0.000000	-0.000000	0.000000
1406	1.3980e+02	6.0189	15.922463	0.000974	9.738760	1.649791	-0.000097
1407	1.3990e+02	6.0091	15.918426	0.000041	0.405782	0.068741	-0.000004
1408	1.4000e+02	5.9992	15.874018	0.000446	4.463598	0.756154	-0.000045
1409	1.4010e+02	5.9899	15.833646	0.000406	4.057817	0.687413	-0.000041
1410	1.4020e+02	5.9796	15.789238	0.000446	4.463598	0.756154	-0.000045
1411	1.4029e+02	5.9695	15.801349	-0.000122	-1.217345	-0.206224	0.000012
1412	1.4039e+02	5.9597	15.760978	0.000406	4.057817	0.687413	-0.000041
1413	1.4049e+02	5.9494	15.765015	-0.000041	-0.405782	-0.068741	0.000004
1414	1.4059e+02	5.9394	15.668124	0.000974	9.738760	1.649791	-0.000097
1415	1.4069e+02	5.9296	15.676198	-0.000081	-0.811563	-0.137483	0.000008
1416	1.4079e+02	5.9197	15.643901	0.000325	3.246253	0.549930	-0.000032
1417	1.4089e+02	5.9092	15.555084	0.000893	8.927197	1.512308	-0.000089
1418	1.4099e+02	5.8996	15.530861	0.000243	2.434690	0.412448	-0.000024
1419	1.4109e+02	5.8907	15.482416	0.000487	4.869380	0.824895	-0.000049
1420	1.4119e+02	5.8804	15.458193	0.000243	2.434690	0.412448	-0.000024
1421	1.4129e+02	5.8701	15.417821	0.000406	4.057817	0.687413	-0.000041
1422	1.4139e+02	5.8595	15.417821	-0.000000	-0.000000	-0.000000	0.000000
1423	1.4149e+02	5.8501	15.365339	0.000528	5.275162	0.893637	-0.000053
1424	1.4159e+02	5.8379	15.357264	0.000081	0.811563	0.137483	-0.000008
1425	1.4169e+02	5.8305	15.288633	0.000690	6.898288	1.168602	-0.000069
1426	1.4179e+02	5.8208	15.276522	0.000122	1.217345	0.206224	-0.000012
1427	1.4189e+02	5.8112	15.187705	0.000893	8.927197	1.512308	-0.000089
1428	1.4199e+02	5.8001	15.183668	0.000041	0.405782	0.068741	-0.000004
1429	1.4209e+02	5.7905	15.115036	0.000690	6.898288	1.168602	-0.000069
1430	1.4219e+02	5.7805	15.123110	-0.000081	-0.811563	-0.137483	0.000008
1431	1.4228e+02	5.7705	15.078702	0.000446	4.463598	0.756154	-0.000045
1432	1.4238e+02	5.7601	15.062553	0.000162	1.623127	0.274965	-0.000016
1433	1.4248e+02	5.7497	15.022182	0.000406	4.057817	0.687413	-0.000041
1434	1.4258e+02	5.7406	14.933365	0.000893	8.927197	1.512308	-0.000089
1435	1.4268e+02	5.7305	14.925291	0.000081	0.811563	0.137483	-0.000008
1436	1.4278e+02	5.7207	14.905105	0.000203	2.028908	0.343706	-0.000020
1437	1.4288e+02	5.7098	14.888957	0.000162	1.623127	0.274965	-0.000016
1438	1.4298e+02	5.7003	14.840511	0.000487	4.869380	0.824895	-0.000049
1439	1.4308e+02	5.6911	14.808214	0.000325	3.246253	0.549930	-0.000032
1440	1.4318e+02	5.6807	14.755731	0.000528	5.275162	0.893637	-0.000053
1441	1.4328e+02	5.6709	14.719397	0.000365	3.652035	0.618671	-0.000037
1442	1.4338e+02	5.6622	14.670951	0.000487	4.869380	0.824895	-0.000049
1443	1.4348e+02	5.6518	14.642691	0.000284	2.840472	0.481189	-0.000028
1444	1.4358e+02	5.6414	14.610394	0.000325	3.246253	0.549930	-0.000032
1445	1.4368e+02	5.6319	14.578097	0.000325	3.246253	0.549930	-0.000032
1446	1.4378e+02	5.6216	14.525614	0.000528	5.275162	0.893637	-0.000053
1447	1.4388e+02	5.6115	14.497354	0.000284	2.840472	0.481189	-0.000028
1448	1.4398e+02	5.6010	14.481206	0.000162	1.623127	0.274965	-0.000016
1449	1.4408e+02	5.5910	14.376240	0.001055	10.550324	1.787273	-0.000105
1450	1.4418e+02	5.5811	14.388352	-0.000122	-1.217345	-0.206224	0.000012
1451	1.4428e+02	5.5714	14.356055	0.000325	3.246253	0.549930	-0.000032
1452	1.4437e+02	5.5605	14.303572	0.000528	5.275162	0.893637	-0.000053
1453	1.4447e+02	5.5517	14.259163	0.000446	4.463598	0.756154	-0.000045
1454	1.4457e+02	5.5412	14.263201	-0.000041	-0.405782	-0.068741	0.000004
1455	1.4467e+02	5.5312	14.210718	0.000528	5.275162	0.893637	-0.000053
1456	1.4477e+02	5.5225	14.146124	0.000649	6.492507	1.099860	-0.000065
1457	1.4487e+02	5.5118	14.142086	0.000041	0.405782	0.068741	-0.000004
1458	1.4497e+02	5.5018	14.085567	0.000568	5.680943	0.962378	-0.000057
1459	1.4507e+02	5.4916	14.081529	0.000041	0.405782	0.068741	-0.000004
1460	1.4517e+02	5.4810	14.004824	0.000771	7.709852	1.306084	-0.000077
1461	1.4527e+02	5.4717	14.004824	-0.000000	-0.000000	-0.000000	0.000000
1462	1.4537e+02	5.4620	13.976564	0.000284	2.840472	0.481189	-0.000028
1463	1.4547e+02	5.4531	13.916007	0.000609	6.086725	1.031119	-0.000061
1464	1.4557e+02	5.4420	13.875636	0.000406	4.057817	0.687413	-0.000041
1465	1.4567e+02	5.4317	13.855450	0.000203	2.028908	0.343706	-0.000020
1466	1.4577e+02	5.4220	13.811041	0.000446	4.463598	0.756154	-0.000045
1467	1.4587e+02	5.4127	13.774707	0.000365	3.652035	0.618671	-0.000037
1468	1.4597e+02	5.4023	13.754521	0.000203	2.028908	0.343706	-0.000020
1469	1.4607e+02	5.3924	13.706076	0.000487	4.869380	0.824895	-0.000049
1470	1.4617e+02	5.3820	13.649556	0.000568	5.680943	0.962378	-0.000057
1471	1.4626e+02	5.3720	13.613222	0.000365	3.652035	0.618671	-0.000037
1472	1.4636e+02	5.3619	13.605147	0.000081	0.811563	0.137483	-0.000008
1473	1.4646e+02	5.3538	13.568813	0.000365	3.652035	0.618671	-0.000037
1474	1.4656e+02	5.3420	13.500182	0.000690	6.898288	1.168602	-0.000069
1475	1.4666e+02	5.3325	13.475959	0.000243	2.434690	0.412448	-0.000024
1476	1.4676e+02	5.3223	13.447699	0.000284	2.840472	0.481189	-0.000028
1477	1.4686e+02	5.3126	13.423476	0.000243	2.434690	0.412448	-0.000024
1478	1.4696e+02	5.3033	13.366956	0.000568	5.680943	0.962378	-0.000057
1479	1.4706e+02	5.2920	13.318511	0.000487	4.869380	0.824895	-0.000049
1480	1.4716e+02	5.2824	13.306399	0.000122	1.217345	0.206224	-0.000012
1481	1.4726e+02	5.2726	13.261991	0.000446	4.463598	0.756154	-0.000045
1482	1.4736e+02	5.2630	13.205471	0.000568	5.680943	0.962378	-0.000057
1483	1.4746e+02	5.2531	13.205471	-0.000000	-0.000000	-0.000000	0.000000
1484	1.4756e+02	5.2428	13.161063	0.000446	4.463598	0.756154	-0.000045
1485	1.4766e+02	5.2328	13.140877	0.000203	2.028908	0.343706	-0.000020
1486	1.4776e+02	5.2225	13.080320	0.000609	6.086725	1.031119	-0.000061
1487	1.4786e+02	5.2129	13.015726	0.000649	6.492507	1.099860	-0.000065
1488	1.4796e+02	5.2035	12.987466	0.000284	2.840472	0.481189	-0.000028
1489	1.4806e+02	5.1934	12.987466	-0.000000	-0.000000	-0.000000	0.000000
1490	1.4816e+02	5.1828	12.910760	0.000771	7.709852	1.306084	-0.000077
1491	1.4825e+02	5.1728	12.866352	0.000446	4.463598	0.756154	-0.000045
1492	1.4835e+02	5.1630	12.821943	0.000446	4.463598	0.756154	-0.000045
1493	1.4845e+02	5.1514	12.813869	0.000081	0.811563	0.137483	-0.000008
1494	1.4855e+02	5.1438	12.769460	0.000446	4.463598	0.756154	-0.000045
1495	1.4865e+02	5.1331	12.712940	0.000568	5.680943	0.962378	-0.000057
1496	1.4875e+02	5.1232	12.696792	0.000162	1.623127	0.274965	-0.000016
1497	1.4885e+02	5.1131	12.684680	0.000122	1.217345	0.206224	-0.000012
1498	1.4895e+02	5.1043	12.599901	0.000852	8.521415	1.443567	-0.000085
1499	1.4905e+02	5.0928	12.567604	0.000325	3.246253	0.549930	-0.000032
1500	1.4915e+02	5.0830	12.567604	-0.000000	-0.000000	-0.000000	0.000000
1501	1.4925e+02	5.0741	12.478787	0.000893	8.927197	1.512308	-0.000089
1502	1.4935e+02	5.0635	12.486861	-0.000081	-0.811563	-0.137483	0.000008
1503	1.4945e+02	5.0546	12.434378	0.000528	5.275162	0.893637	-0.000053
1504	1.4955e+02	5.0440	12.414192	0.000203	2.028908	0.343706	-0.000020
1505	1.4965e+02	5.0344	12.333450	0.000812	8.115634	1.374826	-0.000081
1506	1.4975e+02	5.0249	12.280967	0.000528	5.275162	0.893637	-0.000053
1507	1.4985e+02	5.0144	12.276930	0.000041	0.405782	0.068741	-0.000004
1508	1.4995e+02	5.0039	12.216373	0.000609	6.086725	1.031119	-0.000061
1509	1.5005e+02	4.9952	12.216373	-0.000000	-0.000000	-0.000000	0.000000
1510	1.5015e+02	4.9841	12.155816	0.000609	6.086725	1.031119	-0.000061
1511	1.5025e+02	4.9745	12.131593	0.000243	2.434690	0.412448	-0.000024
1512	1.5034e+02	4.9649	12.083147	0.000487	4.869380	0.824895	-0.000049
1513	1.5044e+02	4.9551	12.038739	0.000446	4.463598	0.756154	-0.000045
1514	1.5054e+02	4.9439	12.030664	0.000081	0.811563	0.137483	-0.000008
1515	1.5064e+02	4.9344	11.986256	0.000446	4.463598	0.756154	-0.000045
1516	1.5074e+02	4.9246	11.929736	0.000568	5.680943	0.962378	-0.000057
1517	1.5084e+02	4.9148	11.897439	0.000325	3.246253	0.549930	-0.000032
1518	1.5094e+02	4.9050	11.857068	0.000406	4.057817	0.687413	-0.000041
1519	1.5104e+02	4.8952	11.812659	0.000446	4.463598	0.756154	-0.000045
1520	1.5114e+02	4.8843	11.792473	0.000203	2.028908	0.343706	-0.000020
1521	1.5124e+02	4.8759	11.727879	0.000649	6.492507	1.099860	-0.000065
1522	1.5134e+02	4.8658	11.727879	-0.000000	-0.000000	-0.000000	0.000000
1523	1.5144e+02	4.8565	11.626951	0.001014	10.144542	1.718532	-0.000101
1524	1.5154e+02	4.8452	11.635025	-0.000081	-0.811563	-0.137483	0.000008
1525	1.5164e+02	4.8354	11.558320	0.000771	7.709852	1.306084	-0.000077
1526	1.5174e+02	4.8251	11.546208	0.000122	1.217345	0.206224	-0.000012
1527	1.5184e+02	4.8148	11.481614	0.000649	6.492507	1.099860	-0.000065
1528	1.5194e+02	4.8052	11.465465	0.000162	1.623127	0.274965	-0.000016
1529	1.5204e+02	4.7958	11.417020	0.000487	4.869380	0.824895	-0.000049
1530	1.5214e+02	4.7849	11.364537	0.000528	5.275162	0.893637	-0.000053
1531	1.5224e+02	4.7748	11.380686	-0.000162	-1.623127	-0.274965	0.000016
1532	1.5233e+02	4.7656	11.308017	0.000730	7.304070	1.237343	-0.000073
1533	1.5243e+02	4.7562	11.271683	0.000365	3.652035	0.618671	-0.000037
1534	1.5253e+02	4.7458	11.203052	0.000690	6.898288	1.168602	-0.000069
1535	1.5263e+02	4.7350	11.174792	0.000284	2.840472	0.481189	-0.000028
1536	1.5273e+02	4.7251	11.170755	0.000041	0.405782	0.068741	-0.000004
1537	1.5283e+02	4.7160	11.090012	0.000812	8.115634	1.374826	-0.000081
1538	1.5293e+02	4.7060	11.102123	-0.000122	-1.217345	-0.206224	0.000012
1539	1.5303e+02	4.6961	11.045603	0.000568	5.680943	0.962378	-0.000057
1540	1.5313e+02	4.6860	11.005232	0.000406	4.057817	0.687413	-0.000041
1541	1.5323e+02	4.6764	10.952749	0.000528	5.275162	0.893637	-0.000053
1542	1.5333e+02	4.6656	10.920452	0.000325	3.246253	0.549930	-0.000032
1543	1.5343e+02	4.6563	10.896229	0.000243	2.434690	0.412448	-0.000024
1544	1.5353e+02	4.6458	10.888155	0.000081	0.811563	0.137483	-0.000008
1545	1.5363e+02	4.6354	10.795301	0.000933	9.332979	1.581049	-0.000093
1546	1.5373e+02	4.6262	10.807412	-0.000122	-1.217345	-0.206224	0.000012
1547	1.5383e+02	4.6160	10.734744	0.000730	7.304070	1.237343	-0.000073
1548	1.5393e+02	4.6062	10.698410	0.000365	3.652035	0.618671	-0.000037
1549	1.5403e+02	4.5959	10.654001	0.000446	4.463598	0.756154	-0.000045
1550	1.5413e+02	4.5852	10.613630	0.000406	4.057817	0.687413	-0.000041
1551	1.5422e+02	4.5773	10.553073	0.000609	6.086725	1.031119	-0.000061
1552	1.5432e+02	4.5662	10.516739	0.000365	3.652035	0.618671	-0.000037
1553	1.5442e+02	4.5567	10.488479	0.000284	2.840472	0.481189	-0.000028
1554	1.5452e+02	4.5461	10.423884	0.000649	6.492507	1.099860	-0.000065
1555	1.5462e+02	4.5367	10.423884	-0.000000	-0.000000	-0.000000	0.000000
1556	1.5472e+02	4.5261	10.347179	0.000771	7.709852	1.306084	-0.000077
1557	1.5482e+02	4.5166	10.318919	0.000284	2.840472	0.481189	-0.000028
1558	1.5492e+02	4.5079	10.282585	0.000365	3.652035	0.618671	-0.000037
1559	1.5502e+02	4.4971	10.274510	0.000081	0.811563	0.137483	-0.000008
1560	1.5512e+02	4.4863	10.209916	0.000649	6.492507	1.099860	-0.000065
1561	1.5522e+02	4.4771	10.177619	0.000325	3.246253	0.549930	-0.000032
1562	1.5532e+02	4.4664	10.121099	0.000568	5.680943	0.962378	-0.000057
1563	1.5542e+02	4.4564	10.076691	0.000446	4.463598	0.756154	-0.000045
1564	1.5552e+02	4.4473	10.024208	0.000528	5.275162	0.893637	-0.000053
1565	1.5562e+02	4.4370	9.971725	0.000528	5.275162	0.893637	-0.000053
1566	1.5572e+02	4.4272	9.931354	0.000406	4.057817	0.687413	-0.000041
1567	1.5582e+02	4.4175	9.927317	0.000041	0.405782	0.068741	-0.000004
1568	1.5592e+02	4.4083	9.907131	0.000203	2.028908	0.343706	-0.000020
1569	1.5602e+02	4.3975	9.838500	0.000690	6.898288	1.168602	-0.000069
1570	1.5612e+02	4.3874	9.777943	0.000609	6.086725	1.031119	-0.000061
1571	1.5622e+02	4.3787	9.765831	0.000122	1.217345	0.206224	-0.000012
1572	1.5631e+02	4.3671	9.717386	0.000487	4.869380	0.824895	-0.000049
1573	1.5641e+02	4.3579	9.652792	0.000649	6.492507	1.099860	-0.000065
1574	1.5651e+02	4.3478	9.636643	0.000162	1.623127	0.274965	-0.000016
1575	1.5661e+02	4.3375	9.596272	0.000406	4.057817	0.687413	-0.000041
1576	1.5671e+02	4.3270	9.539752	0.000568	5.680943	0.962378	-0.000057
1577	1.5681e+02	4.3179	9.483232	0.000568	5.680943	0.962378	-0.000057
1578	1.5691e+02	4.3081	9.475158	0.000081	0.811563	0.137483	-0.000008
1579	1.5701e+02	4.2974	9.430749	0.000446	4.463598	0.756154	-0.000045
1580	1.5711e+02	4.2867	9.374229	0.000568	5.680943	0.962378	-0.000057
1581	1.5721e+02	4.2790	9.333858	0.000406	4.057817	0.687413	-0.000041
1582	1.5731e+02	4.2680	9.289449	0.000446	4.463598	0.756154	-0.000045
1583	1.5741e+02	4.2587	9.273301	0.000162	1.623127	0.274965	-0.000016
1584	1.5751e+02	4.2477	9.204669	0.000690	6.898288	1.168602	-0.000069
1585	1.5761e+02	4.2383	9.140075	0.000649	6.492507	1.099860	-0.000065
1586	1.5771e+02	4.2281	9.119890	0.000203	2.028908	0.343706	-0.000020
1587	1.5781e+02	4.2184	9.091630	0.000284	2.840472	0.481189	-0.000028
1588	1.5791e+02	4.2085	9.055295	0.000365	3.652035	0.618671	-0.000037
1589	1.5801e+02	4.1980	8.990701	0.000649	6.492507	1.099860	-0.000065
1590	1.5811e+02	4.1887	8.958404	0.000325	3.246253	0.549930	-0.000032
1591	1.5821e+02	4.1785	8.918033	0.000406	4.057817	0.687413	-0.000041
1592	1.5830e+02	4.1681	8.893810	0.000243	2.434690	0.412448	-0.000024
1593	1.5840e+02	4.1579	8.861513	0.000325	3.246253	0.549930	-0.000032
1594	1.5850e+02	4.1474	8.776733	0.000852	8.521415	1.443567	-0.000085
1595	1.5860e+02	4.1383	8.756547	0.000203	2.028908	0.343706	-0.000020
1596	1.5870e+02	4.1288	8.716176	0.000406	4.057817	0.687413	-0.000041
1597	1.5880e+02	4.1187	8.667730	0.000487	4.869380	0.824895	-0.000049
1598	1.5890e+02	4.1087	8.635433	0.000325	3.246253	0.549930	-0.000032
1599	1.5900e+02	4.0987	8.599099	0.000365	3.652035	0.618671	-0.000037
1600	1.5910e+02	4.0880	8.510282	0.000893	8.927197	1.512308	-0.000089
1601	1.5920e+02	4.0784	8.518356	-0.000081	-0.811563	-0.137483	0.000008
1602	1.5930e+02	4.0685	8.506245	0.000122	1.217345	0.206224	-0.000012
1603	1.5940e+02	4.0588	8.421465	0.000852	8.521415	1.443567	-0.000085
1604	1.5950e+02	4.0496	8.368982	0.000528	5.275162	0.893637	-0.000053
1605	1.5960e+02	4.0394	8.344760	0.000243	2.434690	0.412448	-0.000024
1606	1.5970e+02	4.0298	8.288240	0.000568	5.680943	0.962378	-0.000057
1607	1.5980e+02	4.0189	8.239794	0.000487	4.869380	0.824895	-0.000049
1608	1.5990e+02	4.0090	8.235757	0.000041	0.405782	0.068741	-0.000004
1609	1.6000e+02	3.9993	8.175200	0.000609	6.086725	1.031119	-0.000061
1610	1.6010e+02	3.9888	8.122717	0.000528	5.275162	0.893637	-0.000053
1611	1.6019e+02	3.9796	8.106569	0.000162	1.623127	0.274965	-0.000016
1612	1.6029e+02	3.9697	8.050049	0.000568	5.680943	0.962378	-0.000057
1613	1.6039e+02	3.9596	7.997566	0.000528	5.275162	0.893637	-0.000053
1614	1.6049e+02	3.9494	7.932972	0.000649	6.492507	1.099860	-0.000065
1615	1.6059e+02	3.9392	7.924897	0.000081	0.811563	0.137483	-0.000008
1616	1.6069e+02	3.9291	7.916823	0.000081	0.811563	0.137483	-0.000008
1617	1.6079e+02	3.9193	7.836080	0.000812	8.115634	1.374826	-0.000081
1618	1.6089e+02	3.9094	7.819932	0.000162	1.623127	0.274965	-0.000016
1619	1.6099e+02	3.8997	7.714966	0.001055	10.550324	1.787273	-0.000105
1620	1.6109e+02	3.8897	7.719004	-0.000041	-0.405782	-0.068741	0.000004
1621	1.6119e+02	3.8793	7.642298	0.000771	7.709852	1.306084	-0.000077
1622	1.6129e+02	3.8705	7.605964	0.000365	3.652035	0.618671	-0.000037
1623	1.6139e+02	3.8611	7.581741	0.000243	2.434690	0.412448	-0.000024
1624	1.6149e+02	3.8500	7.517147	0.000649	6.492507	1.099860	-0.000065
1625	1.6159e+02	3.8406	7.492924	0.000243	2.434690	0.412448	-0.000024
1626	1.6169e+02	3.8304	7.440441	0.000528	5.275162	0.893637	-0.000053
1627	1.6179e+02	3.8203	7.432367	0.000081	0.811563	0.137483	-0.000008
1628	1.6189e+02	3.8101	7.335476	0.000974	9.738760	1.649791	-0.000097
1629	1.6199e+02	3.7996	7.307216	0.000284	2.840472	0.481189	-0.000028
1630	1.6209e+02	3.7901	7.266844	0.000406	4.057817	0.687413	-0.000041
1631	1.6219e+02	3.7817	7.206287	0.000609	6.086725	1.031119	-0.000061
1632	1.6228e+02	3.7702	7.198213	0.000081	0.811563	0.137483	-0.000008
1633	1.6238e+02	3.7617	7.141693	0.000568	5.680943	0.962378	-0.000057
1634	1.6248e+02	3.7508	7.101322	0.000406	4.057817	0.687413	-0.000041
1635	1.6258e+02	3.7414	7.040765	0.000609	6.086725	1.031119	-0.000061
1636	1.6268e+02	3.7301	7.016542	0.000243	2.434690	0.412448	-0.000024
1637	1.6278e+02	3.7205	6.968096	0.000487	4.869380	0.824895	-0.000049
1638	1.6288e+02	3.7109	6.927725	0.000406	4.057817	0.687413	-0.000041
1639	1.6298e+02	3.7020	6.879279	0.000487	4.869380	0.824895	-0.000049
1640	1.6308e+02	3.6913	6.855056	0.000243	2.434690	0.412448	-0.000024
1641	1.6318e+02	3.6817	6.786425	0.000690	6.898288	1.168602	-0.000069
1642	1.6328e+02	3.6707	6.733942	0.000528	5.275162	0.893637	-0.000053
1643	1.6338e+02	3.6607	6.701645	0.000325	3.246253	0.549930	-0.000032
1644	1.6348e+02	3.6519	6.697608	0.000041	0.405782	0.068741	-0.000004
1645	1.6358e+02	3.6410	6.616865	0.000812	8.115634	1.374826	-0.000081
1646	1.6368e+02	3.6321	6.624940	-0.000081	-0.811563	-0.137483	0.000008
1647	1.6378e+02	3.6214	6.556308	0.000690	6.898288	1.168602	-0.000069
1648	1.6388e+02	3.6106	6.495751	0.000609	6.086725	1.031119	-0.000061
1649	1.6398e+02	3.6016	6.423083	0.000730	7.304070	1.237343	-0.000073
1650	1.6408e+02	3.5911	6.447306	-0.000243	-2.434690	-0.412448	0.000024
1651	1.6418e+02	3.5817	6.334266	0.001136	11.361887	1.924756	-0.000114
1652	1.6427e+02	3.5719	6.310043	0.000243	2.434690	0.412448	-0.000024
1653	1.6437e+02	3.5616	6.293895	0.000162	1.623127	0.274965	-0.000016
1654	1.6447e+02	3.5506	6.233338	0.000609	6.086725	1.031119	-0.000061
1655	1.6457e+02	3.5419	6.188929	0.000446	4.463598	0.756154	-0.000045
1656	1.6467e+02	3.5310	6.152595	0.000365	3.652035	0.618671	-0.000037
1657	1.6477e+02	3.5217	6.128372	0.000243	2.434690	0.412448	-0.000024
1658	1.6487e+02	3.5119	6.067815	0.000609	6.086725	1.031119	-0.000061
1659	1.6497e+02	3.5012	5.999184	0.000690	6.898288	1.168602	-0.000069
1660	1.6507e+02	3.4916	5.966887	0.000325	3.246253	0.549930	-0.000032
1661	1.6517e+02	3.4823	5.938627	0.000284	2.840472	0.481189	-0.000028
1662	1.6527e+02	3.4726	5.861921	0.000771	7.709852	1.306084	-0.000077
1663	1.6537e+02	3.4618	5.833661	0.000284	2.840472	0.481189	-0.000028
1664	1.6547e+02	3.4519	5.781178	0.000528	5.275162	0.893637	-0.000053
1665	1.6557e+02	3.4422	5.760993	0.000203	2.028908	0.343706	-0.000020
1666	1.6567e+02	3.4312	5.688324	0.000730	7.304070	1.237343	-0.000073
1667	1.6577e+02	3.4225	5.619693	0.000690	6.898288	1.168602	-0.000069
1668	1.6587e+02	3.4129	5.615656	0.000041	0.405782	0.068741	-0.000004
1669	1.6597e+02	3.4023	5.583359	0.000325	3.246253	0.549930	-0.000032
1670	1.6607e+02	3.3924	5.522802	0.000609	6.086725	1.031119	-0.000061
1671	1.6616e+02	3.3824	5.490505	0.000325	3.246253	0.549930	-0.000032
1672	1.6626e+02	3.3728	5.425910	0.000649	6.492507	1.099860	-0.000065
1673	1.6636e+02	3.3624	5.349205	0.000771	7.709852	1.306084	-0.000077
1674	1.6646e+02	3.3533	5.341131	0.000081	0.811563	0.137483	-0.000008
1675	1.6656e+02	3.3429	5.337093	0.000041	0.405782	0.068741	-0.000004
1676	1.6666e+02	3.3321	5.252314	0.000852	8.521415	1.443567	-0.000085
1677	1.6676e+02	3.3228	5.215979	0.000365	3.652035	0.618671	-0.000037
1678	1.6686e+02	3.3131	5.179645	0.000365	3.652035	0.618671	-0.000037
1679	1.6696e+02	3.3030	5.102940	0.000771	7.709852	1.306084	-0.000077
1680	1.6706e+02	3.2918	5.058531	0.000446	4.463598	0.756154	-0.000045
1681	1.6716e+02	3.2835	5.046420	0.000122	1.217345	0.206224	-0.000012
1682	1.6726e+02	3.2727	4.973751	0.000730	7.304070	1.237343	-0.000073
1683	1.6736e+02	3.2631	4.933380	0.000406	4.057817	0.687413	-0.000041
1684	1.6746e+02	3.2525	4.880897	0.000528	5.275162	0.893637	-0.000053
1685	1.6756e+02	3.2442	4.812266	0.000690	6.898288	1.168602	-0.000069
1686	1.6766e+02	3.2337	4.804192	0.000081	0.811563	0.137483	-0.000008
1687	1.6776e+02	3.2225	4.731523	0.000730	7.304070	1.237343	-0.000073
1688	1.6786e+02	3.2140	4.707300	0.000243	2.434690	0.412448	-0.000024
1689	1.6796e+02	3.2032	4.679040	0.000284	2.840472	0.481189	-0.000028
1690	1.6806e+02	3.1930	4.614446	0.000649	6.492507	1.099860	-0.000065
1691	1.6816e+02	3.1838	4.566001	0.000487	4.869380	0.824895	-0.000049
1692	1.6825e+02	3.1735	4.533703	0.000325	3.246253	0.549930	-0.000032
1693	1.6835e+02	3.1638	4.501406	0.000325	3.246253	0.549930	-0.000032
1694	1.6845e+02	3.1530	4.436812	0.000649	6.492507	1.099860	-0.000065
1695	1.6855e+02	3.1437	4.396441	0.000406	4.057817	0.687413	-0.000041
1696	1.6865e+02	3.1347	4.356069	0.000406	4.057817	0.687413	-0.000041
1697	1.6875e+02	3.1243	4.303587	0.000528	5.275162	0.893637	-0.000053
1698	1.6885e+02	3.1134	4.247067	0.000568	5.680943	0.962378	-0.000057
1699	1.6895e+02	3.1043	4.222844	0.000243	2.434690	0.412448	-0.000024
1700	1.6905e+02	3.0935	4.146138	0.000771	7.709852	1.306084	-0.000077
1701	1.6915e+02	3.0836	4.142101	0.000041	0.405782	0.068741	-0.000004
1702	1.6925e+02	3.0743	4.061359	0.000812	8.115634	1.374826	-0.000081
1703	1.6935e+02	3.0640	4.041173	0.000203	2.028908	0.343706	-0.000020
1704	1.6945e+02	3.0534	3.964467	0.000771	7.709852	1.306084	-0.000077
1705	1.6955e+02	3.0432	3.956393	0.000081	0.811563	0.137483	-0.000008
1706	1.6965e+02	3.0338	3.940244	0.000162	1.623127	0.274965	-0.000016
1707	1.6975e+02	3.0246	3.827205	0.001136	11.361887	1.924756	-0.000114
1708	1.6985e+02	3.0143	3.794908	0.000325	3.246253	0.549930	-0.000032
1709	1.6995e+02	3.0049	3.774722	0.000203	2.028908	0.343706	-0.000020
1710	1.7005e+02	2.9942	3.698016	0.000771	7.709852	1.306084	-0.000077
1711	1.7015e+02	2.9842	3.617274	0.000812	8.115634	1.374826	-0.000081
1712	1.7024e+02	2.9740	3.601125	0.000162	1.623127	0.274965	-0.000016
1713	1.7034e+02	2.9642	3.572865	0.000284	2.840472	0.481189	-0.000028
1714	1.7044e+02	2.9546	3.548642	0.000243	2.434690	0.412448	-0.000024
1715	1.7054e+02	2.9453	3.467900	0.000812	8.115634	1.374826	-0.000081
1716	1.7064e+02	2.9344	3.423491	0.000446	4.463598	0.756154	-0.000045
1717	1.7074e+02	2.9243	3.387157	0.000365	3.652035	0.618671	-0.000037
1718	1.7084e+02	2.9145	3.338711	0.000487	4.869380	0.824895	-0.000049
1719	1.7094e+02	2.9050	3.286228	0.000528	5.275162	0.893637	-0.000053
1720	1.7104e+02	2.8941	3.237783	0.000487	4.869380	0.824895	-0.000049
1721	1.7114e+02	2.8851	3.177226	0.000609	6.086725	1.031119	-0.000061
1722	1.7124e+02	2.8746	3.165114	0.000122	1.217345	0.206224	-0.000012
1723	1.7134e+02	2.8640	3.092446	0.000730	7.304070	1.237343	-0.000073
1724	1.7144e+02	2.8545	3.019778	0.000730	7.304070	1.237343	-0.000073
1725	1.7154e+02	2.8445	2.955183	0.000649	6.492507	1.099860	-0.000065
1726	1.7164e+02	2.8351	2.914812	0.000406	4.057817	0.687413	-0.000041
1727	1.7174e+02	2.8246	2.890589	0.000243	2.434690	0.412448	-0.000024
1728	1.7184e+02	2.8152	2.858292	0.000325	3.246253	0.549930	-0.000032
1729	1.7194e+02	2.8050	2.797735	0.000609	6.086725	1.031119	-0.000061
1730	1.7204e+02	2.7946	2.757364	0.000406	4.057817	0.687413	-0.000041
1731	1.7213e+02	2.7869	2.729104	0.000284	2.840472	0.481189	-0.000028
1732	1.7223e+02	2.7746	2.636250	0.000933	9.332979	1.581049	-0.000093
1733	1.7233e+02	2.7653	2.624138	0.000122	1.217345	0.206224	-0.000012
1734	1.7243e+02	2.7549	2.531284	0.000933	9.332979	1.581049	-0.000093
1735	1.7253e+02	2.7449	2.490913	0.000406	4.057817	0.687413	-0.000041
1736	1.7263e+02	2.7346	2.450541	0.000406	4.057817	0.687413	-0.000041
1737	1.7273e+02	2.7264	2.406133	0.000446	4.463598	0.756154	-0.000045
1738	1.7283e+02	2.7160	2.337502	0.000690	6.898288	1.168602	-0.000069
1739	1.7293e+02	2.7060	2.305205	0.000325	3.246253	0.549930	-0.000032
1740	1.7303e+02	2.6955	2.285019	0.000203	2.028908	0.343706	-0.000020
1741	1.7313e+02	2.6864	2.192165	0.000933	9.332979	1.581049	-0.000093
1742	1.7323e+02	2.6756	2.131608	0.000609	6.086725	1.031119	-0.000061
1743	1.7333e+02	2.6651	2.143719	-0.000122	-1.217345	-0.206224	0.000012
1744	1.7343e+02	2.6559	2.099311	0.000446	4.463598	0.756154	-0.000045
1745	1.7353e+02	2.6446	1.978197	0.001217	12.173450	2.062238	-0.000122
1746	1.7363e+02	2.6364	1.949937	0.000284	2.840472	0.481189	-0.000028
1747	1.7373e+02	2.6257	1.897454	0.000528	5.275162	0.893637	-0.000053
1748	1.7383e+02	2.6160	1.869194	0.000284	2.840472	0.481189	-0.000028
1749	1.7393e+02	2.6061	1.816711	0.000528	5.275162	0.893637	-0.000053
1750	1.7403e+02	2.5970	1.772303	0.000446	4.463598	0.756154	-0.000045
1751	1.7413e+02	2.5860	1.719820	0.000528	5.275162	0.893637	-0.000053
1752	1.7422e+02	2.5766	1.655226	0.000649	6.492507	1.099860	-0.000065
1753	1.7432e+02	2.5665	1.651189	0.000041	0.405782	0.068741	-0.000004
1754	1.7442e+02	2.5556	1.562372	0.000893	8.927197	1.512308	-0.000089
1755	1.7452e+02	2.5458	1.530074	0.000325	3.246253	0.549930	-0.000032
1756	1.7462e+02	2.5364	1.465480	0.000649	6.492507	1.099860	-0.000065
1757	1.7472e+02	2.5262	1.417035	0.000487	4.869380	0.824895	-0.000049
1758	1.7482e+02	2.5171	1.364552	0.000528	5.275162	0.893637	-0.000053
1759	1.7492e+02	2.5065	1.340329	0.000243	2.434690	0.412448	-0.000024
1760	1.7502e+02	2.4964	1.271698	0.000690	6.898288	1.168602	-0.000069
1761	1.7512e+02	2.4866	1.231326	0.000406	4.057817	0.687413	-0.000041
1762	1.7522e+02	2.4763	1.194992	0.000365	3.652035	0.618671	-0.000037
1763	1.7532e+02	2.4671	1.130398	0.000649	6.492507	1.099860	-0.000065
1764	1.7542e+02	2.4572	1.053692	0.000771	7.709852	1.306084	-0.000077
1765	1.7552e+02	2.4477	1.041581	0.000122	1.217345	0.206224	-0.000012
1766	1.7562e+02	2.4377	0.997173	0.000446	4.463598	0.756154	-0.000045
1767	1.7572e+02	2.4280	0.904318	0.000933	9.332979	1.581049	-0.000093
1768	1.7582e+02	2.4165	0.892207	0.000122	1.217345	0.206224	-0.000012
1769	1.7592e+02	2.4068	0.831650	0.000609	6.086725	1.031119	-0.000061
1770	1.7602e+02	2.3970	0.795316	0.000365	3.652035	0.618671	-0.000037
1771	1.7612e+02	2.3873	0.742833	0.000528	5.275162	0.893637	-0.000053
1772	1.7621e+02	2.3775	0.710536	0.000325	3.246253	0.549930	-0.000032
1773	1.7631e+02	2.3679	0.645942	0.000649	6.492507	1.099860	-0.000065
1774	1.7641e+02	2.3574	0.593459	0.000528	5.275162	0.893637	-0.000053
1775	1.7651e+02	2.3483	0.504642	0.000893	8.927197	1.512308	-0.000089
1776	1.7661e+02	2.3380	0.460233	0.000446	4.463598	0.756154	-0.000045
1777	1.7671e+02	2.3274	0.431974	0.000284	2.840472	0.481189	-0.000028
1778	1.7681e+02	2.3172	0.387565	0.000446	4.463598	0.756154	-0.000045
1779	1.7691e+02	2.3078	0.331045	0.000568	5.680943	0.962378	-0.000057
1780	1.7701e+02	2.2971	0.294711	0.000365	3.652035	0.618671	-0.000037
1781	1.7711e+02	2.2884	0.234154	0.000609	6.086725	1.031119	-0.000061
1782	1.7721e+02	2.2790	0.189745	0.000446	4.463598	0.756154	-0.000045
1783	1.7731e+02	2.2678	0.096891	0.000933	9.332979	1.581049	-0.000093
1784	1.7741e+02	2.2581	0.072668	0.000243	2.434690	0.412448	-0.000024
1785	1.7751e+02	2.2475	0.020186	0.000528	5.275162	0.893637	-0.000053
1786	1.7761e+02	2.2378	-0.032297	0.000528	5.275162	0.893637	-0.000053
1787	1.7771e+02	2.2276	-0.052483	0.000203	2.028908	0.343706	-0.000020
1788	1.7781e+02	2.2186	-0.125151	0.000730	7.304070	1.237343	-0.000073
1789	1.7791e+02	2.2079	-0.177634	0.000528	5.275162	0.893637	-0.000053
1790	1.7801e+02	2.1973	-0.222042	0.000446	4.463598	0.756154	-0.000045
1791	1.7810e+02	2.1893	-0.274525	0.000528	5.275162	0.893637	-0.000053
1792	1.7820e+02	2.1777	-0.351231	0.000771	7.709852	1.306084	-0.000077
1793	1.7830e+02	2.1687	-0.411788	0.000609	6.086725	1.031119	-0.000061
1794	1.7840e+02	2.1581	-0.452159	0.000406	4.057817	0.687413	-0.000041
1795	1.7850e+02	2.1497	-0.516753	0.000649	6.492507	1.099860	-0.000065
1796	1.7860e+02	2.1390	-0.532902	0.000162	1.623127	0.274965	-0.000016
1797	1.7870e+02	2.1288	-0.609607	0.000771	7.709852	1.306084	-0.000077
1798	1.7880e+02	2.1186	-0.641905	0.000325	3.246253	0.549930	-0.000032
1799	1.7890e+02	2.1088	-0.678239	0.000365	3.652035	0.618671	-0.000037
1800	1.7900e+02	2.0994	-0.767056	0.000893	8.927197	1.512308	-0.000089
1801	1.7910e+02	2.0885	-0.791279	0.000243	2.434690	0.412448	-0.000024
1802	1.7920e+02	2.0786	-0.827613	0.000365	3.652035	0.618671	-0.000037
1803	1.7930e+02	2.0685	-0.863947	0.000365	3.652035	0.618671	-0.000037
1804	1.7940e+02	2.0587	-0.964875	0.001014	10.144542	1.718532	-0.000101
1805	1.7950e+02	2.0486	-1.013321	0.000487	4.869380	0.824895	-0.000049
1806	1.7960e+02	2.0392	-1.077915	0.000649	6.492507	1.099860	-0.000065
1807	1.7970e+02	2.0295	-1.110212	0.000325	3.246253	0.549930	-0.000032
1808	1.7980e+02	2.0193	-1.134435	0.000243	2.434690	0.412448	-0.000024
1809	1.7990e+02	2.0097	-1.203066	0.000690	6.898288	1.168602	-0.000069
1810	1.8000e+02	1.9980	-1.255549	0.000528	5.275162	0.893637	-0.000053
1811	1.8009e+02	1.9891	-1.295921	0.000406	4.057817	0.687413	-0.000041
1812	1.8019e+02	1.9794	-1.364552	0.000690	6.898288	1.168602	-0.000069
1813	1.8029e+02	1.9691	-1.437220	0.000730	7.304070	1.237343	-0.000073
1814	1.8039e+02	1.9599	-1.457406	0.000203	2.028908	0.343706	-0.000020
1815	1.8049e+02	1.9498	-1.501814	0.000446	4.463598	0.756154	-0.000045
1816	1.8059e+02	1.9392	-1.574483	0.000730	7.304070	1.237343	-0.000073
1817	1.8069e+02	1.9299	-1.643114	0.000690	6.898288	1.168602	-0.000069
1818	1.8079e+02	1.9194	-1.647151	0.000041	0.405782	0.068741	-0.000004
1819	1.8089e+02	1.9098	-1.748080	0.001014	10.144542	1.718532	-0.000101
1820	1.8099e+02	1.8995	-1.776340	0.000284	2.840472	0.481189	-0.000028
1821	1.8109e+02	1.8894	-1.849008	0.000730	7.304070	1.237343	-0.000073
1822	1.8119e+02	1.8799	-1.893417	0.000446	4.463598	0.756154	-0.000045
1823	1.8129e+02	1.8704	-1.949937	0.000568	5.680943	0.962378	-0.000057
1824	1.8139e+02	1.8595	-1.994345	0.000446	4.463598	0.756154	-0.000045
1825	1.8149e+02	1.8490	-2.079125	0.000852	8.521415	1.443567	-0.000085
1826	1.8159e+02	1.8400	-2.115459	0.000365	3.652035	0.618671	-0.000037
1827	1.8169e+02	1.8308	-2.159868	0.000446	4.463598	0.756154	-0.000045
1828	1.8179e+02	1.8197	-2.184090	0.000243	2.434690	0.412448	-0.000024
1829	1.8189e+02	1.8105	-2.252722	0.000690	6.898288	1.168602	-0.000069
1830	1.8199e+02	1.7996	-2.289056	0.000365	3.652035	0.618671	-0.000037
1831	1.8209e+02	1.7897	-2.369799	0.000812	8.115634	1.374826	-0.000081
1832	1.8218e+02	1.7799	-2.394021	0.000243	2.434690	0.412448	-0.000024
1833	1.8228e+02	1.7713	-2.486876	0.000933	9.332979	1.581049	-0.000093
1834	1.8238e+02	1.7612	-2.523210	0.000365	3.652035	0.618671	-0.000037
1835	1.8248e+02	1.7500	-2.571655	0.000487	4.869380	0.824895	-0.000049
1836	1.8258e+02	1.7408	-2.628175	0.000568	5.680943	0.962378	-0.000057
1837	1.8268e+02	1.7305	-2.684695	0.000568	5.680943	0.962378	-0.000057
1838	1.8278e+02	1.7201	-2.733141	0.000487	4.869380	0.824895	-0.000049
1839	1.8288e+02	1.7110	-2.793698	0.000609	6.086725	1.031119	-0.000061
1840	1.8298e+02	1.7006	-2.842144	0.000487	4.869380	0.824895	-0.000049
1841	1.8308e+02	1.6909	-2.934998	0.000933	9.332979	1.581049	-0.000093
1842	1.8318e+02	1.6811	-2.979406	0.000446	4.463598	0.756154	-0.000045
1843	1.8328e+02	1.6699	-3.052075	0.000730	7.304070	1.237343	-0.000073
1844	1.8338e+02	1.6604	-3.056112	0.000041	0.405782	0.068741	-0.000004
1845	1.8348e+02	1.6502	-3.100520	0.000446	4.463598	0.756154	-0.000045
1846	1.8358e+02	1.6402	-3.165114	0.000649	6.492507	1.099860	-0.000065
1847	1.8368e+02	1.6305	-3.213560	0.000487	4.869380	0.824895	-0.000049
1848	1.8378e+02	1.6204	-3.314488	0.001014	10.144542	1.718532	-0.000101
1849	1.8388e+02	1.6115	-3.334674	0.000203	2.028908	0.343706	-0.000020
1850	1.8398e+02	1.6004	-3.395231	0.000609	6.086725	1.031119	-0.000061
1851	1.8407e+02	1.5917	-3.399268	0.000041	0.405782	0.068741	-0.000004
1852	1.8417e+02	1.5804	-3.480011	0.000812	8.115634	1.374826	-0.000081
1853	1.8427e+02	1.5718	-3.524419	0.000446	4.463598	0.756154	-0.000045
1854	1.8437e+02	1.5612	-3.589014	0.000649	6.492507	1.099860	-0.000065
1855	1.8447e+02	1.5511	-3.653608	0.000649	6.492507	1.099860	-0.000065
1856	1.8457e+02	1.5406	-3.702053	0.000487	4.869380	0.824895	-0.000049
1857	1.8467e+02	1.5314	-3.746462	0.000446	4.463598	0.756154	-0.000045
1858	1.8477e+02	1.5214	-3.843353	0.000974	9.738760	1.649791	-0.000097
1859	1.8487e+02	1.5115	-3.899873	0.000568	5.680943	0.962378	-0.000057
1860	1.8497e+02	1.5020	-3.932170	0.000325	3.246253	0.549930	-0.000032
1861	1.8507e+02	1.4915	-3.992727	0.000609	6.086725	1.031119	-0.000061
1862	1.8517e+02	1.4808	-4.025024	0.000325	3.246253	0.549930	-0.000032
1863	1.8527e+02	1.4716	-4.097693	0.000730	7.304070	1.237343	-0.000073
1864	1.8537e+02	1.4617	-4.121916	0.000243	2.434690	0.412448	-0.000024
1865	1.8547e+02	1.4515	-4.214770	0.000933	9.332979	1.581049	-0.000093
1866	1.8557e+02	1.4418	-4.247067	0.000325	3.246253	0.549930	-0.000032
1867	1.8567e+02	1.4325	-4.343958	0.000974	9.738760	1.649791	-0.000097
1868	1.8577e+02	1.4221	-4.392404	0.000487	4.869380	0.824895	-0.000049
1869	1.8587e+02	1.4117	-4.440849	0.000487	4.869380	0.824895	-0.000049
1870	1.8597e+02	1.4014	-4.497369	0.000568	5.680943	0.962378	-0.000057
1871	1.8606e+02	1.3923	-4.537741	0.000406	4.057817	0.687413	-0.000041
1872	1.8616e+02	1.3817	-4.574075	0.000365	3.652035	0.618671	-0.000037
1873	1.8626e+02	1.3721	-4.638669	0.000649	6.492507	1.099860	-0.000065
1874	1.8636e+02	1.3618	-4.675003	0.000365	3.652035	0.618671	-0.000037
1875	1.8646e+02	1.3517	-4.759783	0.000852	8.521415	1.443567	-0.000085
1876	1.8656e+02	1.3421	-4.808229	0.000487	4.869380	0.824895	-0.000049
1877	1.8666e+02	1.3322	-4.893009	0.000852	8.521415	1.443567	-0.000085
1878	1.8676e+02	1.3219	-4.957603	0.000649	6.492507	1.099860	-0.000065
1879	1.8686e+02	1.3122	-4.977788	0.000203	2.028908	0.343706	-0.000020
1880	1.8696e+02	1.3017	-5.022197	0.000446	4.463598	0.756154	-0.000045
1881	1.8706e+02	1.2932	-5.050457	0.000284	2.840472	0.481189	-0.000028
1882	1.8716e+02	1.2826	-5.151385	0.001014	10.144542	1.718532	-0.000101
1883	1.8726e+02	1.2725	-5.207905	0.000568	5.680943	0.962378	-0.000057
1884	1.8736e+02	1.2627	-5.268462	0.000609	6.086725	1.031119	-0.000061
1885	1.8746e+02	1.2537	-5.320945	0.000528	5.275162	0.893637	-0.000053
1886	1.8756e+02	1.2421	-5.361316	0.000406	4.057817	0.687413	-0.000041
1887	1.8766e+02	1.2328	-5.433985	0.000730	7.304070	1.237343	-0.000073
1888	1.8776e+02	1.2231	-5.470319	0.000365	3.652035	0.618671	-0.000037
1889	1.8786e+02	1.2138	-5.522802	0.000528	5.275162	0.893637	-0.000053
1890	1.8796e+02	1.2025	-5.583359	0.000609	6.086725	1.031119	-0.000061
1891	1.8806e+02	1.1943	-5.672176	0.000893	8.927197	1.512308	-0.000089
1892	1.8815e+02	1.1840	-5.748881	0.000771	7.709852	1.306084	-0.000077
1893	1.8825e+02	1.1735	-5.793290	0.000446	4.463598	0.756154	-0.000045
1894	1.8835e+02	1.1646	-5.837698	0.000446	4.463598	0.756154	-0.000045
1895	1.8845e+02	1.1537	-5.865958	0.000284	2.840472	0.481189	-0.000028
1896	1.8855e+02	1.1438	-5.918441	0.000528	5.275162	0.893637	-0.000053
1897	1.8865e+02	1.1337	-6.007258	0.000893	8.927197	1.512308	-0.000089
1898	1.8875e+02	1.1233	-6.055704	0.000487	4.869380	0.824895	-0.000049
1899	1.8885e+02	1.1143	-6.120298	0.000649	6.492507	1.099860	-0.000065
1900	1.8895e+02	1.1041	-6.201040	0.000812	8.115634	1.374826	-0.000081
1901	1.8905e+02	1.0943	-6.217189	0.000162	1.623127	0.274965	-0.000016
1902	1.8915e+02	1.0842	-6.318117	0.001014	10.144542	1.718532	-0.000101
1903	1.8925e+02	1.0733	-6.362526	0.000446	4.463598	0.756154	-0.000045
1904	1.8935e+02	1.0641	-6.451343	0.000893	8.927197	1.512308	-0.000089
1905	1.8945e+02	1.0538	-6.524011	0.000730	7.304070	1.237343	-0.000073
1906	1.8955e+02	1.0439	-6.532086	0.000081	0.811563	0.137483	-0.000008
1907	1.8965e+02	1.0351	-6.604754	0.000730	7.304070	1.237343	-0.000073
1908	1.8975e+02	1.0247	-6.657237	0.000528	5.275162	0.893637	-0.000053
1909	1.8985e+02	1.0139	-6.709720	0.000528	5.275162	0.893637	-0.000053
1910	1.8995e+02	1.0043	-6.750091	0.000406	4.057817	0.687413	-0.000041
1911	1.9004e+02	0.9943	-6.826797	0.000771	7.709852	1.306084	-0.000077
1912	1.9014e+02	0.9838	-6.895428	0.000690	6.898288	1.168602	-0.000069
1913	1.9024e+02	0.9745	-6.927725	0.000325	3.246253	0.549930	-0.000032
1914	1.9034e+02	0.9641	-6.984245	0.000568	5.680943	0.962378	-0.000057
1915	1.9044e+02	0.9550	-7.048839	0.000649	6.492507	1.099860	-0.000065
1916	1.9054e+02	0.9451	-7.089210	0.000406	4.057817	0.687413	-0.000041
1917	1.9064e+02	0.9337	-7.145730	0.000568	5.680943	0.962378	-0.000057
1918	1.9074e+02	0.9248	-7.186102	0.000406	4.057817	0.687413	-0.000041
1919	1.9084e+02	0.9152	-7.274919	0.000893	8.927197	1.512308	-0.000089
1920	1.9094e+02	0.9053	-7.355661	0.000812	8.115634	1.374826	-0.000081
1921	1.9104e+02	0.8950	-7.424293	0.000690	6.898288	1.168602	-0.000069
1922	1.9114e+02	0.8856	-7.468701	0.000446	4.463598	0.756154	-0.000045
1923	1.9124e+02	0.8752	-7.500998	0.000325	3.246253	0.549930	-0.000032
1924	1.9134e+02	0.8650	-7.573667	0.000730	7.304070	1.237343	-0.000073
1925	1.9144e+02	0.8553	-7.690744	0.001177	11.767669	1.993497	-0.000118
1926	1.9154e+02	0.8454	-7.678632	-0.000122	-1.217345	-0.206224	0.000012
1927	1.9164e+02	0.8350	-7.815895	0.001380	13.796577	2.337203	-0.000138
1928	1.9174e+02	0.8246	-7.828006	0.000122	1.217345	0.206224	-0.000012
1929	1.9184e+02	0.8155	-7.884526	0.000568	5.680943	0.962378	-0.000057
1930	1.9194e+02	0.8052	-7.924897	0.000406	4.057817	0.687413	-0.000041
1931	1.9203e+02	0.7957	-7.953157	0.000284	2.840472	0.481189	-0.000028
1932	1.9213e+02	0.7855	-8.046012	0.000933	9.332979	1.581049	-0.000093
1933	1.9223e+02	0.7755	-8.086383	0.000406	4.057817	0.687413	-0.000041
1934	1.9233e+02	0.7658	-8.187311	0.001014	10.144542	1.718532	-0.000101
1935	1.9243e+02	0.7554	-8.251905	0.000649	6.492507	1.099860	-0.000065
1936	1.9253e+02	0.7463	-8.272091	0.000203	2.028908	0.343706	-0.000020
1937	1.9263e+02	0.7360	-8.352834	0.000812	8.115634	1.374826	-0.000081
1938	1.9273e+02	0.7262	-8.433577	0.000812	8.115634	1.374826	-0.000081
1939	1.9283e+02	0.7166	-8.506245	0.000730	7.304070	1.237343	-0.000073
1940	1.9293e+02	0.7062	-8.518356	0.000122	1.217345	0.206224	-0.000012
1941	1.9303e+02	0.6966	-8.611211	0.000933	9.332979	1.581049	-0.000093
1942	1.9313e+02	0.6860	-8.639470	0.000284	2.840472	0.481189	-0.000028
1943	1.9323e+02	0.6757	-8.732325	0.000933	9.332979	1.581049	-0.000093
1944	1.9333e+02	0.6654	-8.813067	0.000812	8.115634	1.374826	-0.000081
1945	1.9343e+02	0.6553	-8.889773	0.000771	7.709852	1.306084	-0.000077
1946	1.9353e+02	0.6457	-8.873624	-0.000162	-1.623127	-0.274965	0.000016
1947	1.9363e+02	0.6362	-8.962441	0.000893	8.927197	1.512308	-0.000089
1948	1.9373e+02	0.6264	-9.006850	0.000446	4.463598	0.756154	-0.000045
1949	1.9383e+02	0.6158	-9.059333	0.000528	5.275162	0.893637	-0.000053
1950	1.9393e+02	0.6059	-9.136038	0.000771	7.709852	1.306084	-0.000077
1951	1.9403e+02	0.5962	-9.196595	0.000609	6.086725	1.031119	-0.000061
1952	1.9412e+02	0.5870	-9.232929	0.000365	3.652035	0.618671	-0.000037
1953	1.9422e+02	0.5764	-9.301561	0.000690	6.898288	1.168602	-0.000069
1954	1.9432e+02	0.5662	-9.402489	0.001014	10.144542	1.718532	-0.000101
1955	1.9442e+02	0.5575	-9.406526	0.000041	0.405782	0.068741	-0.000004
1956	1.9452e+02	0.5463	-9.499380	0.000933	9.332979	1.581049	-0.000093
1957	1.9462e+02	0.5363	-9.576086	0.000771	7.709852	1.306084	-0.000077
1958	1.9472e+02	0.5263	-9.628569	0.000528	5.275162	0.893637	-0.000053
1959	1.9482e+02	0.5173	-9.656829	0.000284	2.840472	0.481189	-0.000028
1960	1.9492e+02	0.5071	-9.745646	0.000893	8.927197	1.512308	-0.000089
1961	1.9502e+02	0.4971	-9.781980	0.000365	3.652035	0.618671	-0.000037
1962	1.9512e+02	0.4859	-9.846574	0.000649	6.492507	1.099860	-0.000065
1963	1.9522e+02	0.4766	-9.919243	0.000730	7.304070	1.237343	-0.000073
1964	1.9532e+02	0.4676	-9.987874	0.000690	6.898288	1.168602	-0.000069
1965	1.9542e+02	0.4557	-10.056505	0.000690	6.898288	1.168602	-0.000069
1966	1.9552e+02	0.4465	-10.121099	0.000649	6.492507	1.099860	-0.000065
1967	1.9562e+02	0.4377	-10.161471	0.000406	4.057817	0.687413	-0.000041
1968	1.9572e+02	0.4276	-10.226065	0.000649	6.492507	1.099860	-0.000065
1969	1.9582e+02	0.4171	-10.286622	0.000609	6.086725	1.031119	-0.000061
1970	1.9592e+02	0.4064	-10.351216	0.000649	6.492507	1.099860	-0.000065
1971	1.9601e+02	0.3972	-10.411773	0.000609	6.086725	1.031119	-0.000061
1972	1.9611e+02	0.3872	-10.468293	0.000568	5.680943	0.962378	-0.000057
1973	1.9621e+02	0.3776	-10.504627	0.000365	3.652035	0.618671	-0.000037
1974	1.9631e+02	0.3676	-10.577296	0.000730	7.304070	1.237343	-0.000073
1975	1.9641e+02	0.3571	-10.678224	0.001014	10.144542	1.718532	-0.000101
1976	1.9651e+02	0.3475	-10.722633	0.000446	4.463598	0.756154	-0.000045
1977	1.9661e+02	0.3374	-10.811450	0.000893	8.927197	1.512308	-0.000089
1978	1.9671e+02	0.3274	-10.843747	0.000325	3.246253	0.549930	-0.000032
1979	1.9681e+02	0.3182	-10.916415	0.000730	7.304070	1.237343	-0.000073
1980	1.9691e+02	0.3081	-10.968898	0.000528	5.275162	0.893637	-0.000053
1981	1.9701e+02	0.2976	-11.033492	0.000649	6.492507	1.099860	-0.000065
1982	1.9711e+02	0.2885	-11.130383	0.000974	9.738760	1.649791	-0.000097
1983	1.9721e+02	0.2770	-11.122309	-0.000081	-0.811563	-0.137483	0.000008
1984	1.9731e+02	0.2682	-11.203052	0.000812	8.115634	1.374826	-0.000081
1985	1.9741e+02	0.2574	-11.243423	0.000406	4.057817	0.687413	-0.000041
1986	1.9751e+02	0.2480	-11.332240	0.000893	8.927197	1.512308	-0.000089
1987	1.9761e+02	0.2379	-11.404908	0.000730	7.304070	1.237343	-0.000073
1988	1.9771e+02	0.2275	-11.469503	0.000649	6.492507	1.099860	-0.000065
1989	1.9781e+02	0.2175	-11.481614	0.000122	1.217345	0.206224	-0.000012
1990	1.9791e+02	0.2081	-11.582542	0.001014	10.144542	1.718532	-0.000101
1991	1.9800e+02	0.1984	-11.663285	0.000812	8.115634	1.374826	-0.000081
1992	1.9810e+02	0.1875	-11.719805	0.000568	5.680943	0.962378	-0.000057
1993	1.9820e+02	0.1775	-11.768251	0.000487	4.869380	0.824895	-0.000049
1994	1.9830e+02	0.1680	-11.812659	0.000446	4.463598	0.756154	-0.000045
1995	1.9840e+02	0.1589	-11.905513	0.000933	9.332979	1.581049	-0.000093
1996	1.9850e+02	0.1482	-11.929736	0.000243	2.434690	0.412448	-0.000024
1997	1.9860e+02	0.1385	-11.994330	0.000649	6.492507	1.099860	-0.000065
1998	1.9870e+02	0.1293	-12.075073	0.000812	8.115634	1.374826	-0.000081
1999	1.9880e+02	0.1183	-12.131593	0.000568	5.680943	0.962378	-0.000057
2000	1.9890e+02	0.1087	-12.212336	0.000812	8.115634	1.374826	-0.000081
2001	1.9900e+02	0.0989	-12.260781	0.000487	4.869380	0.824895	-0.000049
2002	1.9910e+02	0.0886	-12.309227	0.000487	4.869380	0.824895	-0.000049
2003	1.9920e+02	0.0782	-12.410155	0.001014	10.144542	1.718532	-0.000101
2004	1.9930e+02	0.0681	-12.430341	0.000203	2.028908	0.343706	-0.000020
2005	1.9940e+02	0.0585	-12.515121	0.000852	8.521415	1.443567	-0.000085
2006	1.9950e+02	0.0481	-12.563566	0.000487	4.869380	0.824895	-0.000049
2007	1.9960e+02	0.0389	-12.688718	0.001258	12.579232	2.130980	-0.000126
2008	1.9970e+02	0.0292	-12.660458	-0.000284	-2.840472	-0.481189	0.000028
2009	1.9980e+02	0.0189	-12.769460	0.001096	10.956105	1.856014	-0.000110
2010	1.9990e+02	0.0083	-12.817906	0.000487	4.869380	0.824895	-0.000049
2011	2.0000e+02	-0.0006	-12.906723	0.000487	4.869380	0.824895	-0.000089

PMax (uC/cm2):	4.94e+01
Pr (uC/cm2):	1.20e+01
-Pr (uC/cm2):	0.00e+00
PLoss (uC/cm2):	0.00e+00
C (Max-Eff) (nF):	4.94e-01
K (Eff):	8.38e+02
Vert. (+/-Pr) Shift (uC/cm2):	6.02e+00
Offset (uC/cm2):	2.49e+01

A (Loop Area - uC/cm2·Volts):	-9.18e-02



Hysteresis Version: 5.48.1 - Radiant Technologies, Inc., 1999 - 9/12/24

