»»»»»»»»»»»»»»»»»»»»»»»»»»»»»»»»»»»» Hysteresis ««««««««««««««««««««««««««««««««««««
»»»  Executed Version:	5.48.1
»»»  Vision Version:	5.48.4 (R)
»»»  Vision Compiled:	9/18/24
»»»  Driver Version:	5.47.0
»»»  Windows Version:	Windows 8 or 8.1
»»»  Processor Information:	x86 (AMD or Intel) - 32 Processors
»»»  Tester Name:	PMF21124-494 (100V)
»»»  Tester S/N:	PMF21124-494
»»»  Internal Amp Type:	100V RevK 270k
»»»  Internal Amp S/N:	iAB2-596/K     
»»»  Execution Count:	1
»»»»»»»»»»»»»»»»»»»»»»»»»»»»»»»»»»»»»»»»»»««««««««««««««««««««««««««««««««««««««««««

Stored:	6/30/2025 - 15:48:27
Configured:	06/30/25 10:19:58 AM
Executed:	06/30/25 03:47:56 PM

»»»»»»»»»»»»»»»»»»»»»»»»»»»»»»»»»»» Sample Info ««««««««««««««««««««««««««««««««««««
Sample Name:	
Lot Name:	
Wafer Name:	
Die Row/Column:	0/0
Capacitor Number:	0
Sample Area (cm2):	1.00e-04
Sample Thickness (microns):	1.50e-01

Amplifier:	Internal

»»»»»»»»»»»»»»»»»»»»»»»»»»»»»»»»»»» Tester Info «««««««««««««««««««««««««««««««««««
Tester Name:	PMF21124-494 (100V)
Tester Serial Number:	PMF21124-494
Return Signal Amp. Level:	1.9 [Index: 2]

»»»»»»»»»»»»»»»»»»»»»»»»»»»»»»»» Hysteresis Info ««««««««««««««««««««««««««««««««««
Task Name:	Hyst-1804
Volts:	10.00
Field:	666.67 (kV/cm)
DCBias:	0.00
DCField:	0.00 (kV/cm)
Hysteresis Period (ms):	2.00e+02
Preset:	Enabled
Preset Delay (ms):	1.00e+03
Profile:	Standard Monopolar

»»»»»»»»»»»»»»»»»»»»»»»»»»»»»»»»»»»»»» Data «««««««««««««««««««««««««««««««««««««««
Points:	2011

Valid Data

Point	Time (ms)	Drive Voltage	Measured Polarization (uC/cm2)	Capacitance (uF)	Normalized Capacitance (uF/cm2)	Dielectric Constant	Instantaneous Current (mA)
   1	0.0000e+00	-0.0053	-17.631619	0.000454	4.543469	0.769684	0.000045
   2	9.9500e-02	0.0021	-17.586404	0.000454	4.543469	0.769684	0.000045
   3	1.9900e-01	0.0149	-17.544447	0.000422	4.216011	0.714212	0.000042
   4	2.9850e-01	0.0268	-17.497196	0.000475	4.748129	0.804355	0.000047
   5	3.9800e-01	0.0345	-17.452388	0.000450	4.502536	0.762750	0.000045
   6	4.9750e-01	0.0426	-17.403507	0.000491	4.911858	0.832091	0.000049
   7	5.9700e-01	0.0529	-17.361958	0.000418	4.175079	0.707278	0.000042
   8	6.9650e-01	0.0651	-17.313077	0.000491	4.911858	0.832091	0.000049
   9	7.9600e-01	0.0771	-17.273565	0.000397	3.970418	0.672607	0.000040
  10	8.9550e-01	0.0832	-17.223461	0.000503	5.034654	0.852894	0.000050
  11	9.9500e-01	0.0944	-17.174580	0.000491	4.911858	0.832091	0.000049
  12	1.0945e+00	0.1037	-17.126107	0.000487	4.870926	0.825157	0.000049
  13	1.1940e+00	0.1147	-17.079670	0.000467	4.666265	0.790487	0.000047
  14	1.2935e+00	0.1275	-17.033232	0.000467	4.666265	0.790487	0.000047
  15	1.3930e+00	0.1347	-16.981907	0.000516	5.157451	0.873696	0.000052
  16	1.4925e+00	0.1444	-16.939544	0.000426	4.256944	0.721146	0.000043
  17	1.5920e+00	0.1544	-16.888626	0.000512	5.116519	0.866762	0.000051
  18	1.6915e+00	0.1688	-16.849114	0.000397	3.970418	0.672607	0.000040
  19	1.7910e+00	0.1750	-16.805935	0.000434	4.338808	0.735014	0.000043
  20	1.8905e+00	0.1830	-16.753388	0.000528	5.280247	0.894498	0.000053
  21	1.9900e+00	0.1932	-16.708580	0.000450	4.502536	0.762750	0.000045
  22	2.0895e+00	0.2030	-16.667846	0.000409	4.093215	0.693409	0.000041
  23	2.1890e+00	0.2150	-16.619780	0.000483	4.829994	0.818223	0.000048
  24	2.2885e+00	0.2225	-16.568455	0.000516	5.157451	0.873696	0.000052
  25	2.3880e+00	0.2350	-16.525276	0.000434	4.338808	0.735014	0.000043
  26	2.4875e+00	0.2406	-16.480876	0.000446	4.461604	0.755816	0.000045
  27	2.5870e+00	0.2545	-16.438105	0.000430	4.297876	0.728080	0.000043
  28	2.6865e+00	0.2638	-16.387595	0.000508	5.075586	0.859828	0.000051
  29	2.7860e+00	0.2733	-16.348490	0.000393	3.929486	0.665673	0.000039
  30	2.8855e+00	0.2842	-16.301645	0.000471	4.707197	0.797421	0.000047
  31	2.9850e+00	0.2950	-16.261318	0.000405	4.052283	0.686475	0.000041
  32	3.0845e+00	0.3056	-16.212030	0.000495	4.952790	0.839025	0.000050
  33	3.1840e+00	0.3179	-16.172925	0.000393	3.929486	0.665673	0.000039
  34	3.2835e+00	0.3223	-16.128525	0.000446	4.461604	0.755816	0.000045
  35	3.3830e+00	0.3349	-16.082088	0.000467	4.666265	0.790487	0.000047
  36	3.4825e+00	0.3439	-16.042168	0.000401	4.011351	0.679541	0.000040
  37	3.5820e+00	0.3536	-15.992880	0.000495	4.952790	0.839025	0.000050
  38	3.6815e+00	0.3616	-15.952960	0.000401	4.011351	0.679541	0.000040
  39	3.7810e+00	0.3754	-15.909374	0.000438	4.379740	0.741948	0.000044
  40	3.8805e+00	0.3824	-15.866603	0.000430	4.297876	0.728080	0.000043
  41	3.9800e+00	0.3948	-15.823832	0.000430	4.297876	0.728080	0.000043
  42	4.0795e+00	0.4052	-15.781469	0.000426	4.256944	0.721146	0.000043
  43	4.1790e+00	0.4131	-15.734217	0.000475	4.748129	0.804355	0.000047
  44	4.2785e+00	0.4230	-15.693075	0.000413	4.134147	0.700343	0.000041
  45	4.3780e+00	0.4338	-15.648268	0.000450	4.502536	0.762750	0.000045
  46	4.4775e+00	0.4440	-15.607534	0.000409	4.093215	0.693409	0.000041
  47	4.5770e+00	0.4521	-15.562726	0.000450	4.502536	0.762750	0.000045
  48	4.6765e+00	0.4620	-15.519955	0.000430	4.297876	0.728080	0.000043
  49	4.7760e+00	0.4740	-15.477999	0.000422	4.216011	0.714212	0.000042
  50	4.8755e+00	0.4820	-15.435635	0.000426	4.256944	0.721146	0.000043
  51	4.9750e+00	0.4925	-15.387976	0.000479	4.789061	0.811289	0.000048
  52	5.0745e+00	0.5045	-15.350093	0.000381	3.806690	0.644871	0.000038
  53	5.1740e+00	0.5166	-15.309766	0.000405	4.052283	0.686475	0.000041
  54	5.2735e+00	0.5235	-15.270661	0.000393	3.929486	0.665673	0.000039
  55	5.3730e+00	0.5322	-15.225039	0.000458	4.584401	0.776619	0.000046
  56	5.4725e+00	0.5429	-15.179824	0.000454	4.543469	0.769684	0.000045
  57	5.5720e+00	0.5544	-15.143570	0.000364	3.642961	0.617134	0.000036
  58	5.6715e+00	0.5609	-15.097541	0.000463	4.625333	0.783553	0.000046
  59	5.7710e+00	0.5717	-15.054362	0.000434	4.338808	0.735014	0.000043
  60	5.8705e+00	0.5832	-15.011999	0.000426	4.256944	0.721146	0.000043
  61	5.9700e+00	0.5947	-14.972079	0.000401	4.011351	0.679541	0.000040
  62	6.0695e+00	0.6042	-14.932160	0.000401	4.011351	0.679541	0.000040
  63	6.1690e+00	0.6116	-14.888574	0.000438	4.379740	0.741948	0.000044
  64	6.2685e+00	0.6237	-14.848654	0.000401	4.011351	0.679541	0.000040
  65	6.3680e+00	0.6316	-14.806291	0.000426	4.256944	0.721146	0.000043
  66	6.4675e+00	0.6430	-14.761890	0.000446	4.461604	0.755816	0.000045
  67	6.5670e+00	0.6545	-14.723600	0.000385	3.847622	0.651805	0.000038
  68	6.6665e+00	0.6621	-14.681644	0.000422	4.216011	0.714212	0.000042
  69	6.7660e+00	0.6706	-14.642132	0.000397	3.970418	0.672607	0.000040
  70	6.8655e+00	0.6820	-14.600583	0.000418	4.175079	0.707278	0.000042
  71	6.9650e+00	0.6921	-14.560663	0.000401	4.011351	0.679541	0.000040
  72	7.0645e+00	0.7007	-14.514226	0.000467	4.666265	0.790487	0.000047
  73	7.1640e+00	0.7130	-14.469418	0.000450	4.502536	0.762750	0.000045
  74	7.2635e+00	0.7225	-14.431536	0.000381	3.806690	0.644871	0.000038
  75	7.3630e+00	0.7366	-14.389172	0.000426	4.256944	0.721146	0.000043
  76	7.4625e+00	0.7420	-14.344364	0.000450	4.502536	0.762750	0.000045
  77	7.5620e+00	0.7523	-14.309740	0.000348	3.479233	0.589398	0.000035
  78	7.6615e+00	0.7614	-14.264118	0.000458	4.584401	0.776619	0.000046
  79	7.7610e+00	0.7709	-14.225828	0.000385	3.847622	0.651805	0.000038
  80	7.8605e+00	0.7827	-14.184279	0.000418	4.175079	0.707278	0.000042
  81	7.9600e+00	0.7901	-14.136620	0.000479	4.789061	0.811289	0.000048
  82	8.0595e+00	0.8025	-14.099959	0.000368	3.683893	0.624068	0.000037
  83	8.1590e+00	0.8126	-14.060447	0.000397	3.970418	0.672607	0.000040
  84	8.2585e+00	0.8225	-14.024193	0.000364	3.642961	0.617134	0.000036
  85	8.3580e+00	0.8315	-13.981015	0.000434	4.338808	0.735014	0.000043
  86	8.4575e+00	0.8430	-13.942317	0.000389	3.888554	0.658739	0.000039
  87	8.5570e+00	0.8518	-13.906064	0.000364	3.642961	0.617134	0.000036
  88	8.6565e+00	0.8618	-13.863293	0.000430	4.297876	0.728080	0.000043
  89	8.7560e+00	0.8712	-13.821744	0.000418	4.175079	0.707278	0.000042
  90	8.8555e+00	0.8798	-13.780602	0.000413	4.134147	0.700343	0.000041
  91	8.9550e+00	0.8926	-13.737831	0.000430	4.297876	0.728080	0.000043
  92	9.0545e+00	0.9007	-13.696282	0.000418	4.175079	0.707278	0.000042
  93	9.1540e+00	0.9100	-13.660843	0.000356	3.561097	0.603266	0.000036
  94	9.2535e+00	0.9241	-13.620109	0.000409	4.093215	0.693409	0.000041
  95	9.3530e+00	0.9315	-13.583448	0.000368	3.683893	0.624068	0.000037
  96	9.4525e+00	0.9407	-13.546380	0.000372	3.724826	0.631003	0.000037
  97	9.5520e+00	0.9487	-13.510534	0.000360	3.602029	0.610200	0.000036
  98	9.6515e+00	0.9608	-13.471429	0.000393	3.929486	0.665673	0.000039
  99	9.7510e+00	0.9740	-13.434768	0.000368	3.683893	0.624068	0.000037
 100	9.8505e+00	0.9818	-13.394441	0.000405	4.052283	0.686475	0.000041
 101	9.9500e+00	0.9908	-13.357373	0.000372	3.724826	0.631003	0.000037
 102	1.0050e+01	1.0001	-13.317861	0.000397	3.970418	0.672607	0.000040
 103	1.0149e+01	1.0113	-13.271831	0.000463	4.625333	0.783553	0.000046
 104	1.0248e+01	1.0204	-13.229468	0.000426	4.256944	0.721146	0.000043
 105	1.0348e+01	1.0329	-13.192400	0.000372	3.724826	0.631003	0.000037
 106	1.0447e+01	1.0403	-13.153702	0.000389	3.888554	0.658739	0.000039
 107	1.0547e+01	1.0489	-13.113375	0.000405	4.052283	0.686475	0.000041
 108	1.0646e+01	1.0606	-13.073456	0.000401	4.011351	0.679541	0.000040
 109	1.0746e+01	1.0680	-13.035165	0.000385	3.847622	0.651805	0.000038
 110	1.0845e+01	1.0809	-12.995246	0.000401	4.011351	0.679541	0.000040
 111	1.0945e+01	1.0904	-12.954511	0.000409	4.093215	0.693409	0.000041
 112	1.1044e+01	1.1014	-12.916629	0.000381	3.806690	0.644871	0.000038
 113	1.1144e+01	1.1112	-12.869784	0.000471	4.707197	0.797421	0.000047
 114	1.1243e+01	1.1206	-12.833531	0.000364	3.642961	0.617134	0.000036
 115	1.1343e+01	1.1298	-12.789945	0.000438	4.379740	0.741948	0.000044
 116	1.1443e+01	1.1411	-12.749211	0.000409	4.093215	0.693409	0.000041
 117	1.1542e+01	1.1496	-12.703588	0.000458	4.584401	0.776619	0.000046
 118	1.1642e+01	1.1591	-12.664076	0.000397	3.970418	0.672607	0.000040
 119	1.1741e+01	1.1698	-12.623749	0.000405	4.052283	0.686475	0.000041
 120	1.1841e+01	1.1811	-12.577720	0.000463	4.625333	0.783553	0.000046
 121	1.1940e+01	1.1906	-12.536578	0.000413	4.134147	0.700343	0.000041
 122	1.2040e+01	1.1974	-12.490548	0.000463	4.625333	0.783553	0.000046
 123	1.2139e+01	1.2096	-12.449814	0.000409	4.093215	0.693409	0.000041
 124	1.2239e+01	1.2206	-12.409080	0.000409	4.093215	0.693409	0.000041
 125	1.2338e+01	1.2308	-12.367124	0.000422	4.216011	0.714212	0.000042
 126	1.2438e+01	1.2421	-12.319464	0.000479	4.789061	0.811289	0.000048
 127	1.2537e+01	1.2520	-12.277101	0.000426	4.256944	0.721146	0.000043
 128	1.2636e+01	1.2577	-12.239218	0.000381	3.806690	0.644871	0.000038
 129	1.2736e+01	1.2704	-12.198076	0.000413	4.134147	0.700343	0.000041
 130	1.2835e+01	1.2807	-12.155305	0.000430	4.297876	0.728080	0.000043
 131	1.2935e+01	1.2894	-12.113349	0.000422	4.216011	0.714212	0.000042
 132	1.3034e+01	1.2993	-12.068134	0.000454	4.543469	0.769684	0.000045
 133	1.3134e+01	1.3086	-12.024548	0.000438	4.379740	0.741948	0.000044
 134	1.3233e+01	1.3171	-11.987480	0.000372	3.724826	0.631003	0.000037
 135	1.3333e+01	1.3290	-11.943080	0.000446	4.461604	0.755816	0.000045
 136	1.3432e+01	1.3398	-11.897050	0.000463	4.625333	0.783553	0.000046
 137	1.3532e+01	1.3503	-11.852243	0.000450	4.502536	0.762750	0.000045
 138	1.3632e+01	1.3588	-11.811101	0.000413	4.134147	0.700343	0.000041
 139	1.3731e+01	1.3669	-11.770367	0.000409	4.093215	0.693409	0.000041
 140	1.3831e+01	1.3786	-11.726374	0.000442	4.420672	0.748882	0.000044
 141	1.3930e+01	1.3915	-11.681973	0.000446	4.461604	0.755816	0.000045
 142	1.4030e+01	1.3971	-11.637573	0.000446	4.461604	0.755816	0.000045
 143	1.4129e+01	1.4079	-11.595617	0.000422	4.216011	0.714212	0.000042
 144	1.4229e+01	1.4169	-11.554882	0.000409	4.093215	0.693409	0.000041
 145	1.4328e+01	1.4299	-11.506816	0.000483	4.829994	0.818223	0.000048
 146	1.4428e+01	1.4363	-11.469748	0.000372	3.724826	0.631003	0.000037
 147	1.4527e+01	1.4473	-11.427384	0.000426	4.256944	0.721146	0.000043
 148	1.4627e+01	1.4565	-11.380133	0.000475	4.748129	0.804355	0.000047
 149	1.4726e+01	1.4720	-11.340620	0.000397	3.970418	0.672607	0.000040
 150	1.4825e+01	1.4780	-11.294591	0.000463	4.625333	0.783553	0.000046
 151	1.4925e+01	1.4890	-11.251820	0.000430	4.297876	0.728080	0.000043
 152	1.5024e+01	1.4967	-11.206605	0.000454	4.543469	0.769684	0.000045
 153	1.5124e+01	1.5067	-11.160982	0.000458	4.584401	0.776619	0.000046
 154	1.5223e+01	1.5184	-11.120655	0.000405	4.052283	0.686475	0.000041
 155	1.5323e+01	1.5275	-11.081143	0.000397	3.970418	0.672607	0.000040
 156	1.5422e+01	1.5397	-11.031447	0.000499	4.993722	0.845959	0.000050
 157	1.5522e+01	1.5479	-10.989898	0.000418	4.175079	0.707278	0.000042
 158	1.5621e+01	1.5566	-10.951608	0.000385	3.847622	0.651805	0.000038
 159	1.5721e+01	1.5693	-10.907208	0.000446	4.461604	0.755816	0.000045
 160	1.5820e+01	1.5751	-10.870954	0.000364	3.642961	0.617134	0.000036
 161	1.5920e+01	1.5872	-10.823295	0.000479	4.789061	0.811289	0.000048
 162	1.6020e+01	1.5926	-10.778895	0.000446	4.461604	0.755816	0.000045
 163	1.6119e+01	1.6089	-10.736939	0.000422	4.216011	0.714212	0.000042
 164	1.6218e+01	1.6162	-10.692131	0.000450	4.502536	0.762750	0.000045
 165	1.6318e+01	1.6261	-10.646509	0.000458	4.584401	0.776619	0.000046
 166	1.6418e+01	1.6364	-10.606589	0.000401	4.011351	0.679541	0.000040
 167	1.6517e+01	1.6472	-10.556079	0.000508	5.075586	0.859828	0.000051
 168	1.6616e+01	1.6606	-10.512493	0.000438	4.379740	0.741948	0.000044
 169	1.6716e+01	1.6676	-10.468500	0.000442	4.420672	0.748882	0.000044
 170	1.6816e+01	1.6779	-10.424100	0.000446	4.461604	0.755816	0.000045
 171	1.6915e+01	1.6881	-10.380921	0.000434	4.338808	0.735014	0.000043
 172	1.7015e+01	1.6959	-10.333670	0.000475	4.748129	0.804355	0.000047
 173	1.7114e+01	1.7075	-10.293750	0.000401	4.011351	0.679541	0.000040
 174	1.7213e+01	1.7167	-10.249350	0.000446	4.461604	0.755816	0.000045
 175	1.7313e+01	1.7269	-10.206986	0.000426	4.256944	0.721146	0.000043
 176	1.7413e+01	1.7373	-10.159327	0.000479	4.789061	0.811289	0.000048
 177	1.7512e+01	1.7471	-10.112483	0.000471	4.707197	0.797421	0.000047
 178	1.7611e+01	1.7580	-10.070119	0.000426	4.256944	0.721146	0.000043
 179	1.7711e+01	1.7654	-10.022867	0.000475	4.748129	0.804355	0.000047
 180	1.7811e+01	1.7760	-9.977245	0.000458	4.584401	0.776619	0.000046
 181	1.7910e+01	1.7862	-9.929993	0.000475	4.748129	0.804355	0.000047
 182	1.8009e+01	1.7956	-9.887629	0.000426	4.256944	0.721146	0.000043
 183	1.8109e+01	1.8072	-9.842414	0.000454	4.543469	0.769684	0.000045
 184	1.8209e+01	1.8178	-9.795570	0.000471	4.707197	0.797421	0.000047
 185	1.8308e+01	1.8293	-9.756058	0.000397	3.970418	0.672607	0.000040
 186	1.8407e+01	1.8378	-9.706769	0.000495	4.952790	0.839025	0.000050
 187	1.8507e+01	1.8458	-9.670109	0.000368	3.683893	0.624068	0.000037
 188	1.8607e+01	1.8545	-9.624893	0.000454	4.543469	0.769684	0.000045
 189	1.8706e+01	1.8658	-9.584159	0.000409	4.093215	0.693409	0.000041
 190	1.8805e+01	1.8771	-9.540574	0.000438	4.379740	0.741948	0.000044
 191	1.8905e+01	1.8873	-9.497395	0.000434	4.338808	0.735014	0.000043
 192	1.9005e+01	1.8969	-9.452995	0.000446	4.461604	0.755816	0.000045
 193	1.9104e+01	1.9042	-9.407780	0.000454	4.543469	0.769684	0.000045
 194	1.9203e+01	1.9132	-9.370712	0.000372	3.724826	0.631003	0.000037
 195	1.9303e+01	1.9268	-9.327533	0.000434	4.338808	0.735014	0.000043
 196	1.9402e+01	1.9389	-9.280689	0.000471	4.707197	0.797421	0.000047
 197	1.9502e+01	1.9473	-9.239955	0.000409	4.093215	0.693409	0.000041
 198	1.9602e+01	1.9558	-9.201257	0.000389	3.888554	0.658739	0.000039
 199	1.9701e+01	1.9665	-9.160523	0.000409	4.093215	0.693409	0.000041
 200	1.9800e+01	1.9737	-9.120196	0.000405	4.052283	0.686475	0.000041
 201	1.9900e+01	1.9839	-9.075796	0.000446	4.461604	0.755816	0.000045
 202	2.0000e+01	1.9923	-9.035876	0.000401	4.011351	0.679541	0.000040
 203	2.0099e+01	2.0032	-8.995957	0.000401	4.011351	0.679541	0.000040
 204	2.0198e+01	2.0174	-8.954815	0.000413	4.134147	0.700343	0.000041
 205	2.0298e+01	2.0290	-8.916932	0.000381	3.806690	0.644871	0.000038
 206	2.0398e+01	2.0354	-8.874976	0.000422	4.216011	0.714212	0.000042
 207	2.0497e+01	2.0471	-8.833427	0.000418	4.175079	0.707278	0.000042
 208	2.0596e+01	2.0573	-8.793100	0.000405	4.052283	0.686475	0.000041
 209	2.0696e+01	2.0654	-8.755217	0.000381	3.806690	0.644871	0.000038
 210	2.0796e+01	2.0748	-8.716520	0.000389	3.888554	0.658739	0.000039
 211	2.0895e+01	2.0866	-8.673341	0.000434	4.338808	0.735014	0.000043
 212	2.0994e+01	2.0934	-8.634236	0.000393	3.929486	0.665673	0.000039
 213	2.1094e+01	2.1088	-8.598390	0.000360	3.602029	0.610200	0.000036
 214	2.1194e+01	2.1149	-8.556434	0.000422	4.216011	0.714212	0.000042
 215	2.1293e+01	2.1281	-8.518958	0.000377	3.765758	0.637937	0.000038
 216	2.1392e+01	2.1367	-8.477410	0.000418	4.175079	0.707278	0.000042
 217	2.1492e+01	2.1436	-8.439527	0.000381	3.806690	0.644871	0.000038
 218	2.1591e+01	2.1532	-8.395941	0.000438	4.379740	0.741948	0.000044
 219	2.1691e+01	2.1638	-8.360502	0.000356	3.561097	0.603266	0.000036
 220	2.1791e+01	2.1773	-8.324249	0.000364	3.642961	0.617134	0.000036
 221	2.1890e+01	2.1833	-8.283514	0.000409	4.093215	0.693409	0.000041
 222	2.1989e+01	2.1961	-8.245632	0.000381	3.806690	0.644871	0.000038
 223	2.2089e+01	2.2045	-8.204490	0.000413	4.134147	0.700343	0.000041
 224	2.2189e+01	2.2134	-8.169459	0.000352	3.520165	0.596332	0.000035
 225	2.2288e+01	2.2262	-8.128317	0.000413	4.134147	0.700343	0.000041
 226	2.2387e+01	2.2326	-8.089619	0.000389	3.888554	0.658739	0.000039
 227	2.2487e+01	2.2442	-8.052144	0.000377	3.765758	0.637937	0.000038
 228	2.2587e+01	2.2552	-8.013039	0.000393	3.929486	0.665673	0.000039
 229	2.2686e+01	2.2629	-7.976786	0.000364	3.642961	0.617134	0.000036
 230	2.2785e+01	2.2734	-7.935644	0.000413	4.134147	0.700343	0.000041
 231	2.2885e+01	2.2865	-7.895724	0.000401	4.011351	0.679541	0.000040
 232	2.2985e+01	2.2922	-7.863544	0.000323	3.233640	0.547793	0.000032
 233	2.3084e+01	2.3019	-7.824032	0.000397	3.970418	0.672607	0.000040
 234	2.3183e+01	2.3149	-7.788593	0.000356	3.561097	0.603266	0.000036
 235	2.3283e+01	2.3234	-7.750710	0.000381	3.806690	0.644871	0.000038
 236	2.3383e+01	2.3335	-7.714050	0.000368	3.683893	0.624068	0.000037
 237	2.3482e+01	2.3444	-7.676574	0.000377	3.765758	0.637937	0.000038
 238	2.3581e+01	2.3571	-7.636247	0.000405	4.052283	0.686475	0.000041
 239	2.3681e+01	2.3675	-7.600808	0.000356	3.561097	0.603266	0.000036
 240	2.3780e+01	2.3730	-7.562111	0.000389	3.888554	0.658739	0.000039
 241	2.3880e+01	2.3859	-7.521377	0.000409	4.093215	0.693409	0.000041
 242	2.3980e+01	2.3933	-7.485123	0.000364	3.642961	0.617134	0.000036
 243	2.4079e+01	2.4044	-7.451314	0.000340	3.397368	0.575530	0.000034
 244	2.4178e+01	2.4133	-7.409765	0.000418	4.175079	0.707278	0.000042
 245	2.4278e+01	2.4223	-7.373104	0.000368	3.683893	0.624068	0.000037
 246	2.4378e+01	2.4346	-7.335221	0.000381	3.806690	0.644871	0.000038
 247	2.4477e+01	2.4441	-7.302226	0.000332	3.315504	0.561662	0.000033
 248	2.4576e+01	2.4532	-7.264343	0.000381	3.806690	0.644871	0.000038
 249	2.4676e+01	2.4638	-7.226053	0.000385	3.847622	0.651805	0.000038
 250	2.4776e+01	2.4741	-7.191429	0.000348	3.479233	0.589398	0.000035
 251	2.4875e+01	2.4834	-7.159656	0.000319	3.192708	0.540859	0.000032
 252	2.4974e+01	2.4961	-7.121773	0.000381	3.806690	0.644871	0.000038
 253	2.5074e+01	2.5036	-7.090408	0.000315	3.151775	0.533925	0.000032
 254	2.5174e+01	2.5124	-7.054562	0.000360	3.602029	0.610200	0.000036
 255	2.5273e+01	2.5240	-7.017494	0.000372	3.724826	0.631003	0.000037
 256	2.5372e+01	2.5330	-6.980426	0.000372	3.724826	0.631003	0.000037
 257	2.5472e+01	2.5417	-6.946209	0.000344	3.438301	0.582464	0.000034
 258	2.5572e+01	2.5554	-6.907511	0.000389	3.888554	0.658739	0.000039
 259	2.5671e+01	2.5607	-6.875331	0.000323	3.233640	0.547793	0.000032
 260	2.5770e+01	2.5703	-6.839892	0.000356	3.561097	0.603266	0.000036
 261	2.5870e+01	2.5862	-6.802010	0.000381	3.806690	0.644871	0.000038
 262	2.5970e+01	2.5915	-6.773088	0.000291	2.906183	0.492321	0.000029
 263	2.6069e+01	2.6002	-6.739686	0.000336	3.356436	0.568596	0.000034
 264	2.6169e+01	2.6122	-6.706691	0.000332	3.315504	0.561662	0.000033
 265	2.6268e+01	2.6232	-6.671660	0.000352	3.520165	0.596332	0.000035
 266	2.6367e+01	2.6322	-6.634592	0.000372	3.724826	0.631003	0.000037
 267	2.6467e+01	2.6453	-6.605670	0.000291	2.906183	0.492321	0.000029
 268	2.6567e+01	2.6516	-6.570232	0.000356	3.561097	0.603266	0.000036
 269	2.6666e+01	2.6627	-6.535608	0.000348	3.479233	0.589398	0.000035
 270	2.6765e+01	2.6696	-6.500169	0.000356	3.561097	0.603266	0.000036
 271	2.6865e+01	2.6807	-6.462286	0.000381	3.806690	0.644871	0.000038
 272	2.6965e+01	2.6918	-6.426032	0.000364	3.642961	0.617134	0.000036
 273	2.7064e+01	2.7013	-6.391408	0.000348	3.479233	0.589398	0.000035
 274	2.7163e+01	2.7119	-6.358414	0.000332	3.315504	0.561662	0.000033
 275	2.7263e+01	2.7211	-6.322975	0.000356	3.561097	0.603266	0.000036
 276	2.7363e+01	2.7294	-6.287129	0.000360	3.602029	0.610200	0.000036
 277	2.7462e+01	2.7412	-6.252097	0.000352	3.520165	0.596332	0.000035
 278	2.7561e+01	2.7520	-6.216251	0.000360	3.602029	0.610200	0.000036
 279	2.7661e+01	2.7639	-6.182442	0.000340	3.397368	0.575530	0.000034
 280	2.7761e+01	2.7737	-6.149447	0.000332	3.315504	0.561662	0.000033
 281	2.7860e+01	2.7796	-6.109527	0.000401	4.011351	0.679541	0.000040
 282	2.7959e+01	2.7921	-6.074496	0.000352	3.520165	0.596332	0.000035
 283	2.8059e+01	2.8017	-6.034984	0.000397	3.970418	0.672607	0.000040
 284	2.8159e+01	2.8106	-5.998730	0.000364	3.642961	0.617134	0.000036
 285	2.8258e+01	2.8257	-5.960847	0.000381	3.806690	0.644871	0.000038
 286	2.8358e+01	2.8321	-5.920520	0.000405	4.052283	0.686475	0.000041
 287	2.8457e+01	2.8418	-5.884267	0.000364	3.642961	0.617134	0.000036
 288	2.8556e+01	2.8545	-5.848013	0.000364	3.642961	0.617134	0.000036
 289	2.8656e+01	2.8619	-5.810130	0.000381	3.806690	0.644871	0.000038
 290	2.8756e+01	2.8716	-5.772655	0.000377	3.765758	0.637937	0.000038
 291	2.8855e+01	2.8827	-5.733957	0.000389	3.888554	0.658739	0.000039
 292	2.8954e+01	2.8922	-5.699333	0.000348	3.479233	0.589398	0.000035
 293	2.9054e+01	2.9031	-5.664302	0.000352	3.520165	0.596332	0.000035
 294	2.9154e+01	2.9137	-5.623160	0.000413	4.134147	0.700343	0.000041
 295	2.9253e+01	2.9200	-5.588129	0.000352	3.520165	0.596332	0.000035
 296	2.9352e+01	2.9314	-5.550246	0.000381	3.806690	0.644871	0.000038
 297	2.9452e+01	2.9426	-5.508697	0.000418	4.175079	0.707278	0.000042
 298	2.9552e+01	2.9491	-5.469999	0.000389	3.888554	0.658739	0.000039
 299	2.9651e+01	2.9617	-5.435375	0.000348	3.479233	0.589398	0.000035
 300	2.9750e+01	2.9711	-5.400751	0.000348	3.479233	0.589398	0.000035
 301	2.9850e+01	2.9783	-5.363276	0.000377	3.765758	0.637937	0.000038
 302	2.9950e+01	2.9915	-5.324578	0.000389	3.888554	0.658739	0.000039
 303	3.0049e+01	2.9981	-5.283844	0.000409	4.093215	0.693409	0.000041
 304	3.0148e+01	3.0112	-5.247183	0.000368	3.683893	0.624068	0.000037
 305	3.0248e+01	3.0217	-5.210522	0.000368	3.683893	0.624068	0.000037
 306	3.0348e+01	3.0283	-5.166122	0.000446	4.461604	0.755816	0.000045
 307	3.0447e+01	3.0391	-5.130276	0.000360	3.602029	0.610200	0.000036
 308	3.0547e+01	3.0497	-5.093615	0.000368	3.683893	0.624068	0.000037
 309	3.0646e+01	3.0573	-5.058991	0.000348	3.479233	0.589398	0.000035
 310	3.0745e+01	3.0702	-5.023145	0.000360	3.602029	0.610200	0.000036
 311	3.0845e+01	3.0779	-4.985262	0.000381	3.806690	0.644871	0.000038
 312	3.0945e+01	3.0919	-4.948601	0.000368	3.683893	0.624068	0.000037
 313	3.1044e+01	3.0999	-4.907459	0.000413	4.134147	0.700343	0.000041
 314	3.1143e+01	3.1071	-4.868355	0.000393	3.929486	0.665673	0.000039
 315	3.1243e+01	3.1182	-4.831694	0.000368	3.683893	0.624068	0.000037
 316	3.1343e+01	3.1295	-4.795033	0.000368	3.683893	0.624068	0.000037
 317	3.1442e+01	3.1397	-4.757150	0.000381	3.806690	0.644871	0.000038
 318	3.1541e+01	3.1525	-4.717230	0.000401	4.011351	0.679541	0.000040
 319	3.1641e+01	3.1611	-4.681792	0.000356	3.561097	0.603266	0.000036
 320	3.1741e+01	3.1704	-4.641872	0.000401	4.011351	0.679541	0.000040
 321	3.1840e+01	3.1817	-4.606433	0.000356	3.561097	0.603266	0.000036
 322	3.1939e+01	3.1886	-4.570994	0.000356	3.561097	0.603266	0.000036
 323	3.2039e+01	3.2022	-4.531075	0.000401	4.011351	0.679541	0.000040
 324	3.2139e+01	3.2089	-4.488304	0.000430	4.297876	0.728080	0.000043
 325	3.2238e+01	3.2204	-4.456531	0.000319	3.192708	0.540859	0.000032
 326	3.2337e+01	3.2294	-4.416612	0.000401	4.011351	0.679541	0.000040
 327	3.2437e+01	3.2384	-4.381987	0.000348	3.479233	0.589398	0.000035
 328	3.2536e+01	3.2492	-4.343290	0.000389	3.888554	0.658739	0.000039
 329	3.2636e+01	3.2613	-4.305407	0.000381	3.806690	0.644871	0.000038
 330	3.2736e+01	3.2674	-4.265895	0.000397	3.970418	0.672607	0.000040
 331	3.2835e+01	3.2803	-4.224753	0.000413	4.134147	0.700343	0.000041
 332	3.2934e+01	3.2870	-4.189722	0.000352	3.520165	0.596332	0.000035
 333	3.3034e+01	3.3016	-4.148173	0.000418	4.175079	0.707278	0.000042
 334	3.3133e+01	3.3096	-4.109883	0.000385	3.847622	0.651805	0.000038
 335	3.3233e+01	3.3187	-4.071592	0.000385	3.847622	0.651805	0.000038
 336	3.3333e+01	3.3282	-4.033302	0.000385	3.847622	0.651805	0.000038
 337	3.3432e+01	3.3389	-3.990531	0.000430	4.297876	0.728080	0.000043
 338	3.3532e+01	3.3469	-3.956722	0.000340	3.397368	0.575530	0.000034
 339	3.3631e+01	3.3569	-3.918839	0.000381	3.806690	0.644871	0.000038
 340	3.3730e+01	3.3706	-3.876068	0.000430	4.297876	0.728080	0.000043
 341	3.3830e+01	3.3782	-3.838185	0.000381	3.806690	0.644871	0.000038
 342	3.3929e+01	3.3891	-3.801117	0.000372	3.724826	0.631003	0.000037
 343	3.4029e+01	3.3964	-3.764456	0.000368	3.683893	0.624068	0.000037
 344	3.4129e+01	3.4130	-3.719649	0.000450	4.502536	0.762750	0.000045
 345	3.4228e+01	3.4184	-3.684617	0.000352	3.520165	0.596332	0.000035
 346	3.4328e+01	3.4295	-3.644697	0.000401	4.011351	0.679541	0.000040
 347	3.4427e+01	3.4408	-3.602334	0.000426	4.256944	0.721146	0.000043
 348	3.4526e+01	3.4490	-3.560785	0.000418	4.175079	0.707278	0.000042
 349	3.4626e+01	3.4559	-3.520051	0.000409	4.093215	0.693409	0.000041
 350	3.4725e+01	3.4690	-3.481353	0.000389	3.888554	0.658739	0.000039
 351	3.4825e+01	3.4792	-3.441026	0.000405	4.052283	0.686475	0.000041
 352	3.4925e+01	3.4878	-3.407217	0.000340	3.397368	0.575530	0.000034
 353	3.5024e+01	3.4974	-3.369334	0.000381	3.806690	0.644871	0.000038
 354	3.5123e+01	3.5055	-3.331451	0.000381	3.806690	0.644871	0.000038
 355	3.5223e+01	3.5178	-3.293568	0.000381	3.806690	0.644871	0.000038
 356	3.5322e+01	3.5271	-3.257315	0.000364	3.642961	0.617134	0.000036
 357	3.5422e+01	3.5365	-3.217802	0.000397	3.970418	0.672607	0.000040
 358	3.5522e+01	3.5487	-3.181142	0.000368	3.683893	0.624068	0.000037
 359	3.5621e+01	3.5596	-3.143666	0.000377	3.765758	0.637937	0.000038
 360	3.5721e+01	3.5650	-3.108635	0.000352	3.520165	0.596332	0.000035
 361	3.5820e+01	3.5783	-3.068308	0.000405	4.052283	0.686475	0.000041
 362	3.5919e+01	3.5887	-3.030425	0.000381	3.806690	0.644871	0.000038
 363	3.6019e+01	3.5958	-2.993764	0.000368	3.683893	0.624068	0.000037
 364	3.6118e+01	3.6069	-2.955881	0.000381	3.806690	0.644871	0.000038
 365	3.6218e+01	3.6170	-2.924923	0.000311	3.110843	0.526991	0.000031
 366	3.6318e+01	3.6269	-2.883782	0.000413	4.134147	0.700343	0.000041
 367	3.6417e+01	3.6367	-2.850380	0.000336	3.356436	0.568596	0.000034
 368	3.6517e+01	3.6452	-2.816977	0.000336	3.356436	0.568596	0.000034
 369	3.6616e+01	3.6584	-2.777873	0.000393	3.929486	0.665673	0.000039
 370	3.6715e+01	3.6697	-2.747729	0.000303	3.028979	0.513123	0.000030
 371	3.6815e+01	3.6767	-2.710254	0.000377	3.765758	0.637937	0.000038
 372	3.6914e+01	3.6884	-2.671963	0.000385	3.847622	0.651805	0.000038
 373	3.7014e+01	3.6958	-2.641820	0.000303	3.028979	0.513123	0.000030
 374	3.7114e+01	3.7048	-2.606381	0.000356	3.561097	0.603266	0.000036
 375	3.7213e+01	3.7180	-2.572979	0.000336	3.356436	0.568596	0.000034
 376	3.7313e+01	3.7297	-2.535096	0.000381	3.806690	0.644871	0.000038
 377	3.7412e+01	3.7354	-2.501287	0.000340	3.397368	0.575530	0.000034
 378	3.7511e+01	3.7459	-2.466663	0.000348	3.479233	0.589398	0.000035
 379	3.7611e+01	3.7595	-2.433261	0.000336	3.356436	0.568596	0.000034
 380	3.7711e+01	3.7673	-2.398637	0.000348	3.479233	0.589398	0.000035
 381	3.7810e+01	3.7783	-2.363198	0.000356	3.561097	0.603266	0.000036
 382	3.7910e+01	3.7848	-2.330203	0.000332	3.315504	0.561662	0.000033
 383	3.8009e+01	3.7950	-2.293135	0.000372	3.724826	0.631003	0.000037
 384	3.8108e+01	3.8082	-2.264214	0.000291	2.906183	0.492321	0.000029
 385	3.8208e+01	3.8168	-2.227960	0.000364	3.642961	0.617134	0.000036
 386	3.8307e+01	3.8249	-2.197409	0.000307	3.069911	0.520057	0.000031
 387	3.8407e+01	3.8358	-2.168081	0.000295	2.947115	0.499255	0.000029
 388	3.8507e+01	3.8471	-2.130605	0.000377	3.765758	0.637937	0.000038
 389	3.8606e+01	3.8556	-2.101684	0.000291	2.906183	0.492321	0.000029
 390	3.8706e+01	3.8672	-2.063801	0.000381	3.806690	0.644871	0.000038
 391	3.8805e+01	3.8769	-2.034065	0.000299	2.988047	0.506189	0.000030
 392	3.8904e+01	3.8881	-2.002700	0.000315	3.151775	0.533925	0.000032
 393	3.9004e+01	3.8958	-1.967668	0.000352	3.520165	0.596332	0.000035
 394	3.9103e+01	3.9043	-1.935895	0.000319	3.192708	0.540859	0.000032
 395	3.9203e+01	3.9175	-1.901271	0.000348	3.479233	0.589398	0.000035
 396	3.9303e+01	3.9275	-1.868277	0.000332	3.315504	0.561662	0.000033
 397	3.9402e+01	3.9349	-1.833245	0.000352	3.520165	0.596332	0.000035
 398	3.9502e+01	3.9466	-1.802694	0.000307	3.069911	0.520057	0.000031
 399	3.9601e+01	3.9577	-1.769292	0.000336	3.356436	0.568596	0.000034
 400	3.9700e+01	3.9709	-1.737112	0.000323	3.233640	0.547793	0.000032
 401	3.9800e+01	3.9753	-1.707784	0.000295	2.947115	0.499255	0.000029
 402	3.9900e+01	3.9860	-1.678048	0.000299	2.988047	0.506189	0.000030
 403	3.9999e+01	3.9954	-1.640165	0.000381	3.806690	0.644871	0.000038
 404	4.0099e+01	4.0026	-1.613688	0.000266	2.660590	0.450716	0.000027
 405	4.0198e+01	4.0179	-1.577434	0.000364	3.642961	0.617134	0.000036
 406	4.0297e+01	4.0258	-1.542810	0.000348	3.479233	0.589398	0.000035
 407	4.0397e+01	4.0372	-1.516333	0.000266	2.660590	0.450716	0.000027
 408	4.0496e+01	4.0444	-1.481301	0.000352	3.520165	0.596332	0.000035
 409	4.0596e+01	4.0531	-1.448714	0.000327	3.274572	0.554728	0.000033
 410	4.0696e+01	4.0647	-1.415312	0.000336	3.356436	0.568596	0.000034
 411	4.0795e+01	4.0734	-1.385983	0.000295	2.947115	0.499255	0.000029
 412	4.0895e+01	4.0853	-1.351766	0.000344	3.438301	0.582464	0.000034
 413	4.0994e+01	4.0959	-1.317957	0.000340	3.397368	0.575530	0.000034
 414	4.1093e+01	4.1032	-1.287406	0.000307	3.069911	0.520057	0.000031
 415	4.1193e+01	4.1148	-1.259299	0.000282	2.824318	0.478452	0.000028
 416	4.1292e+01	4.1265	-1.228749	0.000307	3.069911	0.520057	0.000031
 417	4.1392e+01	4.1360	-1.196569	0.000323	3.233640	0.547793	0.000032
 418	4.1492e+01	4.1437	-1.170906	0.000258	2.578725	0.436848	0.000026
 419	4.1591e+01	4.1563	-1.137097	0.000340	3.397368	0.575530	0.000034
 420	4.1691e+01	4.1671	-1.107768	0.000295	2.947115	0.499255	0.000029
 421	4.1790e+01	4.1761	-1.075181	0.000327	3.274572	0.554728	0.000033
 422	4.1889e+01	4.1840	-1.049518	0.000258	2.578725	0.436848	0.000026
 423	4.1989e+01	4.1933	-1.014894	0.000348	3.479233	0.589398	0.000035
 424	4.2089e+01	4.2060	-0.983529	0.000315	3.151775	0.533925	0.000032
 425	4.2188e+01	4.2135	-0.957051	0.000266	2.660590	0.450716	0.000027
 426	4.2288e+01	4.2239	-0.924464	0.000327	3.274572	0.554728	0.000033
 427	4.2387e+01	4.2347	-0.897987	0.000266	2.660590	0.450716	0.000027
 428	4.2486e+01	4.2457	-0.864992	0.000332	3.315504	0.561662	0.000033
 429	4.2586e+01	4.2547	-0.835256	0.000299	2.988047	0.506189	0.000030
 430	4.2685e+01	4.2614	-0.808371	0.000270	2.701522	0.457650	0.000027
 431	4.2785e+01	4.2742	-0.779857	0.000287	2.865250	0.485387	0.000029
 432	4.2885e+01	4.2832	-0.756231	0.000237	2.374065	0.402177	0.000024
 433	4.2984e+01	4.2950	-0.724866	0.000315	3.151775	0.533925	0.000032
 434	4.3084e+01	4.3058	-0.697167	0.000278	2.783386	0.471518	0.000028
 435	4.3183e+01	4.3143	-0.666616	0.000307	3.069911	0.520057	0.000031
 436	4.3282e+01	4.3235	-0.635658	0.000311	3.110843	0.526991	0.000031
 437	4.3382e+01	4.3343	-0.607144	0.000287	2.865250	0.485387	0.000029
 438	4.3481e+01	4.3457	-0.573742	0.000336	3.356436	0.568596	0.000034
 439	4.3581e+01	4.3533	-0.544413	0.000295	2.947115	0.499255	0.000029
 440	4.3681e+01	4.3626	-0.515492	0.000291	2.906183	0.492321	0.000029
 441	4.3780e+01	4.3714	-0.487793	0.000278	2.783386	0.471518	0.000028
 442	4.3880e+01	4.3822	-0.457242	0.000307	3.069911	0.520057	0.000031
 443	4.3979e+01	4.3969	-0.429543	0.000278	2.783386	0.471518	0.000028
 444	4.4078e+01	4.4030	-0.395326	0.000344	3.438301	0.582464	0.000034
 445	4.4178e+01	4.4144	-0.370885	0.000246	2.455929	0.416046	0.000025
 446	4.4278e+01	4.4241	-0.341149	0.000299	2.988047	0.506189	0.000030
 447	4.4377e+01	4.4337	-0.307747	0.000336	3.356436	0.568596	0.000034
 448	4.4477e+01	4.4401	-0.278419	0.000295	2.947115	0.499255	0.000029
 449	4.4576e+01	4.4537	-0.245831	0.000327	3.274572	0.554728	0.000033
 450	4.4675e+01	4.4593	-0.212836	0.000332	3.315504	0.561662	0.000033
 451	4.4775e+01	4.4732	-0.180656	0.000323	3.233640	0.547793	0.000032
 452	4.4874e+01	4.4842	-0.149698	0.000311	3.110843	0.526991	0.000031
 453	4.4974e+01	4.4941	-0.119148	0.000307	3.069911	0.520057	0.000031
 454	4.5074e+01	4.5035	-0.087375	0.000319	3.192708	0.540859	0.000032
 455	4.5173e+01	4.5157	-0.055195	0.000323	3.233640	0.547793	0.000032
 456	4.5273e+01	4.5208	-0.023830	0.000315	3.151775	0.533925	0.000032
 457	4.5372e+01	4.5329	0.009165	0.000332	3.315504	0.561662	0.000033
 458	4.5471e+01	4.5428	0.041753	0.000327	3.274572	0.554728	0.000033
 459	4.5571e+01	4.5545	0.075562	0.000340	3.397368	0.575530	0.000034
 460	4.5670e+01	4.5629	0.107742	0.000323	3.233640	0.547793	0.000032
 461	4.5770e+01	4.5722	0.141959	0.000344	3.438301	0.582464	0.000034
 462	4.5870e+01	4.5832	0.174954	0.000332	3.315504	0.561662	0.000033
 463	4.5969e+01	4.5928	0.208763	0.000340	3.397368	0.575530	0.000034
 464	4.6069e+01	4.6045	0.236462	0.000278	2.783386	0.471518	0.000028
 465	4.6168e+01	4.6145	0.267420	0.000311	3.110843	0.526991	0.000031
 466	4.6267e+01	4.6220	0.303267	0.000360	3.602029	0.610200	0.000036
 467	4.6367e+01	4.6320	0.332595	0.000295	2.947115	0.499255	0.000029
 468	4.6467e+01	4.6443	0.365997	0.000336	3.356436	0.568596	0.000034
 469	4.6566e+01	4.6529	0.399807	0.000340	3.397368	0.575530	0.000034
 470	4.6666e+01	4.6639	0.427506	0.000278	2.783386	0.471518	0.000028
 471	4.6765e+01	4.6762	0.467833	0.000405	4.052283	0.686475	0.000041
 472	4.6864e+01	4.6822	0.495532	0.000278	2.783386	0.471518	0.000028
 473	4.6964e+01	4.6926	0.530564	0.000352	3.520165	0.596332	0.000035
 474	4.7063e+01	4.7015	0.561114	0.000307	3.069911	0.520057	0.000031
 475	4.7163e+01	4.7117	0.597368	0.000364	3.642961	0.617134	0.000036
 476	4.7263e+01	4.7194	0.632399	0.000352	3.520165	0.596332	0.000035
 477	4.7362e+01	4.7309	0.662135	0.000299	2.988047	0.506189	0.000030
 478	4.7462e+01	4.7405	0.697981	0.000360	3.602029	0.610200	0.000036
 479	4.7561e+01	4.7504	0.734235	0.000364	3.642961	0.617134	0.000036
 480	4.7660e+01	4.7640	0.760305	0.000262	2.619658	0.443782	0.000026
 481	4.7760e+01	4.7713	0.793300	0.000332	3.315504	0.561662	0.000033
 482	4.7859e+01	4.7793	0.825887	0.000327	3.274572	0.554728	0.000033
 483	4.7959e+01	4.7914	0.858067	0.000323	3.233640	0.547793	0.000032
 484	4.8059e+01	4.8035	0.888618	0.000307	3.069911	0.520057	0.000031
 485	4.8158e+01	4.8113	0.925686	0.000372	3.724826	0.631003	0.000037
 486	4.8258e+01	4.8206	0.955829	0.000303	3.028979	0.513123	0.000030
 487	4.8357e+01	4.8328	0.991268	0.000356	3.561097	0.603266	0.000036
 488	4.8456e+01	4.8426	1.025485	0.000344	3.438301	0.582464	0.000034
 489	4.8556e+01	4.8534	1.058072	0.000327	3.274572	0.554728	0.000033
 490	4.8656e+01	4.8603	1.090252	0.000323	3.233640	0.547793	0.000032
 491	4.8755e+01	4.8717	1.122025	0.000319	3.192708	0.540859	0.000032
 492	4.8855e+01	4.8815	1.157464	0.000356	3.561097	0.603266	0.000036
 493	4.8954e+01	4.8930	1.187200	0.000299	2.988047	0.506189	0.000030
 494	4.9053e+01	4.9030	1.218973	0.000319	3.192708	0.540859	0.000032
 495	4.9153e+01	4.9137	1.250745	0.000319	3.192708	0.540859	0.000032
 496	4.9252e+01	4.9210	1.282111	0.000315	3.151775	0.533925	0.000032
 497	4.9352e+01	4.9321	1.315513	0.000336	3.356436	0.568596	0.000034
 498	4.9452e+01	4.9403	1.346471	0.000311	3.110843	0.526991	0.000031
 499	4.9551e+01	4.9495	1.379873	0.000336	3.356436	0.568596	0.000034
 500	4.9651e+01	4.9603	1.416534	0.000368	3.683893	0.624068	0.000037
 501	4.9750e+01	4.9700	1.451565	0.000352	3.520165	0.596332	0.000035
 502	4.9849e+01	4.9820	1.485782	0.000344	3.438301	0.582464	0.000034
 503	4.9949e+01	4.9926	1.519591	0.000340	3.397368	0.575530	0.000034
 504	5.0048e+01	4.9994	1.552993	0.000336	3.356436	0.568596	0.000034
 505	5.0148e+01	5.0094	1.585988	0.000332	3.315504	0.561662	0.000033
 506	5.0248e+01	5.0198	1.625093	0.000393	3.929486	0.665673	0.000039
 507	5.0347e+01	5.0309	1.657273	0.000323	3.233640	0.547793	0.000032
 508	5.0447e+01	5.0423	1.691490	0.000344	3.438301	0.582464	0.000034
 509	5.0546e+01	5.0534	1.719189	0.000278	2.783386	0.471518	0.000028
 510	5.0645e+01	5.0627	1.753813	0.000348	3.479233	0.589398	0.000035
 511	5.0745e+01	5.0726	1.789252	0.000356	3.561097	0.603266	0.000036
 512	5.0844e+01	5.0779	1.825098	0.000360	3.602029	0.610200	0.000036
 513	5.0944e+01	5.0921	1.861759	0.000368	3.683893	0.624068	0.000037
 514	5.1044e+01	5.0993	1.894754	0.000332	3.315504	0.561662	0.000033
 515	5.1143e+01	5.1095	1.931415	0.000368	3.683893	0.624068	0.000037
 516	5.1242e+01	5.1189	1.966446	0.000352	3.520165	0.596332	0.000035
 517	5.1342e+01	5.1305	2.002700	0.000364	3.642961	0.617134	0.000036
 518	5.1441e+01	5.1394	2.036916	0.000344	3.438301	0.582464	0.000034
 519	5.1541e+01	5.1472	2.072763	0.000360	3.602029	0.610200	0.000036
 520	5.1641e+01	5.1592	2.103721	0.000311	3.110843	0.526991	0.000031
 521	5.1740e+01	5.1704	2.138752	0.000352	3.520165	0.596332	0.000035
 522	5.1840e+01	5.1797	2.167673	0.000291	2.906183	0.492321	0.000029
 523	5.1939e+01	5.1893	2.204334	0.000368	3.683893	0.624068	0.000037
 524	5.2038e+01	5.2009	2.236107	0.000319	3.192708	0.540859	0.000032
 525	5.2138e+01	5.2105	2.265843	0.000299	2.988047	0.506189	0.000030
 526	5.2237e+01	5.2200	2.303318	0.000377	3.765758	0.637937	0.000038
 527	5.2337e+01	5.2308	2.334684	0.000315	3.151775	0.533925	0.000032
 528	5.2437e+01	5.2392	2.366864	0.000323	3.233640	0.547793	0.000032
 529	5.2536e+01	5.2486	2.399451	0.000327	3.274572	0.554728	0.000033
 530	5.2636e+01	5.2573	2.430817	0.000315	3.151775	0.533925	0.000032
 531	5.2735e+01	5.2682	2.465441	0.000348	3.479233	0.589398	0.000035
 532	5.2834e+01	5.2789	2.491918	0.000266	2.660590	0.450716	0.000027
 533	5.2934e+01	5.2894	2.523283	0.000315	3.151775	0.533925	0.000032
 534	5.3033e+01	5.2999	2.555056	0.000319	3.192708	0.540859	0.000032
 535	5.3133e+01	5.3066	2.587644	0.000327	3.274572	0.554728	0.000033
 536	5.3233e+01	5.3179	2.617787	0.000303	3.028979	0.513123	0.000030
 537	5.3332e+01	5.3275	2.648338	0.000307	3.069911	0.520057	0.000031
 538	5.3431e+01	5.3381	2.679703	0.000315	3.151775	0.533925	0.000032
 539	5.3531e+01	5.3482	2.708217	0.000287	2.865250	0.485387	0.000029
 540	5.3630e+01	5.3606	2.740397	0.000323	3.233640	0.547793	0.000032
 541	5.3730e+01	5.3698	2.770948	0.000307	3.069911	0.520057	0.000031
 542	5.3830e+01	5.3773	2.797832	0.000270	2.701522	0.457650	0.000027
 543	5.3929e+01	5.3906	2.828790	0.000311	3.110843	0.526991	0.000031
 544	5.4029e+01	5.3967	2.861378	0.000327	3.274572	0.554728	0.000033
 545	5.4128e+01	5.4070	2.891114	0.000299	2.988047	0.506189	0.000030
 546	5.4227e+01	5.4218	2.918813	0.000278	2.783386	0.471518	0.000028
 547	5.4327e+01	5.4272	2.948956	0.000303	3.028979	0.513123	0.000030
 548	5.4426e+01	5.4383	2.978692	0.000299	2.988047	0.506189	0.000030
 549	5.4526e+01	5.4482	3.008836	0.000303	3.028979	0.513123	0.000030
 550	5.4626e+01	5.4583	3.037350	0.000287	2.865250	0.485387	0.000029
 551	5.4725e+01	5.4720	3.064642	0.000274	2.742454	0.464584	0.000027
 552	5.4825e+01	5.4803	3.094378	0.000299	2.988047	0.506189	0.000030
 553	5.4924e+01	5.4908	3.123299	0.000291	2.906183	0.492321	0.000029
 554	5.5023e+01	5.4982	3.155886	0.000327	3.274572	0.554728	0.000033
 555	5.5123e+01	5.5083	3.184808	0.000291	2.906183	0.492321	0.000029
 556	5.5222e+01	5.5166	3.210470	0.000258	2.578725	0.436848	0.000026
 557	5.5322e+01	5.5280	3.238170	0.000278	2.783386	0.471518	0.000028
 558	5.5422e+01	5.5358	3.266276	0.000282	2.824318	0.478452	0.000028
 559	5.5521e+01	5.5465	3.294790	0.000287	2.865250	0.485387	0.000029
 560	5.5620e+01	5.5561	3.326156	0.000315	3.151775	0.533925	0.000032
 561	5.5720e+01	5.5704	3.353855	0.000278	2.783386	0.471518	0.000028
 562	5.5819e+01	5.5782	3.383184	0.000295	2.947115	0.499255	0.000029
 563	5.5919e+01	5.5885	3.410476	0.000274	2.742454	0.464584	0.000027
 564	5.6019e+01	5.5988	3.442656	0.000323	3.233640	0.547793	0.000032
 565	5.6118e+01	5.6071	3.470762	0.000282	2.824318	0.478452	0.000028
 566	5.6218e+01	5.6188	3.491537	0.000209	2.087540	0.353639	0.000021
 567	5.6317e+01	5.6264	3.522087	0.000307	3.069911	0.520057	0.000031
 568	5.6416e+01	5.6390	3.551823	0.000299	2.988047	0.506189	0.000030
 569	5.6516e+01	5.6494	3.579115	0.000274	2.742454	0.464584	0.000027
 570	5.6615e+01	5.6588	3.605593	0.000266	2.660590	0.450716	0.000027
 571	5.6715e+01	5.6680	3.630440	0.000250	2.496861	0.422980	0.000025
 572	5.6815e+01	5.6760	3.657325	0.000270	2.701522	0.457650	0.000027
 573	5.6914e+01	5.6882	3.687876	0.000307	3.069911	0.520057	0.000031
 574	5.7014e+01	5.6974	3.715575	0.000278	2.783386	0.471518	0.000028
 575	5.7113e+01	5.7067	3.743274	0.000278	2.783386	0.471518	0.000028
 576	5.7212e+01	5.7165	3.772603	0.000295	2.947115	0.499255	0.000029
 577	5.7312e+01	5.7278	3.799895	0.000274	2.742454	0.464584	0.000027
 578	5.7411e+01	5.7361	3.831260	0.000315	3.151775	0.533925	0.000032
 579	5.7511e+01	5.7488	3.856923	0.000258	2.578725	0.436848	0.000026
 580	5.7611e+01	5.7569	3.886659	0.000299	2.988047	0.506189	0.000030
 581	5.7710e+01	5.7655	3.911507	0.000250	2.496861	0.422980	0.000025
 582	5.7809e+01	5.7754	3.937984	0.000266	2.660590	0.450716	0.000027
 583	5.7909e+01	5.7878	3.966498	0.000287	2.865250	0.485387	0.000029
 584	5.8008e+01	5.7973	3.991346	0.000250	2.496861	0.422980	0.000025
 585	5.8108e+01	5.8068	4.018231	0.000270	2.701522	0.457650	0.000027
 586	5.8208e+01	5.8167	4.042671	0.000246	2.455929	0.416046	0.000025
 587	5.8307e+01	5.8273	4.069148	0.000266	2.660590	0.450716	0.000027
 588	5.8407e+01	5.8361	4.093182	0.000241	2.414997	0.409112	0.000024
 589	5.8506e+01	5.8474	4.119252	0.000262	2.619658	0.443782	0.000026
 590	5.8605e+01	5.8562	4.146544	0.000274	2.742454	0.464584	0.000027
 591	5.8705e+01	5.8644	4.174243	0.000278	2.783386	0.471518	0.000028
 592	5.8804e+01	5.8762	4.201942	0.000278	2.783386	0.471518	0.000028
 593	5.8904e+01	5.8868	4.227197	0.000254	2.537793	0.429914	0.000025
 594	5.9004e+01	5.8971	4.253267	0.000262	2.619658	0.443782	0.000026
 595	5.9103e+01	5.9061	4.276893	0.000237	2.374065	0.402177	0.000024
 596	5.9203e+01	5.9148	4.307851	0.000311	3.110843	0.526991	0.000031
 597	5.9302e+01	5.9274	4.325367	0.000176	1.760082	0.298166	0.000018
 598	5.9401e+01	5.9350	4.351029	0.000258	2.578725	0.436848	0.000026
 599	5.9501e+01	5.9466	4.374655	0.000237	2.374065	0.402177	0.000024
 600	5.9600e+01	5.9559	4.397467	0.000229	2.292200	0.388309	0.000023
 601	5.9700e+01	5.9669	4.422722	0.000254	2.537793	0.429914	0.000025
 602	5.9800e+01	5.9776	4.448384	0.000258	2.578725	0.436848	0.000026
 603	5.9899e+01	5.9878	4.475676	0.000274	2.742454	0.464584	0.000027
 604	5.9998e+01	5.9982	4.499302	0.000237	2.374065	0.402177	0.000024
 605	6.0098e+01	6.0076	4.523743	0.000246	2.455929	0.416046	0.000025
 606	6.0197e+01	6.0133	4.552257	0.000287	2.865250	0.485387	0.000029
 607	6.0297e+01	6.0239	4.581178	0.000291	2.906183	0.492321	0.000029
 608	6.0397e+01	6.0361	4.603582	0.000225	2.251268	0.381375	0.000023
 609	6.0496e+01	6.0427	4.630466	0.000270	2.701522	0.457650	0.000027
 610	6.0596e+01	6.0546	4.653278	0.000229	2.292200	0.388309	0.000023
 611	6.0695e+01	6.0645	4.680570	0.000274	2.742454	0.464584	0.000027
 612	6.0794e+01	6.0758	4.705417	0.000250	2.496861	0.422980	0.000025
 613	6.0894e+01	6.0859	4.729451	0.000241	2.414997	0.409112	0.000024
 614	6.0993e+01	6.0938	4.761223	0.000319	3.192708	0.540859	0.000032
 615	6.1093e+01	6.1053	4.783220	0.000221	2.210336	0.374441	0.000022
 616	6.1193e+01	6.1160	4.812141	0.000291	2.906183	0.492321	0.000029
 617	6.1292e+01	6.1245	4.837804	0.000258	2.578725	0.436848	0.000026
 618	6.1392e+01	6.1355	4.869169	0.000315	3.151775	0.533925	0.000032
 619	6.1491e+01	6.1443	4.897683	0.000287	2.865250	0.485387	0.000029
 620	6.1590e+01	6.1546	4.925382	0.000278	2.783386	0.471518	0.000028
 621	6.1690e+01	6.1657	4.955118	0.000299	2.988047	0.506189	0.000030
 622	6.1789e+01	6.1749	4.980781	0.000258	2.578725	0.436848	0.000026
 623	6.1889e+01	6.1852	5.010110	0.000295	2.947115	0.499255	0.000029
 624	6.1989e+01	6.1929	5.040253	0.000303	3.028979	0.513123	0.000030
 625	6.2088e+01	6.2045	5.065916	0.000258	2.578725	0.436848	0.000026
 626	6.2188e+01	6.2128	5.096059	0.000303	3.028979	0.513123	0.000030
 627	6.2287e+01	6.2257	5.126202	0.000303	3.028979	0.513123	0.000030
 628	6.2386e+01	6.2345	5.152680	0.000266	2.660590	0.450716	0.000027
 629	6.2486e+01	6.2463	5.181601	0.000291	2.906183	0.492321	0.000029
 630	6.2586e+01	6.2537	5.212152	0.000307	3.069911	0.520057	0.000031
 631	6.2685e+01	6.2651	5.236592	0.000246	2.455929	0.416046	0.000025
 632	6.2785e+01	6.2728	5.266736	0.000303	3.028979	0.513123	0.000030
 633	6.2884e+01	6.2837	5.298101	0.000315	3.151775	0.533925	0.000032
 634	6.2983e+01	6.2955	5.328244	0.000303	3.028979	0.513123	0.000030
 635	6.3083e+01	6.3021	5.351055	0.000229	2.292200	0.388309	0.000023
 636	6.3182e+01	6.3103	5.379977	0.000291	2.906183	0.492321	0.000029
 637	6.3282e+01	6.3219	5.409713	0.000299	2.988047	0.506189	0.000030
 638	6.3382e+01	6.3315	5.436597	0.000270	2.701522	0.457650	0.000027
 639	6.3481e+01	6.3435	5.466741	0.000303	3.028979	0.513123	0.000030
 640	6.3581e+01	6.3534	5.498513	0.000319	3.192708	0.540859	0.000032
 641	6.3680e+01	6.3636	5.528657	0.000303	3.028979	0.513123	0.000030
 642	6.3779e+01	6.3742	5.558800	0.000303	3.028979	0.513123	0.000030
 643	6.3879e+01	6.3823	5.588943	0.000303	3.028979	0.513123	0.000030
 644	6.3978e+01	6.3927	5.615013	0.000262	2.619658	0.443782	0.000026
 645	6.4078e+01	6.4022	5.640676	0.000258	2.578725	0.436848	0.000026
 646	6.4177e+01	6.4164	5.668375	0.000278	2.783386	0.471518	0.000028
 647	6.4277e+01	6.4236	5.703814	0.000356	3.561097	0.603266	0.000036
 648	6.4376e+01	6.4312	5.731106	0.000274	2.742454	0.464584	0.000027
 649	6.4476e+01	6.4429	5.757991	0.000270	2.701522	0.457650	0.000027
 650	6.4576e+01	6.4520	5.787727	0.000299	2.988047	0.506189	0.000030
 651	6.4675e+01	6.4635	5.818277	0.000307	3.069911	0.520057	0.000031
 652	6.4775e+01	6.4730	5.846384	0.000282	2.824318	0.478452	0.000028
 653	6.4874e+01	6.4817	5.877342	0.000311	3.110843	0.526991	0.000031
 654	6.4974e+01	6.4909	5.910744	0.000336	3.356436	0.568596	0.000034
 655	6.5073e+01	6.5047	5.938851	0.000282	2.824318	0.478452	0.000028
 656	6.5172e+01	6.5118	5.965328	0.000266	2.660590	0.450716	0.000027
 657	6.5272e+01	6.5241	5.996286	0.000311	3.110843	0.526991	0.000031
 658	6.5371e+01	6.5299	6.028059	0.000319	3.192708	0.540859	0.000032
 659	6.5471e+01	6.5414	6.059831	0.000319	3.192708	0.540859	0.000032
 660	6.5570e+01	6.5528	6.081013	0.000213	2.128472	0.360573	0.000021
 661	6.5670e+01	6.5625	6.111564	0.000307	3.069911	0.520057	0.000031
 662	6.5769e+01	6.5716	6.142929	0.000315	3.151775	0.533925	0.000032
 663	6.5869e+01	6.5830	6.167777	0.000250	2.496861	0.422980	0.000025
 664	6.5969e+01	6.5931	6.197513	0.000299	2.988047	0.506189	0.000030
 665	6.6068e+01	6.6024	6.230101	0.000327	3.274572	0.554728	0.000033
 666	6.6168e+01	6.6122	6.259837	0.000299	2.988047	0.506189	0.000030
 667	6.6267e+01	6.6236	6.290387	0.000307	3.069911	0.520057	0.000031
 668	6.6367e+01	6.6334	6.318901	0.000287	2.865250	0.485387	0.000029
 669	6.6466e+01	6.6399	6.351081	0.000323	3.233640	0.547793	0.000032
 670	6.6566e+01	6.6518	6.385706	0.000348	3.479233	0.589398	0.000035
 671	6.6665e+01	6.6621	6.412183	0.000266	2.660590	0.450716	0.000027
 672	6.6764e+01	6.6729	6.448844	0.000368	3.683893	0.624068	0.000037
 673	6.6864e+01	6.6833	6.476950	0.000282	2.824318	0.478452	0.000028
 674	6.6963e+01	6.6904	6.509538	0.000327	3.274572	0.554728	0.000033
 675	6.7063e+01	6.7028	6.537644	0.000282	2.824318	0.478452	0.000028
 676	6.7162e+01	6.7130	6.571046	0.000336	3.356436	0.568596	0.000034
 677	6.7262e+01	6.7229	6.598338	0.000274	2.742454	0.464584	0.000027
 678	6.7362e+01	6.7302	6.629704	0.000315	3.151775	0.533925	0.000032
 679	6.7461e+01	6.7428	6.659847	0.000303	3.028979	0.513123	0.000030
 680	6.7561e+01	6.7523	6.693656	0.000340	3.397368	0.575530	0.000034
 681	6.7660e+01	6.7604	6.722985	0.000295	2.947115	0.499255	0.000029
 682	6.7760e+01	6.7713	6.761275	0.000385	3.847622	0.651805	0.000038
 683	6.7859e+01	6.7828	6.793455	0.000323	3.233640	0.547793	0.000032
 684	6.7959e+01	6.7922	6.825635	0.000323	3.233640	0.547793	0.000032
 685	6.8058e+01	6.8029	6.857816	0.000323	3.233640	0.547793	0.000032
 686	6.8157e+01	6.8118	6.888366	0.000307	3.069911	0.520057	0.000031
 687	6.8257e+01	6.8246	6.917288	0.000291	2.906183	0.492321	0.000029
 688	6.8356e+01	6.8301	6.945802	0.000287	2.865250	0.485387	0.000029
 689	6.8456e+01	6.8421	6.978796	0.000332	3.315504	0.561662	0.000033
 690	6.8555e+01	6.8499	7.006088	0.000274	2.742454	0.464584	0.000027
 691	6.8655e+01	6.8606	7.037454	0.000315	3.151775	0.533925	0.000032
 692	6.8754e+01	6.8721	7.065560	0.000282	2.824318	0.478452	0.000028
 693	6.8854e+01	6.8807	7.097333	0.000319	3.192708	0.540859	0.000032
 694	6.8954e+01	6.8913	7.131142	0.000340	3.397368	0.575530	0.000034
 695	6.9053e+01	6.9025	7.159656	0.000287	2.865250	0.485387	0.000029
 696	6.9153e+01	6.9106	7.184097	0.000246	2.455929	0.416046	0.000025
 697	6.9252e+01	6.9192	7.216684	0.000327	3.274572	0.554728	0.000033
 698	6.9352e+01	6.9309	7.246828	0.000303	3.028979	0.513123	0.000030
 699	6.9451e+01	6.9393	7.278193	0.000315	3.151775	0.533925	0.000032
 700	6.9550e+01	6.9542	7.304670	0.000266	2.660590	0.450716	0.000027
 701	6.9650e+01	6.9613	7.332777	0.000282	2.824318	0.478452	0.000028
 702	6.9749e+01	6.9711	7.356810	0.000241	2.414997	0.409112	0.000024
 703	6.9849e+01	6.9800	7.386546	0.000299	2.988047	0.506189	0.000030
 704	6.9948e+01	6.9897	7.414653	0.000282	2.824318	0.478452	0.000028
 705	7.0048e+01	7.0004	7.443167	0.000287	2.865250	0.485387	0.000029
 706	7.0147e+01	7.0093	7.472088	0.000291	2.906183	0.492321	0.000029
 707	7.0247e+01	7.0202	7.501824	0.000299	2.988047	0.506189	0.000030
 708	7.0347e+01	7.0290	7.525857	0.000241	2.414997	0.409112	0.000024
 709	7.0446e+01	7.0412	7.557630	0.000319	3.192708	0.540859	0.000032
 710	7.0546e+01	7.0526	7.586144	0.000287	2.865250	0.485387	0.000029
 711	7.0645e+01	7.0599	7.609770	0.000237	2.374065	0.402177	0.000024
 712	7.0745e+01	7.0699	7.634210	0.000246	2.455929	0.416046	0.000025
 713	7.0844e+01	7.0808	7.664354	0.000303	3.028979	0.513123	0.000030
 714	7.0944e+01	7.0870	7.694904	0.000307	3.069911	0.520057	0.000031
 715	7.1043e+01	7.0991	7.721789	0.000270	2.701522	0.457650	0.000027
 716	7.1142e+01	7.1072	7.748266	0.000266	2.660590	0.450716	0.000027
 717	7.1242e+01	7.1185	7.773114	0.000250	2.496861	0.422980	0.000025
 718	7.1341e+01	7.1302	7.803665	0.000307	3.069911	0.520057	0.000031
 719	7.1441e+01	7.1400	7.828920	0.000254	2.537793	0.429914	0.000025
 720	7.1540e+01	7.1489	7.854990	0.000262	2.619658	0.443782	0.000026
 721	7.1640e+01	7.1597	7.880653	0.000258	2.578725	0.436848	0.000026
 722	7.1740e+01	7.1691	7.907945	0.000274	2.742454	0.464584	0.000027
 723	7.1839e+01	7.1807	7.932385	0.000246	2.455929	0.416046	0.000025
 724	7.1939e+01	7.1878	7.962529	0.000303	3.028979	0.513123	0.000030
 725	7.2038e+01	7.1975	7.984525	0.000221	2.210336	0.374441	0.000022
 726	7.2138e+01	7.2078	8.013854	0.000295	2.947115	0.499255	0.000029
 727	7.2237e+01	7.2187	8.042775	0.000291	2.906183	0.492321	0.000029
 728	7.2337e+01	7.2296	8.066808	0.000241	2.414997	0.409112	0.000024
 729	7.2436e+01	7.2370	8.092063	0.000254	2.537793	0.429914	0.000025
 730	7.2535e+01	7.2486	8.119355	0.000274	2.742454	0.464584	0.000027
 731	7.2635e+01	7.2616	8.146647	0.000274	2.742454	0.464584	0.000027
 732	7.2734e+01	7.2686	8.174754	0.000282	2.824318	0.478452	0.000028
 733	7.2834e+01	7.2820	8.198787	0.000241	2.414997	0.409112	0.000024
 734	7.2933e+01	7.2887	8.228116	0.000295	2.947115	0.499255	0.000029
 735	7.3033e+01	7.2980	8.251334	0.000233	2.333132	0.395243	0.000023
 736	7.3132e+01	7.3083	8.275775	0.000246	2.455929	0.416046	0.000025
 737	7.3232e+01	7.3178	8.303067	0.000274	2.742454	0.464584	0.000027
 738	7.3332e+01	7.3278	8.329952	0.000270	2.701522	0.457650	0.000027
 739	7.3431e+01	7.3393	8.352763	0.000229	2.292200	0.388309	0.000023
 740	7.3531e+01	7.3490	8.380055	0.000274	2.742454	0.464584	0.000027
 741	7.3630e+01	7.3585	8.406125	0.000262	2.619658	0.443782	0.000026
 742	7.3730e+01	7.3677	8.433009	0.000270	2.701522	0.457650	0.000027
 743	7.3829e+01	7.3765	8.457042	0.000241	2.414997	0.409112	0.000024
 744	7.3928e+01	7.3862	8.485556	0.000287	2.865250	0.485387	0.000029
 745	7.4028e+01	7.3978	8.512441	0.000270	2.701522	0.457650	0.000027
 746	7.4127e+01	7.4058	8.539326	0.000270	2.701522	0.457650	0.000027
 747	7.4227e+01	7.4181	8.567432	0.000282	2.824318	0.478452	0.000028
 748	7.4326e+01	7.4293	8.593502	0.000262	2.619658	0.443782	0.000026
 749	7.4426e+01	7.4372	8.618757	0.000254	2.537793	0.429914	0.000025
 750	7.4525e+01	7.4464	8.641976	0.000233	2.333132	0.395243	0.000023
 751	7.4625e+01	7.4587	8.666824	0.000250	2.496861	0.422980	0.000025
 752	7.4725e+01	7.4662	8.694930	0.000282	2.824318	0.478452	0.000028
 753	7.4824e+01	7.4787	8.716520	0.000217	2.169404	0.367507	0.000022
 754	7.4924e+01	7.4886	8.740145	0.000237	2.374065	0.402177	0.000024
 755	7.5023e+01	7.4993	8.764179	0.000241	2.414997	0.409112	0.000024
 756	7.5123e+01	7.5082	8.786583	0.000225	2.251268	0.381375	0.000023
 757	7.5222e+01	7.5172	8.814282	0.000278	2.783386	0.471518	0.000028
 758	7.5322e+01	7.5277	8.839130	0.000250	2.496861	0.422980	0.000025
 759	7.5421e+01	7.5382	8.868458	0.000295	2.947115	0.499255	0.000029
 760	7.5520e+01	7.5472	8.888825	0.000205	2.046607	0.346705	0.000020
 761	7.5620e+01	7.5591	8.919784	0.000311	3.110843	0.526991	0.000031
 762	7.5719e+01	7.5669	8.942187	0.000225	2.251268	0.381375	0.000023
 763	7.5819e+01	7.5758	8.964184	0.000221	2.210336	0.374441	0.000022
 764	7.5918e+01	7.5871	8.989439	0.000254	2.537793	0.429914	0.000025
 765	7.6018e+01	7.5987	9.011436	0.000221	2.210336	0.374441	0.000022
 766	7.6118e+01	7.6069	9.035061	0.000237	2.374065	0.402177	0.000024
 767	7.6217e+01	7.6179	9.052985	0.000180	1.801015	0.305100	0.000018
 768	7.6317e+01	7.6297	9.078647	0.000258	2.578725	0.436848	0.000026
 769	7.6416e+01	7.6367	9.104717	0.000262	2.619658	0.443782	0.000026
 770	7.6516e+01	7.6485	9.125492	0.000209	2.087540	0.353639	0.000021
 771	7.6615e+01	7.6597	9.152376	0.000270	2.701522	0.457650	0.000027
 772	7.6715e+01	7.6665	9.180075	0.000278	2.783386	0.471518	0.000028
 773	7.6814e+01	7.6793	9.203701	0.000237	2.374065	0.402177	0.000024
 774	7.6913e+01	7.6853	9.231808	0.000282	2.824318	0.478452	0.000028
 775	7.7013e+01	7.6974	9.257878	0.000262	2.619658	0.443782	0.000026
 776	7.7112e+01	7.7070	9.281911	0.000241	2.414997	0.409112	0.000024
 777	7.7212e+01	7.7161	9.308796	0.000270	2.701522	0.457650	0.000027
 778	7.7311e+01	7.7273	9.334051	0.000254	2.537793	0.429914	0.000025
 779	7.7411e+01	7.7346	9.355233	0.000213	2.128472	0.360573	0.000021
 780	7.7510e+01	7.7470	9.379673	0.000246	2.455929	0.416046	0.000025
 781	7.7610e+01	7.7592	9.407373	0.000278	2.783386	0.471518	0.000028
 782	7.7710e+01	7.7661	9.431813	0.000246	2.455929	0.416046	0.000025
 783	7.7809e+01	7.7737	9.462364	0.000307	3.069911	0.520057	0.000031
 784	7.7909e+01	7.7885	9.489248	0.000270	2.701522	0.457650	0.000027
 785	7.8008e+01	7.7953	9.513282	0.000241	2.414997	0.409112	0.000024
 786	7.8108e+01	7.8078	9.539352	0.000262	2.619658	0.443782	0.000026
 787	7.8207e+01	7.8175	9.570310	0.000311	3.110843	0.526991	0.000031
 788	7.8306e+01	7.8231	9.597194	0.000270	2.701522	0.457650	0.000027
 789	7.8406e+01	7.8391	9.627338	0.000303	3.028979	0.513123	0.000030
 790	7.8505e+01	7.8446	9.655444	0.000282	2.824318	0.478452	0.000028
 791	7.8605e+01	7.8545	9.683551	0.000282	2.824318	0.478452	0.000028
 792	7.8704e+01	7.8648	9.714101	0.000307	3.069911	0.520057	0.000031
 793	7.8804e+01	7.8749	9.744245	0.000303	3.028979	0.513123	0.000030
 794	7.8903e+01	7.8867	9.771944	0.000278	2.783386	0.471518	0.000028
 795	7.9003e+01	7.8970	9.802495	0.000307	3.069911	0.520057	0.000031
 796	7.9103e+01	7.9064	9.826121	0.000237	2.374065	0.402177	0.000024
 797	7.9202e+01	7.9161	9.857486	0.000315	3.151775	0.533925	0.000032
 798	7.9302e+01	7.9250	9.886815	0.000295	2.947115	0.499255	0.000029
 799	7.9401e+01	7.9372	9.917773	0.000311	3.110843	0.526991	0.000031
 800	7.9501e+01	7.9449	9.942213	0.000246	2.455929	0.416046	0.000025
 801	7.9600e+01	7.9569	9.972764	0.000307	3.069911	0.520057	0.000031
 802	7.9700e+01	7.9639	10.003722	0.000311	3.110843	0.526991	0.000031
 803	7.9799e+01	7.9742	10.033458	0.000299	2.988047	0.506189	0.000030
 804	7.9898e+01	7.9852	10.061157	0.000278	2.783386	0.471518	0.000028
 805	7.9998e+01	7.9924	10.096189	0.000352	3.520165	0.596332	0.000035
 806	8.0097e+01	8.0030	10.121851	0.000258	2.578725	0.436848	0.000026
 807	8.0197e+01	8.0176	10.149958	0.000282	2.824318	0.478452	0.000028
 808	8.0296e+01	8.0246	10.184989	0.000352	3.520165	0.596332	0.000035
 809	8.0396e+01	8.0360	10.217984	0.000332	3.315504	0.561662	0.000033
 810	8.0496e+01	8.0430	10.244869	0.000270	2.701522	0.457650	0.000027
 811	8.0595e+01	8.0533	10.275827	0.000311	3.110843	0.526991	0.000031
 812	8.0695e+01	8.0649	10.303934	0.000282	2.824318	0.478452	0.000028
 813	8.0794e+01	8.0748	10.332855	0.000291	2.906183	0.492321	0.000029
 814	8.0894e+01	8.0839	10.364220	0.000315	3.151775	0.533925	0.000032
 815	8.0993e+01	8.0953	10.392327	0.000282	2.824318	0.478452	0.000028
 816	8.1093e+01	8.1033	10.422063	0.000299	2.988047	0.506189	0.000030
 817	8.1192e+01	8.1152	10.455465	0.000336	3.356436	0.568596	0.000034
 818	8.1291e+01	8.1235	10.484794	0.000295	2.947115	0.499255	0.000029
 819	8.1391e+01	8.1365	10.514937	0.000303	3.028979	0.513123	0.000030
 820	8.1490e+01	8.1440	10.547117	0.000323	3.233640	0.547793	0.000032
 821	8.1590e+01	8.1520	10.578890	0.000319	3.192708	0.540859	0.000032
 822	8.1689e+01	8.1630	10.611070	0.000323	3.233640	0.547793	0.000032
 823	8.1789e+01	8.1748	10.639991	0.000291	2.906183	0.492321	0.000029
 824	8.1888e+01	8.1850	10.672579	0.000327	3.274572	0.554728	0.000033
 825	8.1988e+01	8.1956	10.702315	0.000299	2.988047	0.506189	0.000030
 826	8.2088e+01	8.2039	10.736531	0.000344	3.438301	0.582464	0.000034
 827	8.2187e+01	8.2124	10.765045	0.000287	2.865250	0.485387	0.000029
 828	8.2287e+01	8.2228	10.793559	0.000287	2.865250	0.485387	0.000029
 829	8.2386e+01	8.2373	10.826554	0.000332	3.315504	0.561662	0.000033
 830	8.2486e+01	8.2410	10.857105	0.000307	3.069911	0.520057	0.000031
 831	8.2585e+01	8.2527	10.887655	0.000307	3.069911	0.520057	0.000031
 832	8.2684e+01	8.2647	10.920243	0.000327	3.274572	0.554728	0.000033
 833	8.2784e+01	8.2729	10.949979	0.000299	2.988047	0.506189	0.000030
 834	8.2883e+01	8.2832	10.984603	0.000348	3.479233	0.589398	0.000035
 835	8.2983e+01	8.2928	11.017190	0.000327	3.274572	0.554728	0.000033
 836	8.3082e+01	8.3018	11.049370	0.000323	3.233640	0.547793	0.000032
 837	8.3182e+01	8.3128	11.083180	0.000340	3.397368	0.575530	0.000034
 838	8.3281e+01	8.3231	11.119026	0.000360	3.602029	0.610200	0.000036
 839	8.3381e+01	8.3337	11.149577	0.000307	3.069911	0.520057	0.000031
 840	8.3481e+01	8.3447	11.184608	0.000352	3.520165	0.596332	0.000035
 841	8.3580e+01	8.3515	11.222084	0.000377	3.765758	0.637937	0.000038
 842	8.3680e+01	8.3636	11.254264	0.000323	3.233640	0.547793	0.000032
 843	8.3779e+01	8.3726	11.287666	0.000336	3.356436	0.568596	0.000034
 844	8.3879e+01	8.3854	11.317809	0.000303	3.028979	0.513123	0.000030
 845	8.3978e+01	8.3915	11.354063	0.000364	3.642961	0.617134	0.000036
 846	8.4078e+01	8.4033	11.387057	0.000332	3.315504	0.561662	0.000033
 847	8.4177e+01	8.4148	11.422496	0.000356	3.561097	0.603266	0.000036
 848	8.4276e+01	8.4235	11.458342	0.000360	3.602029	0.610200	0.000036
 849	8.4376e+01	8.4326	11.495410	0.000372	3.724826	0.631003	0.000037
 850	8.4475e+01	8.4437	11.527591	0.000323	3.233640	0.547793	0.000032
 851	8.4575e+01	8.4528	11.563844	0.000364	3.642961	0.617134	0.000036
 852	8.4674e+01	8.4626	11.602949	0.000393	3.929486	0.665673	0.000039
 853	8.4774e+01	8.4712	11.635129	0.000323	3.233640	0.547793	0.000032
 854	8.4874e+01	8.4829	11.672604	0.000377	3.765758	0.637937	0.000038
 855	8.4973e+01	8.4934	11.703563	0.000311	3.110843	0.526991	0.000031
 856	8.5073e+01	8.5029	11.734928	0.000315	3.151775	0.533925	0.000032
 857	8.5172e+01	8.5129	11.769552	0.000348	3.479233	0.589398	0.000035
 858	8.5272e+01	8.5236	11.806213	0.000368	3.683893	0.624068	0.000037
 859	8.5371e+01	8.5307	11.837578	0.000315	3.151775	0.533925	0.000032
 860	8.5471e+01	8.5429	11.875868	0.000385	3.847622	0.651805	0.000038
 861	8.5570e+01	8.5522	11.906012	0.000303	3.028979	0.513123	0.000030
 862	8.5669e+01	8.5620	11.942265	0.000364	3.642961	0.617134	0.000036
 863	8.5769e+01	8.5723	11.976075	0.000340	3.397368	0.575530	0.000034
 864	8.5868e+01	8.5847	12.007033	0.000311	3.110843	0.526991	0.000031
 865	8.5968e+01	8.5947	12.043286	0.000364	3.642961	0.617134	0.000036
 866	8.6067e+01	8.6036	12.075059	0.000319	3.192708	0.540859	0.000032
 867	8.6167e+01	8.6119	12.109276	0.000344	3.438301	0.582464	0.000034
 868	8.6266e+01	8.6221	12.137382	0.000282	2.824318	0.478452	0.000028
 869	8.6366e+01	8.6289	12.172006	0.000348	3.479233	0.589398	0.000035
 870	8.6466e+01	8.6411	12.206223	0.000344	3.438301	0.582464	0.000034
 871	8.6565e+01	8.6496	12.239218	0.000332	3.315504	0.561662	0.000033
 872	8.6665e+01	8.6629	12.274657	0.000356	3.561097	0.603266	0.000036
 873	8.6764e+01	8.6694	12.303578	0.000291	2.906183	0.492321	0.000029
 874	8.6864e+01	8.6834	12.335351	0.000319	3.192708	0.540859	0.000032
 875	8.6963e+01	8.6921	12.371604	0.000364	3.642961	0.617134	0.000036
 876	8.7063e+01	8.7002	12.402970	0.000315	3.151775	0.533925	0.000032
 877	8.7162e+01	8.7128	12.434742	0.000319	3.192708	0.540859	0.000032
 878	8.7261e+01	8.7196	12.469367	0.000348	3.479233	0.589398	0.000035
 879	8.7361e+01	8.7310	12.503176	0.000340	3.397368	0.575530	0.000034
 880	8.7460e+01	8.7391	12.536578	0.000336	3.356436	0.568596	0.000034
 881	8.7560e+01	8.7515	12.569573	0.000332	3.315504	0.561662	0.000033
 882	8.7659e+01	8.7620	12.601346	0.000319	3.192708	0.540859	0.000032
 883	8.7759e+01	8.7726	12.631896	0.000307	3.069911	0.520057	0.000031
 884	8.7859e+01	8.7810	12.665298	0.000336	3.356436	0.568596	0.000034
 885	8.7958e+01	8.7925	12.697886	0.000327	3.274572	0.554728	0.000033
 886	8.8058e+01	8.8006	12.732510	0.000348	3.479233	0.589398	0.000035
 887	8.8157e+01	8.8107	12.765912	0.000336	3.356436	0.568596	0.000034
 888	8.8257e+01	8.8209	12.796870	0.000311	3.110843	0.526991	0.000031
 889	8.8356e+01	8.8297	12.829457	0.000327	3.274572	0.554728	0.000033
 890	8.8456e+01	8.8419	12.861230	0.000319	3.192708	0.540859	0.000032
 891	8.8555e+01	8.8503	12.894632	0.000336	3.356436	0.568596	0.000034
 892	8.8654e+01	8.8609	12.926405	0.000319	3.192708	0.540859	0.000032
 893	8.8754e+01	8.8722	12.961844	0.000356	3.561097	0.603266	0.000036
 894	8.8853e+01	8.8770	12.990358	0.000287	2.865250	0.485387	0.000029
 895	8.8953e+01	8.8883	13.023760	0.000336	3.356436	0.568596	0.000034
 896	8.9052e+01	8.8998	13.060421	0.000368	3.683893	0.624068	0.000037
 897	8.9152e+01	8.9094	13.092193	0.000319	3.192708	0.540859	0.000032
 898	8.9251e+01	8.9209	13.127225	0.000352	3.520165	0.596332	0.000035
 899	8.9351e+01	8.9333	13.157775	0.000307	3.069911	0.520057	0.000031
 900	8.9451e+01	8.9400	13.190363	0.000327	3.274572	0.554728	0.000033
 901	8.9550e+01	8.9490	13.227431	0.000372	3.724826	0.631003	0.000037
 902	8.9650e+01	8.9612	13.257574	0.000303	3.028979	0.513123	0.000030
 903	8.9749e+01	8.9687	13.290162	0.000327	3.274572	0.554728	0.000033
 904	8.9849e+01	8.9785	13.321527	0.000315	3.151775	0.533925	0.000032
 905	8.9948e+01	8.9899	13.356559	0.000352	3.520165	0.596332	0.000035
 906	9.0047e+01	8.9991	13.389961	0.000336	3.356436	0.568596	0.000034
 907	9.0147e+01	9.0103	13.422548	0.000327	3.274572	0.554728	0.000033
 908	9.0246e+01	9.0186	13.458394	0.000360	3.602029	0.610200	0.000036
 909	9.0346e+01	9.0295	13.495462	0.000372	3.724826	0.631003	0.000037
 910	9.0445e+01	9.0400	13.527642	0.000323	3.233640	0.547793	0.000032
 911	9.0545e+01	9.0488	13.561045	0.000336	3.356436	0.568596	0.000034
 912	9.0644e+01	9.0583	13.597705	0.000368	3.683893	0.624068	0.000037
 913	9.0744e+01	9.0662	13.632329	0.000348	3.479233	0.589398	0.000035
 914	9.0844e+01	9.0796	13.665732	0.000336	3.356436	0.568596	0.000034
 915	9.0943e+01	9.0870	13.699948	0.000344	3.438301	0.582464	0.000034
 916	9.1043e+01	9.1003	13.733350	0.000336	3.356436	0.568596	0.000034
 917	9.1142e+01	9.1078	13.764716	0.000315	3.151775	0.533925	0.000032
 918	9.1242e+01	9.1196	13.801377	0.000368	3.683893	0.624068	0.000037
 919	9.1341e+01	9.1295	13.837223	0.000360	3.602029	0.610200	0.000036
 920	9.1441e+01	9.1400	13.867773	0.000307	3.069911	0.520057	0.000031
 921	9.1540e+01	9.1465	13.899139	0.000315	3.151775	0.533925	0.000032
 922	9.1639e+01	9.1579	13.933763	0.000348	3.479233	0.589398	0.000035
 923	9.1739e+01	9.1686	13.969202	0.000356	3.561097	0.603266	0.000036
 924	9.1838e+01	9.1788	14.002197	0.000332	3.315504	0.561662	0.000033
 925	9.1938e+01	9.1888	14.036413	0.000344	3.438301	0.582464	0.000034
 926	9.2037e+01	9.1987	14.071037	0.000348	3.479233	0.589398	0.000035
 927	9.2137e+01	9.2097	14.106069	0.000352	3.520165	0.596332	0.000035
 928	9.2237e+01	9.2167	14.142730	0.000368	3.683893	0.624068	0.000037
 929	9.2336e+01	9.2267	14.174502	0.000319	3.192708	0.540859	0.000032
 930	9.2436e+01	9.2385	14.212385	0.000381	3.806690	0.644871	0.000038
 931	9.2535e+01	9.2487	14.244158	0.000319	3.192708	0.540859	0.000032
 932	9.2635e+01	9.2584	14.273894	0.000299	2.988047	0.506189	0.000030
 933	9.2734e+01	9.2670	14.307296	0.000336	3.356436	0.568596	0.000034
 934	9.2834e+01	9.2786	14.340291	0.000332	3.315504	0.561662	0.000033
 935	9.2933e+01	9.2882	14.374915	0.000348	3.479233	0.589398	0.000035
 936	9.3032e+01	9.2963	14.410354	0.000356	3.561097	0.603266	0.000036
 937	9.3132e+01	9.3107	14.444163	0.000340	3.397368	0.575530	0.000034
 938	9.3231e+01	9.3153	14.481231	0.000372	3.724826	0.631003	0.000037
 939	9.3331e+01	9.3277	14.515448	0.000344	3.438301	0.582464	0.000034
 940	9.3430e+01	9.3392	14.554553	0.000393	3.929486	0.665673	0.000039
 941	9.3530e+01	9.3464	14.589177	0.000348	3.479233	0.589398	0.000035
 942	9.3629e+01	9.3568	14.627467	0.000385	3.847622	0.651805	0.000038
 943	9.3729e+01	9.3688	14.663313	0.000360	3.602029	0.610200	0.000036
 944	9.3829e+01	9.3764	14.700382	0.000372	3.724826	0.631003	0.000037
 945	9.3928e+01	9.3850	14.734191	0.000340	3.397368	0.575530	0.000034
 946	9.4028e+01	9.3970	14.775740	0.000418	4.175079	0.707278	0.000042
 947	9.4127e+01	9.4073	14.808735	0.000332	3.315504	0.561662	0.000033
 948	9.4227e+01	9.4189	14.847025	0.000385	3.847622	0.651805	0.000038
 949	9.4326e+01	9.4287	14.883686	0.000368	3.683893	0.624068	0.000037
 950	9.4425e+01	9.4360	14.921569	0.000381	3.806690	0.644871	0.000038
 951	9.4525e+01	9.4427	14.962710	0.000413	4.134147	0.700343	0.000041
 952	9.4624e+01	9.4568	15.000593	0.000381	3.806690	0.644871	0.000038
 953	9.4724e+01	9.4647	15.042142	0.000418	4.175079	0.707278	0.000042
 954	9.4823e+01	9.4758	15.082469	0.000405	4.052283	0.686475	0.000041
 955	9.4923e+01	9.4855	15.122796	0.000405	4.052283	0.686475	0.000041
 956	9.5022e+01	9.4978	15.164345	0.000418	4.175079	0.707278	0.000042
 957	9.5122e+01	9.5063	15.205894	0.000418	4.175079	0.707278	0.000042
 958	9.5222e+01	9.5171	15.247850	0.000422	4.216011	0.714212	0.000042
 959	9.5321e+01	9.5251	15.286955	0.000393	3.929486	0.665673	0.000039
 960	9.5421e+01	9.5361	15.329726	0.000430	4.297876	0.728080	0.000043
 961	9.5520e+01	9.5443	15.368831	0.000393	3.929486	0.665673	0.000039
 962	9.5620e+01	9.5548	15.413638	0.000450	4.502536	0.762750	0.000045
 963	9.5719e+01	9.5666	15.458039	0.000446	4.461604	0.755816	0.000045
 964	9.5819e+01	9.5755	15.498773	0.000409	4.093215	0.693409	0.000041
 965	9.5918e+01	9.5869	15.543988	0.000454	4.543469	0.769684	0.000045
 966	9.6017e+01	9.5972	15.580649	0.000368	3.683893	0.624068	0.000037
 967	9.6117e+01	9.6045	15.625864	0.000454	4.543469	0.769684	0.000045
 968	9.6216e+01	9.6159	15.667006	0.000413	4.134147	0.700343	0.000041
 969	9.6316e+01	9.6245	15.714257	0.000475	4.748129	0.804355	0.000047
 970	9.6415e+01	9.6351	15.755399	0.000413	4.134147	0.700343	0.000041
 971	9.6515e+01	9.6474	15.798170	0.000430	4.297876	0.728080	0.000043
 972	9.6615e+01	9.6572	15.846236	0.000483	4.829994	0.818223	0.000048
 973	9.6714e+01	9.6644	15.890229	0.000442	4.420672	0.748882	0.000044
 974	9.6814e+01	9.6754	15.933408	0.000434	4.338808	0.735014	0.000043
 975	9.6913e+01	9.6882	15.982696	0.000495	4.952790	0.839025	0.000050
 976	9.7013e+01	9.6979	16.024652	0.000422	4.216011	0.714212	0.000042
 977	9.7112e+01	9.7047	16.068238	0.000438	4.379740	0.741948	0.000044
 978	9.7212e+01	9.7150	16.114268	0.000463	4.625333	0.783553	0.000046
 979	9.7311e+01	9.7272	16.158668	0.000446	4.461604	0.755816	0.000045
 980	9.7410e+01	9.7401	16.207956	0.000495	4.952790	0.839025	0.000050
 981	9.7510e+01	9.7440	16.251949	0.000442	4.420672	0.748882	0.000044
 982	9.7609e+01	9.7565	16.296350	0.000446	4.461604	0.755816	0.000045
 983	9.7709e+01	9.7633	16.340343	0.000442	4.420672	0.748882	0.000044
 984	9.7808e+01	9.7754	16.389224	0.000491	4.911858	0.832091	0.000049
 985	9.7908e+01	9.7871	16.434439	0.000454	4.543469	0.769684	0.000045
 986	9.8007e+01	9.7932	16.482505	0.000483	4.829994	0.818223	0.000048
 987	9.8107e+01	9.8071	16.529757	0.000475	4.748129	0.804355	0.000047
 988	9.8207e+01	9.8147	16.577009	0.000475	4.748129	0.804355	0.000047
 989	9.8306e+01	9.8263	16.623446	0.000467	4.666265	0.790487	0.000047
 990	9.8406e+01	9.8364	16.674364	0.000512	5.116519	0.866762	0.000051
 991	9.8505e+01	9.8462	16.723652	0.000495	4.952790	0.839025	0.000050
 992	9.8605e+01	9.8554	16.773755	0.000503	5.034654	0.852894	0.000050
 993	9.8704e+01	9.8609	16.818563	0.000450	4.502536	0.762750	0.000045
 994	9.8803e+01	9.8746	16.869073	0.000508	5.075586	0.859828	0.000051
 995	9.8903e+01	9.8853	16.915103	0.000463	4.625333	0.783553	0.000046
 996	9.9002e+01	9.8926	16.960725	0.000458	4.584401	0.776619	0.000046
 997	9.9102e+01	9.9042	17.013273	0.000528	5.280247	0.894498	0.000053
 998	9.9201e+01	9.9128	17.062968	0.000499	4.993722	0.845959	0.000050
 999	9.9301e+01	9.9222	17.112257	0.000495	4.952790	0.839025	0.000050
1000	9.9400e+01	9.9342	17.160731	0.000487	4.870926	0.825157	0.000049
1001	9.9500e+01	9.9414	17.212056	0.000516	5.157451	0.873696	0.000052
1002	9.9600e+01	9.9543	17.262566	0.000508	5.075586	0.859828	0.000051
1003	9.9699e+01	9.9622	17.312669	0.000503	5.034654	0.852894	0.000050
1004	9.9799e+01	9.9732	17.368475	0.000561	5.607704	0.949971	0.000056
1005	9.9898e+01	9.9848	17.419393	0.000512	5.116519	0.866762	0.000051
1006	9.9998e+01	9.9964	17.471940	0.000528	5.280247	0.894498	0.000053
1007	1.0010e+02	9.9822	17.485790	-0.000139	-1.391693	-0.235759	0.000014
1008	1.0020e+02	9.9756	17.497196	-0.000115	-1.146100	-0.194155	0.000011
1009	1.0030e+02	9.9634	17.508601	-0.000115	-1.146100	-0.194155	0.000011
1010	1.0040e+02	9.9552	17.516341	-0.000078	-0.777711	-0.131748	0.000008
1011	1.0050e+02	9.9447	17.526524	-0.000102	-1.023304	-0.173352	0.000010
1012	1.0059e+02	9.9365	17.535078	-0.000086	-0.859575	-0.145616	0.000009
1013	1.0069e+02	9.9238	17.544447	-0.000094	-0.941439	-0.159484	0.000009
1014	1.0079e+02	9.9148	17.551780	-0.000074	-0.736779	-0.124814	0.000007
1015	1.0089e+02	9.9025	17.566037	-0.000143	-1.432625	-0.242693	0.000014
1016	1.0099e+02	9.8933	17.573776	-0.000078	-0.777711	-0.131748	0.000008
1017	1.0109e+02	9.8853	17.583145	-0.000094	-0.941439	-0.159484	0.000009
1018	1.0119e+02	9.8725	17.588033	-0.000049	-0.491186	-0.083209	0.000005
1019	1.0129e+02	9.8650	17.594958	-0.000070	-0.695847	-0.117880	0.000007
1020	1.0139e+02	9.8541	17.603512	-0.000086	-0.859575	-0.145616	0.000009
1021	1.0149e+02	9.8456	17.607178	-0.000037	-0.368389	-0.062407	0.000004
1022	1.0159e+02	9.8358	17.612881	-0.000057	-0.573050	-0.097077	0.000006
1023	1.0169e+02	9.8218	17.614103	-0.000012	-0.122796	-0.020802	0.000001
1024	1.0179e+02	9.8154	17.616954	-0.000029	-0.286525	-0.048539	0.000003
1025	1.0189e+02	9.8048	17.620213	-0.000033	-0.327457	-0.055473	0.000003
1026	1.0199e+02	9.7943	17.622657	-0.000025	-0.245593	-0.041605	0.000002
1027	1.0209e+02	9.7852	17.625101	-0.000025	-0.245593	-0.041605	0.000002
1028	1.0219e+02	9.7770	17.627953	-0.000029	-0.286525	-0.048539	0.000003
1029	1.0229e+02	9.7635	17.624287	0.000037	0.368389	0.062407	-0.000004
1030	1.0239e+02	9.7572	17.629175	-0.000049	-0.491186	-0.083209	0.000005
1031	1.0248e+02	9.7456	17.629175	-0.000000	-0.000000	-0.000000	0.000000
1032	1.0258e+02	9.7373	17.631619	-0.000025	-0.245593	-0.041605	0.000002
1033	1.0268e+02	9.7276	17.627545	0.000041	0.409321	0.069341	-0.000004
1034	1.0278e+02	9.7137	17.624694	0.000029	0.286525	0.048539	-0.000003
1035	1.0288e+02	9.7047	17.627953	-0.000033	-0.327457	-0.055473	0.000003
1036	1.0298e+02	9.6936	17.620620	0.000074	0.736779	0.124814	-0.000007
1037	1.0308e+02	9.6866	17.616954	0.000037	0.368389	0.062407	-0.000004
1038	1.0318e+02	9.6743	17.612881	0.000041	0.409321	0.069341	-0.000004
1039	1.0328e+02	9.6659	17.609622	0.000033	0.327457	0.055473	-0.000003
1040	1.0338e+02	9.6571	17.608400	0.000012	0.122796	0.020802	-0.000001
1041	1.0348e+02	9.6460	17.601068	0.000074	0.736779	0.124814	-0.000007
1042	1.0358e+02	9.6381	17.597809	0.000033	0.327457	0.055473	-0.000003
1043	1.0368e+02	9.6277	17.590884	0.000070	0.695847	0.117880	-0.000007
1044	1.0378e+02	9.6155	17.586811	0.000041	0.409321	0.069341	-0.000004
1045	1.0388e+02	9.6069	17.583960	0.000029	0.286525	0.048539	-0.000003
1046	1.0398e+02	9.5959	17.574183	0.000098	0.982372	0.166418	-0.000010
1047	1.0408e+02	9.5858	17.570925	0.000033	0.327457	0.055473	-0.000003
1048	1.0418e+02	9.5766	17.564407	0.000065	0.654914	0.110946	-0.000007
1049	1.0428e+02	9.5634	17.556260	0.000082	0.818643	0.138682	-0.000008
1050	1.0438e+02	9.5591	17.549335	0.000070	0.695847	0.117880	-0.000007
1051	1.0447e+02	9.5455	17.538745	0.000106	1.064236	0.180286	-0.000011
1052	1.0457e+02	9.5373	17.533856	0.000049	0.491186	0.083209	-0.000005
1053	1.0467e+02	9.5245	17.526524	0.000074	0.736779	0.124814	-0.000007
1054	1.0477e+02	9.5190	17.517563	0.000090	0.900507	0.152550	-0.000009
1055	1.0487e+02	9.5097	17.506157	0.000115	1.146100	0.194155	-0.000011
1056	1.0497e+02	9.4941	17.498010	0.000082	0.818643	0.138682	-0.000008
1057	1.0507e+02	9.4875	17.490271	0.000078	0.777711	0.131748	-0.000008
1058	1.0517e+02	9.4763	17.482124	0.000082	0.818643	0.138682	-0.000008
1059	1.0527e+02	9.4671	17.470311	0.000119	1.187032	0.201089	-0.000012
1060	1.0537e+02	9.4557	17.458498	0.000119	1.187032	0.201089	-0.000012
1061	1.0547e+02	9.4472	17.448722	0.000098	0.982372	0.166418	-0.000010
1062	1.0557e+02	9.4394	17.440575	0.000082	0.818643	0.138682	-0.000008
1063	1.0567e+02	9.4263	17.429984	0.000106	1.064236	0.180286	-0.000011
1064	1.0577e+02	9.4156	17.420615	0.000094	0.941439	0.159484	-0.000009
1065	1.0587e+02	9.4061	17.407988	0.000127	1.268897	0.214957	-0.000013
1066	1.0597e+02	9.3977	17.396582	0.000115	1.146100	0.194155	-0.000011
1067	1.0607e+02	9.3896	17.387620	0.000090	0.900507	0.152550	-0.000009
1068	1.0617e+02	9.3777	17.378659	0.000090	0.900507	0.152550	-0.000009
1069	1.0627e+02	9.3658	17.364402	0.000143	1.432625	0.242693	-0.000014
1070	1.0637e+02	9.3555	17.357070	0.000074	0.736779	0.124814	-0.000007
1071	1.0647e+02	9.3506	17.342813	0.000143	1.432625	0.242693	-0.000014
1072	1.0656e+02	9.3389	17.330185	0.000127	1.268897	0.214957	-0.000013
1073	1.0666e+02	9.3256	17.313077	0.000172	1.719150	0.291232	-0.000017
1074	1.0676e+02	9.3160	17.300857	0.000123	1.227964	0.208023	-0.000012
1075	1.0686e+02	9.3091	17.291080	0.000098	0.982372	0.166418	-0.000010
1076	1.0696e+02	9.2987	17.277231	0.000139	1.391693	0.235759	-0.000014
1077	1.0706e+02	9.2871	17.264603	0.000127	1.268897	0.214957	-0.000013
1078	1.0716e+02	9.2780	17.251975	0.000127	1.268897	0.214957	-0.000013
1079	1.0726e+02	9.2731	17.235682	0.000164	1.637286	0.277364	-0.000016
1080	1.0736e+02	9.2571	17.225091	0.000106	1.064236	0.180286	-0.000011
1081	1.0746e+02	9.2483	17.214093	0.000111	1.105168	0.187221	-0.000011
1082	1.0756e+02	9.2371	17.200243	0.000139	1.391693	0.235759	-0.000014
1083	1.0766e+02	9.2276	17.184357	0.000160	1.596354	0.270430	-0.000016
1084	1.0776e+02	9.2178	17.171322	0.000131	1.309829	0.221891	-0.000013
1085	1.0786e+02	9.2074	17.157472	0.000139	1.391693	0.235759	-0.000014
1086	1.0796e+02	9.1978	17.140771	0.000168	1.678218	0.284298	-0.000017
1087	1.0806e+02	9.1885	17.122440	0.000184	1.841947	0.312034	-0.000018
1088	1.0816e+02	9.1805	17.105332	0.000172	1.719150	0.291232	-0.000017
1089	1.0826e+02	9.1659	17.089038	0.000164	1.637286	0.277364	-0.000016
1090	1.0836e+02	9.1593	17.072745	0.000164	1.637286	0.277364	-0.000016
1091	1.0845e+02	9.1483	17.060117	0.000127	1.268897	0.214957	-0.000013
1092	1.0855e+02	9.1390	17.041787	0.000184	1.841947	0.312034	-0.000018
1093	1.0865e+02	9.1270	17.027530	0.000143	1.432625	0.242693	-0.000014
1094	1.0875e+02	9.1187	17.012458	0.000151	1.514490	0.256561	-0.000015
1095	1.0885e+02	9.1125	16.995757	0.000168	1.678218	0.284298	-0.000017
1096	1.0895e+02	9.0998	16.980685	0.000151	1.514490	0.256561	-0.000015
1097	1.0905e+02	9.0881	16.965206	0.000156	1.555422	0.263496	-0.000016
1098	1.0915e+02	9.0784	16.947283	0.000180	1.801015	0.305100	-0.000018
1099	1.0925e+02	9.0703	16.927731	0.000196	1.964743	0.332837	-0.000020
1100	1.0935e+02	9.0597	16.906549	0.000213	2.128472	0.360573	-0.000021
1101	1.0945e+02	9.0497	16.884960	0.000217	2.169404	0.367507	-0.000022
1102	1.0955e+02	9.0382	16.867037	0.000180	1.801015	0.305100	-0.000018
1103	1.0965e+02	9.0276	16.848706	0.000184	1.841947	0.312034	-0.000018
1104	1.0975e+02	9.0170	16.829561	0.000192	1.923811	0.325902	-0.000019
1105	1.0985e+02	9.0067	16.808379	0.000213	2.128472	0.360573	-0.000021
1106	1.0995e+02	8.9993	16.792086	0.000164	1.637286	0.277364	-0.000016
1107	1.1005e+02	8.9925	16.775792	0.000164	1.637286	0.277364	-0.000016
1108	1.1015e+02	8.9777	16.761942	0.000139	1.391693	0.235759	-0.000014
1109	1.1025e+02	8.9674	16.740353	0.000217	2.169404	0.367507	-0.000022
1110	1.1035e+02	8.9564	16.724467	0.000160	1.596354	0.270430	-0.000016
1111	1.1044e+02	8.9502	16.707766	0.000168	1.678218	0.284298	-0.000017
1112	1.1054e+02	8.9395	16.684547	0.000233	2.333132	0.395243	-0.000023
1113	1.1064e+02	8.9307	16.667846	0.000168	1.678218	0.284298	-0.000017
1114	1.1074e+02	8.9191	16.649516	0.000184	1.841947	0.312034	-0.000018
1115	1.1084e+02	8.9111	16.634851	0.000147	1.473557	0.249627	-0.000015
1116	1.1094e+02	8.8980	16.613262	0.000217	2.169404	0.367507	-0.000022
1117	1.1104e+02	8.8869	16.595747	0.000176	1.760082	0.298166	-0.000018
1118	1.1114e+02	8.8798	16.581897	0.000139	1.391693	0.235759	-0.000014
1119	1.1124e+02	8.8695	16.562344	0.000196	1.964743	0.332837	-0.000020
1120	1.1134e+02	8.8605	16.548902	0.000135	1.350761	0.228825	-0.000014
1121	1.1144e+02	8.8507	16.533423	0.000156	1.555422	0.263496	-0.000016
1122	1.1154e+02	8.8381	16.515907	0.000176	1.760082	0.298166	-0.000018
1123	1.1164e+02	8.8300	16.500836	0.000151	1.514490	0.256561	-0.000015
1124	1.1174e+02	8.8200	16.482505	0.000184	1.841947	0.312034	-0.000018
1125	1.1184e+02	8.8103	16.467841	0.000147	1.473557	0.249627	-0.000015
1126	1.1194e+02	8.7995	16.452362	0.000156	1.555422	0.263496	-0.000016
1127	1.1204e+02	8.7891	16.435254	0.000172	1.719150	0.291232	-0.000017
1128	1.1214e+02	8.7797	16.421404	0.000139	1.391693	0.235759	-0.000014
1129	1.1224e+02	8.7701	16.405925	0.000156	1.555422	0.263496	-0.000016
1130	1.1234e+02	8.7603	16.386780	0.000192	1.923811	0.325902	-0.000019
1131	1.1244e+02	8.7502	16.370893	0.000160	1.596354	0.270430	-0.000016
1132	1.1253e+02	8.7411	16.352563	0.000184	1.841947	0.312034	-0.000018
1133	1.1263e+02	8.7292	16.338306	0.000143	1.432625	0.242693	-0.000014
1134	1.1273e+02	8.7217	16.320790	0.000176	1.760082	0.298166	-0.000018
1135	1.1283e+02	8.7098	16.302053	0.000188	1.882879	0.318968	-0.000019
1136	1.1293e+02	8.7022	16.285759	0.000164	1.637286	0.277364	-0.000016
1137	1.1303e+02	8.6903	16.272317	0.000135	1.350761	0.228825	-0.000014
1138	1.1313e+02	8.6810	16.253579	0.000188	1.882879	0.318968	-0.000019
1139	1.1323e+02	8.6729	16.237692	0.000160	1.596354	0.270430	-0.000016
1140	1.1333e+02	8.6604	16.221399	0.000164	1.637286	0.277364	-0.000016
1141	1.1343e+02	8.6490	16.207142	0.000143	1.432625	0.242693	-0.000014
1142	1.1353e+02	8.6420	16.191255	0.000160	1.596354	0.270430	-0.000016
1143	1.1363e+02	8.6330	16.172518	0.000188	1.882879	0.318968	-0.000019
1144	1.1373e+02	8.6226	16.157446	0.000151	1.514490	0.256561	-0.000015
1145	1.1383e+02	8.6133	16.143189	0.000143	1.432625	0.242693	-0.000014
1146	1.1393e+02	8.5998	16.122822	0.000205	2.046607	0.346705	-0.000020
1147	1.1403e+02	8.5919	16.111009	0.000119	1.187032	0.201089	-0.000012
1148	1.1413e+02	8.5812	16.093493	0.000176	1.760082	0.298166	-0.000018
1149	1.1423e+02	8.5715	16.075163	0.000184	1.841947	0.312034	-0.000018
1150	1.1433e+02	8.5622	16.053574	0.000217	2.169404	0.367507	-0.000022
1151	1.1442e+02	8.5501	16.038095	0.000156	1.555422	0.263496	-0.000016
1152	1.1452e+02	8.5428	16.021394	0.000168	1.678218	0.284298	-0.000017
1153	1.1462e+02	8.5309	16.007544	0.000139	1.391693	0.235759	-0.000014
1154	1.1472e+02	8.5209	15.991250	0.000164	1.637286	0.277364	-0.000016
1155	1.1482e+02	8.5122	15.977808	0.000135	1.350761	0.228825	-0.000014
1156	1.1492e+02	8.5020	15.956219	0.000217	2.169404	0.367507	-0.000022
1157	1.1502e+02	8.4942	15.942776	0.000135	1.350761	0.228825	-0.000014
1158	1.1512e+02	8.4836	15.921187	0.000217	2.169404	0.367507	-0.000022
1159	1.1522e+02	8.4725	15.908560	0.000127	1.268897	0.214957	-0.000013
1160	1.1532e+02	8.4646	15.887378	0.000213	2.128472	0.360573	-0.000021
1161	1.1542e+02	8.4524	15.875565	0.000119	1.187032	0.201089	-0.000012
1162	1.1552e+02	8.4417	15.859271	0.000164	1.637286	0.277364	-0.000016
1163	1.1562e+02	8.4315	15.835238	0.000241	2.414997	0.409112	-0.000024
1164	1.1572e+02	8.4220	15.821388	0.000139	1.391693	0.235759	-0.000014
1165	1.1582e+02	8.4140	15.803873	0.000176	1.760082	0.298166	-0.000018
1166	1.1592e+02	8.4010	15.783098	0.000209	2.087540	0.353639	-0.000021
1167	1.1602e+02	8.3920	15.766804	0.000164	1.637286	0.277364	-0.000016
1168	1.1612e+02	8.3844	15.752547	0.000143	1.432625	0.242693	-0.000014
1169	1.1622e+02	8.3728	15.731773	0.000209	2.087540	0.353639	-0.000021
1170	1.1632e+02	8.3614	15.717109	0.000147	1.473557	0.249627	-0.000015
1171	1.1642e+02	8.3514	15.704888	0.000123	1.227964	0.208023	-0.000012
1172	1.1651e+02	8.3423	15.689002	0.000160	1.596354	0.270430	-0.000016
1173	1.1661e+02	8.3317	15.672301	0.000168	1.678218	0.284298	-0.000017
1174	1.1671e+02	8.3245	15.656822	0.000156	1.555422	0.263496	-0.000016
1175	1.1681e+02	8.3148	15.642565	0.000143	1.432625	0.242693	-0.000014
1176	1.1691e+02	8.3025	15.624235	0.000184	1.841947	0.312034	-0.000018
1177	1.1701e+02	8.2932	15.608756	0.000156	1.555422	0.263496	-0.000016
1178	1.1711e+02	8.2862	15.591240	0.000176	1.760082	0.298166	-0.000018
1179	1.1721e+02	8.2761	15.573317	0.000180	1.801015	0.305100	-0.000018
1180	1.1731e+02	8.2630	15.557838	0.000156	1.555422	0.263496	-0.000016
1181	1.1741e+02	8.2537	15.543173	0.000147	1.473557	0.249627	-0.000015
1182	1.1751e+02	8.2447	15.524843	0.000184	1.841947	0.312034	-0.000018
1183	1.1761e+02	8.2333	15.512215	0.000127	1.268897	0.214957	-0.000013
1184	1.1771e+02	8.2227	15.496329	0.000160	1.596354	0.270430	-0.000016
1185	1.1781e+02	8.2159	15.484923	0.000115	1.146100	0.194155	-0.000011
1186	1.1791e+02	8.2050	15.468222	0.000168	1.678218	0.284298	-0.000017
1187	1.1801e+02	8.1944	15.457224	0.000111	1.105168	0.187221	-0.000011
1188	1.1811e+02	8.1845	15.438079	0.000192	1.923811	0.325902	-0.000019
1189	1.1821e+02	8.1738	15.423007	0.000151	1.514490	0.256561	-0.000015
1190	1.1831e+02	8.1641	15.398974	0.000241	2.414997	0.409112	-0.000024
1191	1.1841e+02	8.1525	15.383495	0.000156	1.555422	0.263496	-0.000016
1192	1.1850e+02	8.1448	15.365572	0.000180	1.801015	0.305100	-0.000018
1193	1.1860e+02	8.1350	15.350908	0.000147	1.473557	0.249627	-0.000015
1194	1.1870e+02	8.1232	15.331763	0.000192	1.923811	0.325902	-0.000019
1195	1.1880e+02	8.1142	15.313432	0.000184	1.841947	0.312034	-0.000018
1196	1.1890e+02	8.1049	15.297546	0.000160	1.596354	0.270430	-0.000016
1197	1.1900e+02	8.0944	15.277586	0.000201	2.005675	0.339771	-0.000020
1198	1.1910e+02	8.0849	15.263736	0.000139	1.391693	0.235759	-0.000014
1199	1.1920e+02	8.0762	15.243369	0.000205	2.046607	0.346705	-0.000020
1200	1.1930e+02	8.0633	15.225446	0.000180	1.801015	0.305100	-0.000018
1201	1.1940e+02	8.0545	15.209967	0.000156	1.555422	0.263496	-0.000016
1202	1.1950e+02	8.0445	15.188785	0.000213	2.128472	0.360573	-0.000021
1203	1.1960e+02	8.0323	15.168826	0.000201	2.005675	0.339771	-0.000020
1204	1.1970e+02	8.0240	15.146014	0.000229	2.292200	0.388309	-0.000023
1205	1.1980e+02	8.0151	15.125647	0.000205	2.046607	0.346705	-0.000020
1206	1.1990e+02	8.0039	15.104873	0.000209	2.087540	0.353639	-0.000021
1207	1.2000e+02	7.9932	15.086542	0.000184	1.841947	0.312034	-0.000018
1208	1.2010e+02	7.9847	15.065768	0.000209	2.087540	0.353639	-0.000021
1209	1.2020e+02	7.9762	15.044993	0.000209	2.087540	0.353639	-0.000021
1210	1.2030e+02	7.9639	15.026663	0.000184	1.841947	0.312034	-0.000018
1211	1.2039e+02	7.9559	15.008740	0.000180	1.801015	0.305100	-0.000018
1212	1.2049e+02	7.9447	14.985521	0.000233	2.333132	0.395243	-0.000023
1213	1.2059e+02	7.9352	14.962710	0.000229	2.292200	0.388309	-0.000023
1214	1.2069e+02	7.9248	14.943565	0.000192	1.923811	0.325902	-0.000019
1215	1.2079e+02	7.9169	14.919939	0.000237	2.374065	0.402177	-0.000024
1216	1.2089e+02	7.9053	14.900794	0.000192	1.923811	0.325902	-0.000019
1217	1.2099e+02	7.8941	14.878390	0.000225	2.251268	0.381375	-0.000023
1218	1.2109e+02	7.8862	14.860467	0.000180	1.801015	0.305100	-0.000018
1219	1.2119e+02	7.8752	14.839285	0.000213	2.128472	0.360573	-0.000021
1220	1.2129e+02	7.8667	14.814030	0.000254	2.537793	0.429914	-0.000025
1221	1.2139e+02	7.8558	14.793663	0.000205	2.046607	0.346705	-0.000020
1222	1.2149e+02	7.8467	14.772889	0.000209	2.087540	0.353639	-0.000021
1223	1.2159e+02	7.8355	14.748855	0.000241	2.414997	0.409112	-0.000024
1224	1.2169e+02	7.8242	14.726859	0.000221	2.210336	0.374441	-0.000022
1225	1.2179e+02	7.8176	14.707714	0.000192	1.923811	0.325902	-0.000019
1226	1.2189e+02	7.8065	14.682866	0.000250	2.496861	0.422980	-0.000025
1227	1.2199e+02	7.7959	14.659240	0.000237	2.374065	0.402177	-0.000024
1228	1.2209e+02	7.7865	14.638873	0.000205	2.046607	0.346705	-0.000020
1229	1.2219e+02	7.7763	14.617284	0.000217	2.169404	0.367507	-0.000022
1230	1.2229e+02	7.7673	14.592843	0.000246	2.455929	0.416046	-0.000025
1231	1.2239e+02	7.7559	14.570847	0.000221	2.210336	0.374441	-0.000022
1232	1.2248e+02	7.7433	14.549258	0.000217	2.169404	0.367507	-0.000022
1233	1.2258e+02	7.7370	14.524817	0.000246	2.455929	0.416046	-0.000025
1234	1.2268e+02	7.7277	14.504450	0.000205	2.046607	0.346705	-0.000020
1235	1.2278e+02	7.7155	14.481639	0.000229	2.292200	0.388309	-0.000023
1236	1.2288e+02	7.7075	14.458420	0.000233	2.333132	0.395243	-0.000023
1237	1.2298e+02	7.6971	14.438053	0.000205	2.046607	0.346705	-0.000020
1238	1.2308e+02	7.6850	14.415649	0.000225	2.251268	0.381375	-0.000023
1239	1.2318e+02	7.6776	14.389172	0.000266	2.660590	0.450716	-0.000027
1240	1.2328e+02	7.6685	14.365546	0.000237	2.374065	0.402177	-0.000024
1241	1.2338e+02	7.6565	14.344364	0.000213	2.128472	0.360573	-0.000021
1242	1.2348e+02	7.6460	14.317072	0.000274	2.742454	0.464584	-0.000027
1243	1.2358e+02	7.6360	14.293446	0.000237	2.374065	0.402177	-0.000024
1244	1.2368e+02	7.6266	14.269006	0.000246	2.455929	0.416046	-0.000025
1245	1.2378e+02	7.6154	14.247009	0.000221	2.210336	0.374441	-0.000022
1246	1.2388e+02	7.6089	14.225013	0.000221	2.210336	0.374441	-0.000022
1247	1.2398e+02	7.5966	14.204646	0.000205	2.046607	0.346705	-0.000020
1248	1.2408e+02	7.5874	14.178983	0.000258	2.578725	0.436848	-0.000026
1249	1.2418e+02	7.5800	14.155357	0.000237	2.374065	0.402177	-0.000024
1250	1.2428e+02	7.5666	14.133768	0.000217	2.169404	0.367507	-0.000022
1251	1.2438e+02	7.5607	14.108920	0.000250	2.496861	0.422980	-0.000025
1252	1.2447e+02	7.5469	14.085294	0.000237	2.374065	0.402177	-0.000024
1253	1.2457e+02	7.5359	14.057595	0.000278	2.783386	0.471518	-0.000028
1254	1.2467e+02	7.5288	14.033155	0.000246	2.455929	0.416046	-0.000025
1255	1.2477e+02	7.5182	14.010343	0.000229	2.292200	0.388309	-0.000023
1256	1.2487e+02	7.5089	13.984681	0.000258	2.578725	0.436848	-0.000026
1257	1.2497e+02	7.4981	13.959426	0.000254	2.537793	0.429914	-0.000025
1258	1.2507e+02	7.4880	13.933763	0.000258	2.578725	0.436848	-0.000026
1259	1.2517e+02	7.4757	13.906064	0.000278	2.783386	0.471518	-0.000028
1260	1.2527e+02	7.4658	13.880808	0.000254	2.537793	0.429914	-0.000025
1261	1.2537e+02	7.4565	13.859627	0.000213	2.128472	0.360573	-0.000021
1262	1.2547e+02	7.4477	13.831520	0.000282	2.824318	0.478452	-0.000028
1263	1.2557e+02	7.4374	13.808301	0.000233	2.333132	0.395243	-0.000023
1264	1.2567e+02	7.4307	13.785083	0.000233	2.333132	0.395243	-0.000023
1265	1.2577e+02	7.4191	13.761050	0.000241	2.414997	0.409112	-0.000024
1266	1.2587e+02	7.4070	13.729277	0.000319	3.192708	0.540859	-0.000032
1267	1.2597e+02	7.3990	13.706059	0.000233	2.333132	0.395243	-0.000023
1268	1.2607e+02	7.3887	13.676322	0.000299	2.988047	0.506189	-0.000030
1269	1.2617e+02	7.3772	13.647401	0.000291	2.906183	0.492321	-0.000029
1270	1.2627e+02	7.3707	13.621331	0.000262	2.619658	0.443782	-0.000026
1271	1.2636e+02	7.3594	13.590781	0.000307	3.069911	0.520057	-0.000031
1272	1.2646e+02	7.3483	13.567155	0.000237	2.374065	0.402177	-0.000024
1273	1.2656e+02	7.3384	13.539863	0.000274	2.742454	0.464584	-0.000027
1274	1.2666e+02	7.3274	13.516644	0.000233	2.333132	0.395243	-0.000023
1275	1.2676e+02	7.3203	13.491796	0.000250	2.496861	0.422980	-0.000025
1276	1.2686e+02	7.3098	13.462060	0.000299	2.988047	0.506189	-0.000030
1277	1.2696e+02	7.3009	13.440879	0.000213	2.128472	0.360573	-0.000021
1278	1.2706e+02	7.2897	13.416438	0.000246	2.455929	0.416046	-0.000025
1279	1.2716e+02	7.2790	13.386295	0.000303	3.028979	0.513123	-0.000030
1280	1.2726e+02	7.2701	13.361854	0.000246	2.455929	0.416046	-0.000025
1281	1.2736e+02	7.2590	13.334969	0.000270	2.701522	0.457650	-0.000027
1282	1.2746e+02	7.2490	13.309714	0.000254	2.537793	0.429914	-0.000025
1283	1.2756e+02	7.2398	13.288940	0.000209	2.087540	0.353639	-0.000021
1284	1.2766e+02	7.2276	13.263277	0.000258	2.578725	0.436848	-0.000026
1285	1.2776e+02	7.2169	13.238022	0.000254	2.537793	0.429914	-0.000025
1286	1.2786e+02	7.2087	13.213581	0.000246	2.455929	0.416046	-0.000025
1287	1.2796e+02	7.1989	13.191585	0.000221	2.210336	0.374441	-0.000022
1288	1.2806e+02	7.1909	13.165108	0.000266	2.660590	0.450716	-0.000027
1289	1.2816e+02	7.1790	13.139852	0.000254	2.537793	0.429914	-0.000025
1290	1.2826e+02	7.1718	13.117856	0.000221	2.210336	0.374441	-0.000022
1291	1.2835e+02	7.1586	13.097489	0.000205	2.046607	0.346705	-0.000020
1292	1.2845e+02	7.1493	13.071419	0.000262	2.619658	0.443782	-0.000026
1293	1.2855e+02	7.1377	13.049422	0.000221	2.210336	0.374441	-0.000022
1294	1.2865e+02	7.1280	13.022130	0.000274	2.742454	0.464584	-0.000027
1295	1.2875e+02	7.1192	13.002171	0.000201	2.005675	0.339771	-0.000020
1296	1.2885e+02	7.1094	12.979359	0.000229	2.292200	0.388309	-0.000023
1297	1.2895e+02	7.1004	12.957363	0.000221	2.210336	0.374441	-0.000022
1298	1.2905e+02	7.0899	12.935774	0.000217	2.169404	0.367507	-0.000022
1299	1.2915e+02	7.0816	12.910926	0.000250	2.496861	0.422980	-0.000025
1300	1.2925e+02	7.0704	12.888929	0.000221	2.210336	0.374441	-0.000022
1301	1.2935e+02	7.0628	12.866526	0.000225	2.251268	0.381375	-0.000023
1302	1.2945e+02	7.0498	12.844122	0.000225	2.251268	0.381375	-0.000023
1303	1.2955e+02	7.0409	12.820496	0.000237	2.374065	0.402177	-0.000024
1304	1.2965e+02	7.0303	12.798907	0.000217	2.169404	0.367507	-0.000022
1305	1.2975e+02	7.0216	12.773244	0.000258	2.578725	0.436848	-0.000026
1306	1.2985e+02	7.0109	12.751248	0.000221	2.210336	0.374441	-0.000022
1307	1.2995e+02	6.9991	12.726400	0.000250	2.496861	0.422980	-0.000025
1308	1.3005e+02	6.9900	12.707662	0.000188	1.882879	0.318968	-0.000019
1309	1.3015e+02	6.9798	12.683221	0.000246	2.455929	0.416046	-0.000025
1310	1.3025e+02	6.9704	12.662447	0.000209	2.087540	0.353639	-0.000021
1311	1.3034e+02	6.9624	12.640043	0.000225	2.251268	0.381375	-0.000023
1312	1.3044e+02	6.9515	12.619269	0.000209	2.087540	0.353639	-0.000021
1313	1.3054e+02	6.9413	12.592791	0.000266	2.660590	0.450716	-0.000027
1314	1.3064e+02	6.9302	12.571609	0.000213	2.128472	0.360573	-0.000021
1315	1.3074e+02	6.9199	12.548391	0.000233	2.333132	0.395243	-0.000023
1316	1.3084e+02	6.9115	12.523950	0.000246	2.455929	0.416046	-0.000025
1317	1.3094e+02	6.8990	12.502769	0.000213	2.128472	0.360573	-0.000021
1318	1.3104e+02	6.8903	12.477921	0.000250	2.496861	0.422980	-0.000025
1319	1.3114e+02	6.8821	12.454295	0.000237	2.374065	0.402177	-0.000024
1320	1.3124e+02	6.8693	12.432298	0.000221	2.210336	0.374441	-0.000022
1321	1.3134e+02	6.8621	12.411524	0.000209	2.087540	0.353639	-0.000021
1322	1.3144e+02	6.8499	12.386676	0.000250	2.496861	0.422980	-0.000025
1323	1.3154e+02	6.8401	12.367531	0.000192	1.923811	0.325902	-0.000019
1324	1.3164e+02	6.8311	12.340646	0.000270	2.701522	0.457650	-0.000027
1325	1.3174e+02	6.8226	12.324353	0.000164	1.637286	0.277364	-0.000016
1326	1.3184e+02	6.8127	12.300319	0.000241	2.414997	0.409112	-0.000024
1327	1.3194e+02	6.8020	12.275879	0.000246	2.455929	0.416046	-0.000025
1328	1.3204e+02	6.7953	12.253475	0.000225	2.251268	0.381375	-0.000023
1329	1.3214e+02	6.7815	12.230664	0.000229	2.292200	0.388309	-0.000023
1330	1.3224e+02	6.7719	12.207853	0.000229	2.292200	0.388309	-0.000023
1331	1.3234e+02	6.7598	12.183819	0.000241	2.414997	0.409112	-0.000024
1332	1.3243e+02	6.7501	12.162230	0.000217	2.169404	0.367507	-0.000022
1333	1.3253e+02	6.7434	12.139012	0.000233	2.333132	0.395243	-0.000023
1334	1.3263e+02	6.7353	12.114164	0.000250	2.496861	0.422980	-0.000025
1335	1.3273e+02	6.7217	12.095833	0.000184	1.841947	0.312034	-0.000018
1336	1.3283e+02	6.7091	12.076281	0.000196	1.964743	0.332837	-0.000020
1337	1.3293e+02	6.7017	12.051026	0.000254	2.537793	0.429914	-0.000025
1338	1.3303e+02	6.6920	12.027807	0.000233	2.333132	0.395243	-0.000023
1339	1.3313e+02	6.6815	12.005403	0.000225	2.251268	0.381375	-0.000023
1340	1.3323e+02	6.6726	11.986666	0.000188	1.882879	0.318968	-0.000019
1341	1.3333e+02	6.6602	11.967520	0.000192	1.923811	0.325902	-0.000019
1342	1.3343e+02	6.6524	11.946746	0.000209	2.087540	0.353639	-0.000021
1343	1.3353e+02	6.6410	11.923935	0.000229	2.292200	0.388309	-0.000023
1344	1.3363e+02	6.6323	11.904790	0.000192	1.923811	0.325902	-0.000019
1345	1.3373e+02	6.6225	11.881979	0.000229	2.292200	0.388309	-0.000023
1346	1.3383e+02	6.6129	11.856723	0.000254	2.537793	0.429914	-0.000025
1347	1.3393e+02	6.6040	11.837171	0.000196	1.964743	0.332837	-0.000020
1348	1.3403e+02	6.5920	11.815174	0.000221	2.210336	0.374441	-0.000022
1349	1.3413e+02	6.5822	11.797251	0.000180	1.801015	0.305100	-0.000018
1350	1.3423e+02	6.5728	11.774847	0.000225	2.251268	0.381375	-0.000023
1351	1.3432e+02	6.5627	11.760998	0.000139	1.391693	0.235759	-0.000014
1352	1.3442e+02	6.5528	11.739409	0.000217	2.169404	0.367507	-0.000022
1353	1.3452e+02	6.5415	11.717005	0.000225	2.251268	0.381375	-0.000023
1354	1.3462e+02	6.5340	11.698674	0.000184	1.841947	0.312034	-0.000018
1355	1.3472e+02	6.5208	11.676271	0.000225	2.251268	0.381375	-0.000023
1356	1.3482e+02	6.5119	11.654681	0.000217	2.169404	0.367507	-0.000022
1357	1.3492e+02	6.5040	11.633092	0.000217	2.169404	0.367507	-0.000022
1358	1.3502e+02	6.4944	11.607837	0.000254	2.537793	0.429914	-0.000025
1359	1.3512e+02	6.4824	11.586248	0.000217	2.169404	0.367507	-0.000022
1360	1.3522e+02	6.4721	11.563844	0.000225	2.251268	0.381375	-0.000023
1361	1.3532e+02	6.4625	11.541440	0.000225	2.251268	0.381375	-0.000023
1362	1.3542e+02	6.4507	11.521073	0.000205	2.046607	0.346705	-0.000020
1363	1.3552e+02	6.4446	11.496225	0.000250	2.496861	0.422980	-0.000025
1364	1.3562e+02	6.4315	11.476265	0.000201	2.005675	0.339771	-0.000020
1365	1.3572e+02	6.4225	11.451825	0.000246	2.455929	0.416046	-0.000025
1366	1.3582e+02	6.4150	11.432680	0.000192	1.923811	0.325902	-0.000019
1367	1.3592e+02	6.4007	11.402536	0.000303	3.028979	0.513123	-0.000030
1368	1.3602e+02	6.3912	11.382577	0.000201	2.005675	0.339771	-0.000020
1369	1.3612e+02	6.3811	11.360987	0.000217	2.169404	0.367507	-0.000022
1370	1.3622e+02	6.3737	11.336140	0.000250	2.496861	0.422980	-0.000025
1371	1.3631e+02	6.3634	11.311699	0.000246	2.455929	0.416046	-0.000025
1372	1.3641e+02	6.3528	11.284814	0.000270	2.701522	0.457650	-0.000027
1373	1.3651e+02	6.3451	11.262003	0.000229	2.292200	0.388309	-0.000023
1374	1.3661e+02	6.3367	11.235526	0.000266	2.660590	0.450716	-0.000027
1375	1.3671e+02	6.3255	11.210271	0.000254	2.537793	0.429914	-0.000025
1376	1.3681e+02	6.3134	11.184608	0.000258	2.578725	0.436848	-0.000026
1377	1.3691e+02	6.3038	11.161390	0.000233	2.333132	0.395243	-0.000023
1378	1.3701e+02	6.2968	11.139800	0.000217	2.169404	0.367507	-0.000022
1379	1.3711e+02	6.2867	11.111694	0.000282	2.824318	0.478452	-0.000028
1380	1.3721e+02	6.2738	11.090105	0.000217	2.169404	0.367507	-0.000022
1381	1.3731e+02	6.2652	11.061998	0.000282	2.824318	0.478452	-0.000028
1382	1.3741e+02	6.2530	11.036335	0.000258	2.578725	0.436848	-0.000026
1383	1.3751e+02	6.2444	11.013524	0.000229	2.292200	0.388309	-0.000023
1384	1.3761e+02	6.2354	10.984196	0.000295	2.947115	0.499255	-0.000029
1385	1.3771e+02	6.2280	10.959348	0.000250	2.496861	0.422980	-0.000025
1386	1.3781e+02	6.2171	10.934907	0.000246	2.455929	0.416046	-0.000025
1387	1.3791e+02	6.2028	10.908837	0.000262	2.619658	0.443782	-0.000026
1388	1.3801e+02	6.1941	10.880323	0.000287	2.865250	0.485387	-0.000029
1389	1.3811e+02	6.1858	10.856697	0.000237	2.374065	0.402177	-0.000024
1390	1.3821e+02	6.1735	10.830220	0.000266	2.660590	0.450716	-0.000027
1391	1.3831e+02	6.1640	10.800891	0.000295	2.947115	0.499255	-0.000029
1392	1.3840e+02	6.1543	10.778080	0.000229	2.292200	0.388309	-0.000023
1393	1.3850e+02	6.1434	10.749159	0.000291	2.906183	0.492321	-0.000029
1394	1.3860e+02	6.1353	10.721867	0.000274	2.742454	0.464584	-0.000027
1395	1.3870e+02	6.1250	10.694168	0.000278	2.783386	0.471518	-0.000028
1396	1.3880e+02	6.1144	10.665654	0.000287	2.865250	0.485387	-0.000029
1397	1.3890e+02	6.1044	10.642028	0.000237	2.374065	0.402177	-0.000024
1398	1.3900e+02	6.0979	10.614736	0.000274	2.742454	0.464584	-0.000027
1399	1.3910e+02	6.0845	10.588259	0.000266	2.660590	0.450716	-0.000027
1400	1.3920e+02	6.0749	10.562189	0.000262	2.619658	0.443782	-0.000026
1401	1.3930e+02	6.0641	10.533267	0.000291	2.906183	0.492321	-0.000029
1402	1.3940e+02	6.0551	10.505975	0.000274	2.742454	0.464584	-0.000027
1403	1.3950e+02	6.0426	10.482350	0.000237	2.374065	0.402177	-0.000024
1404	1.3960e+02	6.0340	10.452614	0.000299	2.988047	0.506189	-0.000030
1405	1.3970e+02	6.0255	10.427358	0.000254	2.537793	0.429914	-0.000025
1406	1.3980e+02	6.0169	10.396400	0.000311	3.110843	0.526991	-0.000031
1407	1.3990e+02	6.0067	10.369923	0.000266	2.660590	0.450716	-0.000027
1408	1.4000e+02	5.9957	10.340187	0.000299	2.988047	0.506189	-0.000030
1409	1.4010e+02	5.9856	10.314117	0.000262	2.619658	0.443782	-0.000026
1410	1.4020e+02	5.9748	10.283974	0.000303	3.028979	0.513123	-0.000030
1411	1.4029e+02	5.9664	10.259533	0.000246	2.455929	0.416046	-0.000025
1412	1.4039e+02	5.9551	10.231427	0.000282	2.824318	0.478452	-0.000028
1413	1.4049e+02	5.9460	10.207801	0.000237	2.374065	0.402177	-0.000024
1414	1.4059e+02	5.9389	10.174399	0.000336	3.356436	0.568596	-0.000034
1415	1.4069e+02	5.9243	10.147921	0.000266	2.660590	0.450716	-0.000027
1416	1.4079e+02	5.9162	10.118593	0.000295	2.947115	0.499255	-0.000029
1417	1.4089e+02	5.9058	10.091708	0.000270	2.701522	0.457650	-0.000027
1418	1.4099e+02	5.8958	10.063601	0.000282	2.824318	0.478452	-0.000028
1419	1.4109e+02	5.8865	10.037939	0.000258	2.578725	0.436848	-0.000026
1420	1.4119e+02	5.8776	10.011462	0.000266	2.660590	0.450716	-0.000027
1421	1.4129e+02	5.8675	9.980096	0.000315	3.151775	0.533925	-0.000032
1422	1.4139e+02	5.8553	9.951990	0.000282	2.824318	0.478452	-0.000028
1423	1.4149e+02	5.8472	9.920624	0.000315	3.151775	0.533925	-0.000032
1424	1.4159e+02	5.8384	9.889666	0.000311	3.110843	0.526991	-0.000031
1425	1.4169e+02	5.8252	9.858708	0.000311	3.110843	0.526991	-0.000031
1426	1.4179e+02	5.8132	9.833453	0.000254	2.537793	0.429914	-0.000025
1427	1.4189e+02	5.8080	9.802495	0.000311	3.110843	0.526991	-0.000031
1428	1.4199e+02	5.8006	9.776018	0.000266	2.660590	0.450716	-0.000027
1429	1.4209e+02	5.7867	9.745467	0.000307	3.069911	0.520057	-0.000031
1430	1.4219e+02	5.7754	9.716138	0.000295	2.947115	0.499255	-0.000029
1431	1.4228e+02	5.7650	9.685180	0.000311	3.110843	0.526991	-0.000031
1432	1.4238e+02	5.7574	9.655852	0.000295	2.947115	0.499255	-0.000029
1433	1.4248e+02	5.7473	9.625708	0.000303	3.028979	0.513123	-0.000030
1434	1.4258e+02	5.7359	9.596379	0.000295	2.947115	0.499255	-0.000029
1435	1.4268e+02	5.7302	9.560126	0.000364	3.642961	0.617134	-0.000036
1436	1.4278e+02	5.7156	9.532019	0.000282	2.824318	0.478452	-0.000028
1437	1.4288e+02	5.7037	9.498210	0.000340	3.397368	0.575530	-0.000034
1438	1.4298e+02	5.6997	9.466030	0.000323	3.233640	0.547793	-0.000032
1439	1.4308e+02	5.6860	9.434257	0.000319	3.192708	0.540859	-0.000032
1440	1.4318e+02	5.6776	9.405743	0.000287	2.865250	0.485387	-0.000029
1441	1.4328e+02	5.6680	9.379673	0.000262	2.619658	0.443782	-0.000026
1442	1.4338e+02	5.6573	9.346679	0.000332	3.315504	0.561662	-0.000033
1443	1.4348e+02	5.6481	9.319387	0.000274	2.742454	0.464584	-0.000027
1444	1.4358e+02	5.6347	9.287614	0.000319	3.192708	0.540859	-0.000032
1445	1.4368e+02	5.6280	9.259915	0.000278	2.783386	0.471518	-0.000028
1446	1.4378e+02	5.6179	9.227327	0.000327	3.274572	0.554728	-0.000033
1447	1.4388e+02	5.6063	9.197998	0.000295	2.947115	0.499255	-0.000029
1448	1.4398e+02	5.5967	9.166226	0.000319	3.192708	0.540859	-0.000032
1449	1.4408e+02	5.5883	9.140563	0.000258	2.578725	0.436848	-0.000026
1450	1.4418e+02	5.5770	9.109198	0.000315	3.151775	0.533925	-0.000032
1451	1.4428e+02	5.5676	9.083128	0.000262	2.619658	0.443782	-0.000026
1452	1.4437e+02	5.5573	9.048504	0.000348	3.479233	0.589398	-0.000035
1453	1.4447e+02	5.5469	9.020397	0.000282	2.824318	0.478452	-0.000028
1454	1.4457e+02	5.5384	8.993920	0.000266	2.660590	0.450716	-0.000027
1455	1.4467e+02	5.5276	8.964591	0.000295	2.947115	0.499255	-0.000029
1456	1.4477e+02	5.5176	8.935263	0.000295	2.947115	0.499255	-0.000029
1457	1.4487e+02	5.5088	8.911229	0.000241	2.414997	0.409112	-0.000024
1458	1.4497e+02	5.4987	8.883530	0.000278	2.783386	0.471518	-0.000028
1459	1.4507e+02	5.4879	8.852572	0.000311	3.110843	0.526991	-0.000031
1460	1.4517e+02	5.4763	8.832612	0.000201	2.005675	0.339771	-0.000020
1461	1.4527e+02	5.4697	8.801247	0.000315	3.151775	0.533925	-0.000032
1462	1.4537e+02	5.4581	8.776806	0.000246	2.455929	0.416046	-0.000025
1463	1.4547e+02	5.4491	8.747478	0.000295	2.947115	0.499255	-0.000029
1464	1.4557e+02	5.4383	8.721000	0.000266	2.660590	0.450716	-0.000027
1465	1.4567e+02	5.4267	8.696560	0.000246	2.455929	0.416046	-0.000025
1466	1.4577e+02	5.4192	8.665194	0.000315	3.151775	0.533925	-0.000032
1467	1.4587e+02	5.4092	8.641569	0.000237	2.374065	0.402177	-0.000024
1468	1.4597e+02	5.4006	8.614684	0.000270	2.701522	0.457650	-0.000027
1469	1.4607e+02	5.3883	8.585763	0.000291	2.906183	0.492321	-0.000029
1470	1.4617e+02	5.3783	8.554397	0.000315	3.151775	0.533925	-0.000032
1471	1.4626e+02	5.3687	8.530364	0.000241	2.414997	0.409112	-0.000024
1472	1.4636e+02	5.3580	8.501850	0.000287	2.865250	0.485387	-0.000029
1473	1.4646e+02	5.3477	8.477410	0.000246	2.455929	0.416046	-0.000025
1474	1.4656e+02	5.3394	8.447674	0.000299	2.988047	0.506189	-0.000030
1475	1.4666e+02	5.3286	8.419567	0.000282	2.824318	0.478452	-0.000028
1476	1.4676e+02	5.3164	8.396756	0.000229	2.292200	0.388309	-0.000023
1477	1.4686e+02	5.3100	8.369056	0.000278	2.783386	0.471518	-0.000028
1478	1.4696e+02	5.2999	8.344208	0.000250	2.496861	0.422980	-0.000025
1479	1.4706e+02	5.2872	8.317731	0.000266	2.660590	0.450716	-0.000027
1480	1.4716e+02	5.2789	8.289625	0.000282	2.824318	0.478452	-0.000028
1481	1.4726e+02	5.2678	8.263962	0.000258	2.578725	0.436848	-0.000026
1482	1.4736e+02	5.2587	8.234226	0.000299	2.988047	0.506189	-0.000030
1483	1.4746e+02	5.2540	8.208971	0.000254	2.537793	0.429914	-0.000025
1484	1.4756e+02	5.2380	8.182086	0.000270	2.701522	0.457650	-0.000027
1485	1.4766e+02	5.2297	8.152350	0.000299	2.988047	0.506189	-0.000030
1486	1.4776e+02	5.2216	8.125058	0.000274	2.742454	0.464584	-0.000027
1487	1.4786e+02	5.2100	8.098174	0.000270	2.701522	0.457650	-0.000027
1488	1.4796e+02	5.2007	8.076177	0.000221	2.210336	0.374441	-0.000022
1489	1.4806e+02	5.1917	8.048885	0.000274	2.742454	0.464584	-0.000027
1490	1.4816e+02	5.1785	8.024037	0.000250	2.496861	0.422980	-0.000025
1491	1.4825e+02	5.1696	7.995116	0.000291	2.906183	0.492321	-0.000029
1492	1.4835e+02	5.1579	7.971490	0.000237	2.374065	0.402177	-0.000024
1493	1.4845e+02	5.1514	7.945013	0.000266	2.660590	0.450716	-0.000027
1494	1.4855e+02	5.1389	7.914462	0.000307	3.069911	0.520057	-0.000031
1495	1.4865e+02	5.1311	7.890022	0.000246	2.455929	0.416046	-0.000025
1496	1.4875e+02	5.1208	7.863544	0.000266	2.660590	0.450716	-0.000027
1497	1.4885e+02	5.1116	7.832179	0.000315	3.151775	0.533925	-0.000032
1498	1.4895e+02	5.1022	7.807738	0.000246	2.455929	0.416046	-0.000025
1499	1.4905e+02	5.0901	7.780446	0.000274	2.742454	0.464584	-0.000027
1500	1.4915e+02	5.0813	7.751118	0.000295	2.947115	0.499255	-0.000029
1501	1.4925e+02	5.0717	7.727492	0.000237	2.374065	0.402177	-0.000024
1502	1.4935e+02	5.0609	7.698163	0.000295	2.947115	0.499255	-0.000029
1503	1.4945e+02	5.0500	7.672093	0.000262	2.619658	0.443782	-0.000026
1504	1.4955e+02	5.0397	7.648060	0.000241	2.414997	0.409112	-0.000024
1505	1.4965e+02	5.0323	7.624027	0.000241	2.414997	0.409112	-0.000024
1506	1.4975e+02	5.0204	7.596328	0.000278	2.783386	0.471518	-0.000028
1507	1.4985e+02	5.0103	7.573924	0.000225	2.251268	0.381375	-0.000023
1508	1.4995e+02	5.0007	7.547854	0.000262	2.619658	0.443782	-0.000026
1509	1.5005e+02	4.9911	7.523413	0.000246	2.455929	0.416046	-0.000025
1510	1.5015e+02	4.9795	7.496121	0.000274	2.742454	0.464584	-0.000027
1511	1.5025e+02	4.9735	7.472495	0.000237	2.374065	0.402177	-0.000024
1512	1.5034e+02	4.9606	7.445203	0.000274	2.742454	0.464584	-0.000027
1513	1.5044e+02	4.9517	7.416690	0.000287	2.865250	0.485387	-0.000029
1514	1.5054e+02	4.9427	7.391027	0.000258	2.578725	0.436848	-0.000026
1515	1.5064e+02	4.9325	7.366994	0.000241	2.414997	0.409112	-0.000024
1516	1.5074e+02	4.9184	7.342553	0.000246	2.455929	0.416046	-0.000025
1517	1.5084e+02	4.9106	7.313224	0.000295	2.947115	0.499255	-0.000029
1518	1.5094e+02	4.9010	7.294487	0.000188	1.882879	0.318968	-0.000019
1519	1.5104e+02	4.8917	7.270454	0.000241	2.414997	0.409112	-0.000024
1520	1.5114e+02	4.8830	7.246420	0.000241	2.414997	0.409112	-0.000024
1521	1.5124e+02	4.8717	7.219943	0.000266	2.660590	0.450716	-0.000027
1522	1.5134e+02	4.8609	7.197539	0.000225	2.251268	0.381375	-0.000023
1523	1.5144e+02	4.8500	7.171877	0.000258	2.578725	0.436848	-0.000026
1524	1.5154e+02	4.8437	7.144177	0.000278	2.783386	0.471518	-0.000028
1525	1.5164e+02	4.8336	7.116885	0.000274	2.742454	0.464584	-0.000027
1526	1.5174e+02	4.8237	7.088371	0.000287	2.865250	0.485387	-0.000029
1527	1.5184e+02	4.8125	7.062301	0.000262	2.619658	0.443782	-0.000026
1528	1.5194e+02	4.7988	7.035417	0.000270	2.701522	0.457650	-0.000027
1529	1.5204e+02	4.7894	7.010569	0.000250	2.496861	0.422980	-0.000025
1530	1.5214e+02	4.7803	6.984499	0.000262	2.619658	0.443782	-0.000026
1531	1.5224e+02	4.7711	6.960873	0.000237	2.374065	0.402177	-0.000024
1532	1.5233e+02	4.7599	6.930730	0.000303	3.028979	0.513123	-0.000030
1533	1.5243e+02	4.7515	6.903438	0.000274	2.742454	0.464584	-0.000027
1534	1.5253e+02	4.7421	6.876961	0.000266	2.660590	0.450716	-0.000027
1535	1.5263e+02	4.7313	6.850076	0.000270	2.701522	0.457650	-0.000027
1536	1.5273e+02	4.7248	6.823191	0.000270	2.701522	0.457650	-0.000027
1537	1.5283e+02	4.7131	6.792233	0.000311	3.110843	0.526991	-0.000031
1538	1.5293e+02	4.7009	6.762905	0.000295	2.947115	0.499255	-0.000029
1539	1.5303e+02	4.6899	6.734798	0.000282	2.824318	0.478452	-0.000028
1540	1.5313e+02	4.6818	6.703433	0.000315	3.151775	0.533925	-0.000032
1541	1.5323e+02	4.6735	6.676141	0.000274	2.742454	0.464584	-0.000027
1542	1.5333e+02	4.6622	6.645997	0.000303	3.028979	0.513123	-0.000030
1543	1.5343e+02	4.6502	6.620335	0.000258	2.578725	0.436848	-0.000026
1544	1.5353e+02	4.6423	6.591006	0.000295	2.947115	0.499255	-0.000029
1545	1.5363e+02	4.6329	6.560048	0.000311	3.110843	0.526991	-0.000031
1546	1.5373e+02	4.6228	6.526646	0.000336	3.356436	0.568596	-0.000034
1547	1.5383e+02	4.6130	6.500576	0.000262	2.619658	0.443782	-0.000026
1548	1.5393e+02	4.6026	6.472877	0.000278	2.783386	0.471518	-0.000028
1549	1.5403e+02	4.5937	6.441919	0.000311	3.110843	0.526991	-0.000031
1550	1.5413e+02	4.5826	6.412183	0.000299	2.988047	0.506189	-0.000030
1551	1.5422e+02	4.5738	6.381225	0.000311	3.110843	0.526991	-0.000031
1552	1.5432e+02	4.5638	6.353933	0.000274	2.742454	0.464584	-0.000027
1553	1.5442e+02	4.5525	6.321345	0.000327	3.274572	0.554728	-0.000033
1554	1.5452e+02	4.5420	6.292831	0.000287	2.865250	0.485387	-0.000029
1555	1.5462e+02	4.5333	6.262688	0.000303	3.028979	0.513123	-0.000030
1556	1.5472e+02	4.5249	6.230915	0.000319	3.192708	0.540859	-0.000032
1557	1.5482e+02	4.5108	6.199957	0.000311	3.110843	0.526991	-0.000031
1558	1.5492e+02	4.5029	6.171443	0.000287	2.865250	0.485387	-0.000029
1559	1.5502e+02	4.4932	6.136819	0.000348	3.479233	0.589398	-0.000035
1560	1.5512e+02	4.4840	6.107491	0.000295	2.947115	0.499255	-0.000029
1561	1.5522e+02	4.4746	6.076125	0.000315	3.151775	0.533925	-0.000032
1562	1.5532e+02	4.4626	6.041501	0.000348	3.479233	0.589398	-0.000035
1563	1.5542e+02	4.4540	6.013802	0.000278	2.783386	0.471518	-0.000028
1564	1.5552e+02	4.4445	5.980400	0.000336	3.356436	0.568596	-0.000034
1565	1.5562e+02	4.4331	5.949442	0.000311	3.110843	0.526991	-0.000031
1566	1.5572e+02	4.4238	5.918484	0.000311	3.110843	0.526991	-0.000031
1567	1.5582e+02	4.4127	5.887118	0.000315	3.151775	0.533925	-0.000032
1568	1.5592e+02	4.4024	5.860234	0.000270	2.701522	0.457650	-0.000027
1569	1.5602e+02	4.3942	5.826424	0.000340	3.397368	0.575530	-0.000034
1570	1.5612e+02	4.3834	5.794651	0.000319	3.192708	0.540859	-0.000032
1571	1.5622e+02	4.3725	5.764915	0.000299	2.988047	0.506189	-0.000030
1572	1.5631e+02	4.3645	5.728662	0.000364	3.642961	0.617134	-0.000036
1573	1.5641e+02	4.3528	5.695667	0.000332	3.315504	0.561662	-0.000033
1574	1.5651e+02	4.3421	5.665931	0.000299	2.988047	0.506189	-0.000030
1575	1.5661e+02	4.3356	5.631307	0.000348	3.479233	0.589398	-0.000035
1576	1.5671e+02	4.3256	5.599942	0.000315	3.151775	0.533925	-0.000032
1577	1.5681e+02	4.3151	5.568169	0.000319	3.192708	0.540859	-0.000032
1578	1.5691e+02	4.3043	5.536396	0.000319	3.192708	0.540859	-0.000032
1579	1.5701e+02	4.2951	5.506253	0.000303	3.028979	0.513123	-0.000030
1580	1.5711e+02	4.2829	5.472851	0.000336	3.356436	0.568596	-0.000034
1581	1.5721e+02	4.2747	5.440263	0.000327	3.274572	0.554728	-0.000033
1582	1.5731e+02	4.2654	5.409713	0.000307	3.069911	0.520057	-0.000031
1583	1.5741e+02	4.2541	5.376718	0.000332	3.315504	0.561662	-0.000033
1584	1.5751e+02	4.2434	5.346575	0.000303	3.028979	0.513123	-0.000030
1585	1.5761e+02	4.2349	5.312765	0.000340	3.397368	0.575530	-0.000034
1586	1.5771e+02	4.2262	5.281400	0.000315	3.151775	0.533925	-0.000032
1587	1.5781e+02	4.2170	5.247183	0.000344	3.438301	0.582464	-0.000034
1588	1.5791e+02	4.2039	5.212966	0.000344	3.438301	0.582464	-0.000034
1589	1.5801e+02	4.1951	5.179972	0.000332	3.315504	0.561662	-0.000033
1590	1.5811e+02	4.1854	5.142089	0.000381	3.806690	0.644871	-0.000038
1591	1.5821e+02	4.1758	5.113982	0.000282	2.824318	0.478452	-0.000028
1592	1.5830e+02	4.1657	5.074062	0.000401	4.011351	0.679541	-0.000040
1593	1.5840e+02	4.1560	5.041475	0.000327	3.274572	0.554728	-0.000033
1594	1.5850e+02	4.1447	5.008073	0.000336	3.356436	0.568596	-0.000034
1595	1.5860e+02	4.1381	4.972634	0.000356	3.561097	0.603266	-0.000036
1596	1.5870e+02	4.1249	4.940861	0.000319	3.192708	0.540859	-0.000032
1597	1.5880e+02	4.1155	4.906645	0.000344	3.438301	0.582464	-0.000034
1598	1.5890e+02	4.1039	4.874872	0.000319	3.192708	0.540859	-0.000032
1599	1.5900e+02	4.0949	4.838618	0.000364	3.642961	0.617134	-0.000036
1600	1.5910e+02	4.0845	4.804402	0.000344	3.438301	0.582464	-0.000034
1601	1.5920e+02	4.0761	4.764889	0.000397	3.970418	0.672607	-0.000040
1602	1.5930e+02	4.0644	4.731895	0.000332	3.315504	0.561662	-0.000033
1603	1.5940e+02	4.0542	4.695641	0.000364	3.642961	0.617134	-0.000036
1604	1.5950e+02	4.0442	4.658980	0.000368	3.683893	0.624068	-0.000037
1605	1.5960e+02	4.0334	4.619061	0.000401	4.011351	0.679541	-0.000040
1606	1.5970e+02	4.0258	4.587288	0.000319	3.192708	0.540859	-0.000032
1607	1.5980e+02	4.0170	4.548591	0.000389	3.888554	0.658739	-0.000039
1608	1.5990e+02	4.0037	4.514781	0.000340	3.397368	0.575530	-0.000034
1609	1.6000e+02	3.9957	4.486267	0.000287	2.865250	0.485387	-0.000029
1610	1.6010e+02	3.9846	4.449199	0.000372	3.724826	0.631003	-0.000037
1611	1.6019e+02	3.9729	4.414982	0.000344	3.438301	0.582464	-0.000034
1612	1.6029e+02	3.9667	4.378321	0.000368	3.683893	0.624068	-0.000037
1613	1.6039e+02	3.9533	4.348178	0.000303	3.028979	0.513123	-0.000030
1614	1.6049e+02	3.9462	4.313961	0.000344	3.438301	0.582464	-0.000034
1615	1.6059e+02	3.9352	4.272820	0.000413	4.134147	0.700343	-0.000041
1616	1.6069e+02	3.9259	4.243491	0.000295	2.947115	0.499255	-0.000029
1617	1.6079e+02	3.9157	4.210089	0.000336	3.356436	0.568596	-0.000034
1618	1.6089e+02	3.9069	4.171391	0.000389	3.888554	0.658739	-0.000039
1619	1.6099e+02	3.8967	4.137175	0.000344	3.438301	0.582464	-0.000034
1620	1.6109e+02	3.8887	4.103773	0.000336	3.356436	0.568596	-0.000034
1621	1.6119e+02	3.8758	4.072815	0.000311	3.110843	0.526991	-0.000031
1622	1.6129e+02	3.8648	4.041042	0.000319	3.192708	0.540859	-0.000032
1623	1.6139e+02	3.8541	4.011306	0.000299	2.988047	0.506189	-0.000030
1624	1.6149e+02	3.8443	3.975052	0.000364	3.642961	0.617134	-0.000036
1625	1.6159e+02	3.8374	3.943687	0.000315	3.151775	0.533925	-0.000032
1626	1.6169e+02	3.8277	3.911914	0.000319	3.192708	0.540859	-0.000032
1627	1.6179e+02	3.8144	3.878512	0.000336	3.356436	0.568596	-0.000034
1628	1.6189e+02	3.8064	3.847147	0.000315	3.151775	0.533925	-0.000032
1629	1.6199e+02	3.7959	3.815374	0.000319	3.192708	0.540859	-0.000032
1630	1.6209e+02	3.7843	3.783601	0.000319	3.192708	0.540859	-0.000032
1631	1.6219e+02	3.7756	3.753051	0.000307	3.069911	0.520057	-0.000031
1632	1.6228e+02	3.7663	3.721685	0.000315	3.151775	0.533925	-0.000032
1633	1.6238e+02	3.7569	3.687468	0.000344	3.438301	0.582464	-0.000034
1634	1.6248e+02	3.7481	3.656103	0.000315	3.151775	0.533925	-0.000032
1635	1.6258e+02	3.7385	3.625145	0.000311	3.110843	0.526991	-0.000031
1636	1.6268e+02	3.7273	3.593372	0.000319	3.192708	0.540859	-0.000032
1637	1.6278e+02	3.7170	3.559970	0.000336	3.356436	0.568596	-0.000034
1638	1.6288e+02	3.7071	3.529827	0.000303	3.028979	0.513123	-0.000030
1639	1.6298e+02	3.6993	3.496017	0.000340	3.397368	0.575530	-0.000034
1640	1.6308e+02	3.6861	3.465874	0.000303	3.028979	0.513123	-0.000030
1641	1.6318e+02	3.6784	3.432879	0.000332	3.315504	0.561662	-0.000033
1642	1.6328e+02	3.6694	3.399885	0.000332	3.315504	0.561662	-0.000033
1643	1.6338e+02	3.6574	3.370149	0.000299	2.988047	0.506189	-0.000030
1644	1.6348e+02	3.6480	3.337561	0.000327	3.274572	0.554728	-0.000033
1645	1.6358e+02	3.6369	3.306196	0.000315	3.151775	0.533925	-0.000032
1646	1.6368e+02	3.6275	3.277682	0.000287	2.865250	0.485387	-0.000029
1647	1.6378e+02	3.6172	3.245909	0.000319	3.192708	0.540859	-0.000032
1648	1.6388e+02	3.6063	3.210470	0.000356	3.561097	0.603266	-0.000036
1649	1.6398e+02	3.5954	3.176661	0.000340	3.397368	0.575530	-0.000034
1650	1.6408e+02	3.5873	3.148147	0.000287	2.865250	0.485387	-0.000029
1651	1.6418e+02	3.5782	3.115152	0.000332	3.315504	0.561662	-0.000033
1652	1.6427e+02	3.5654	3.083787	0.000315	3.151775	0.533925	-0.000032
1653	1.6437e+02	3.5563	3.056087	0.000278	2.783386	0.471518	-0.000028
1654	1.6447e+02	3.5473	3.021056	0.000352	3.520165	0.596332	-0.000035
1655	1.6457e+02	3.5390	2.984803	0.000364	3.642961	0.617134	-0.000036
1656	1.6467e+02	3.5272	2.957918	0.000270	2.701522	0.457650	-0.000027
1657	1.6477e+02	3.5178	2.930626	0.000274	2.742454	0.464584	-0.000027
1658	1.6487e+02	3.5072	2.896409	0.000344	3.438301	0.582464	-0.000034
1659	1.6497e+02	3.4988	2.861378	0.000352	3.520165	0.596332	-0.000035
1660	1.6507e+02	3.4896	2.835308	0.000262	2.619658	0.443782	-0.000026
1661	1.6517e+02	3.4798	2.800684	0.000348	3.479233	0.589398	-0.000035
1662	1.6527e+02	3.4667	2.768504	0.000323	3.233640	0.547793	-0.000032
1663	1.6537e+02	3.4591	2.734694	0.000340	3.397368	0.575530	-0.000034
1664	1.6547e+02	3.4469	2.704958	0.000299	2.988047	0.506189	-0.000030
1665	1.6557e+02	3.4372	2.671963	0.000332	3.315504	0.561662	-0.000033
1666	1.6567e+02	3.4286	2.641005	0.000311	3.110843	0.526991	-0.000031
1667	1.6577e+02	3.4195	2.603123	0.000381	3.806690	0.644871	-0.000038
1668	1.6587e+02	3.4051	2.576645	0.000266	2.660590	0.450716	-0.000027
1669	1.6597e+02	3.3990	2.540799	0.000360	3.602029	0.610200	-0.000036
1670	1.6607e+02	3.3887	2.511878	0.000291	2.906183	0.492321	-0.000029
1671	1.6616e+02	3.3787	2.478883	0.000332	3.315504	0.561662	-0.000033
1672	1.6626e+02	3.3691	2.447518	0.000315	3.151775	0.533925	-0.000032
1673	1.6636e+02	3.3572	2.421040	0.000266	2.660590	0.450716	-0.000027
1674	1.6646e+02	3.3487	2.388453	0.000327	3.274572	0.554728	-0.000033
1675	1.6656e+02	3.3418	2.361568	0.000270	2.701522	0.457650	-0.000027
1676	1.6666e+02	3.3302	2.328574	0.000332	3.315504	0.561662	-0.000033
1677	1.6676e+02	3.3195	2.299652	0.000291	2.906183	0.492321	-0.000029
1678	1.6686e+02	3.3102	2.269509	0.000303	3.028979	0.513123	-0.000030
1679	1.6696e+02	3.2990	2.237329	0.000323	3.233640	0.547793	-0.000032
1680	1.6706e+02	3.2868	2.200261	0.000372	3.724826	0.631003	-0.000037
1681	1.6716e+02	3.2784	2.171339	0.000291	2.906183	0.492321	-0.000029
1682	1.6726e+02	3.2700	2.140381	0.000311	3.110843	0.526991	-0.000031
1683	1.6736e+02	3.2579	2.111053	0.000295	2.947115	0.499255	-0.000029
1684	1.6746e+02	3.2525	2.081317	0.000299	2.988047	0.506189	-0.000030
1685	1.6756e+02	3.2384	2.048322	0.000332	3.315504	0.561662	-0.000033
1686	1.6766e+02	3.2307	2.024696	0.000237	2.374065	0.402177	-0.000024
1687	1.6776e+02	3.2191	1.995775	0.000291	2.906183	0.492321	-0.000029
1688	1.6786e+02	3.2109	1.965631	0.000303	3.028979	0.513123	-0.000030
1689	1.6796e+02	3.1988	1.935081	0.000307	3.069911	0.520057	-0.000031
1690	1.6806e+02	3.1910	1.903308	0.000319	3.192708	0.540859	-0.000032
1691	1.6816e+02	3.1796	1.874387	0.000291	2.906183	0.492321	-0.000029
1692	1.6825e+02	3.1698	1.842207	0.000323	3.233640	0.547793	-0.000032
1693	1.6835e+02	3.1575	1.810841	0.000315	3.151775	0.533925	-0.000032
1694	1.6845e+02	3.1498	1.775403	0.000356	3.561097	0.603266	-0.000036
1695	1.6855e+02	3.1358	1.746481	0.000291	2.906183	0.492321	-0.000029
1696	1.6865e+02	3.1310	1.711042	0.000356	3.561097	0.603266	-0.000036
1697	1.6875e+02	3.1185	1.679677	0.000315	3.151775	0.533925	-0.000032
1698	1.6885e+02	3.1114	1.648719	0.000311	3.110843	0.526991	-0.000031
1699	1.6895e+02	3.1021	1.614502	0.000344	3.438301	0.582464	-0.000034
1700	1.6905e+02	3.0907	1.588840	0.000258	2.578725	0.436848	-0.000026
1701	1.6915e+02	3.0798	1.551771	0.000372	3.724826	0.631003	-0.000037
1702	1.6925e+02	3.0698	1.517147	0.000348	3.479233	0.589398	-0.000035
1703	1.6935e+02	3.0618	1.488633	0.000287	2.865250	0.485387	-0.000029
1704	1.6945e+02	3.0491	1.447899	0.000409	4.093215	0.693409	-0.000041
1705	1.6955e+02	3.0392	1.420200	0.000278	2.783386	0.471518	-0.000028
1706	1.6965e+02	3.0315	1.385983	0.000344	3.438301	0.582464	-0.000034
1707	1.6975e+02	3.0202	1.345656	0.000405	4.052283	0.686475	-0.000041
1708	1.6985e+02	3.0096	1.313883	0.000319	3.192708	0.540859	-0.000032
1709	1.6995e+02	3.0028	1.281296	0.000327	3.274572	0.554728	-0.000033
1710	1.7005e+02	2.9912	1.245043	0.000364	3.642961	0.617134	-0.000036
1711	1.7015e+02	2.9836	1.209196	0.000360	3.602029	0.610200	-0.000036
1712	1.7024e+02	2.9697	1.178238	0.000311	3.110843	0.526991	-0.000031
1713	1.7034e+02	2.9611	1.142392	0.000360	3.602029	0.610200	-0.000036
1714	1.7044e+02	2.9493	1.104509	0.000381	3.806690	0.644871	-0.000038
1715	1.7054e+02	2.9398	1.072329	0.000323	3.233640	0.547793	-0.000032
1716	1.7064e+02	2.9304	1.033632	0.000389	3.888554	0.658739	-0.000039
1717	1.7074e+02	2.9227	1.001044	0.000327	3.274572	0.554728	-0.000033
1718	1.7084e+02	2.9111	0.968457	0.000327	3.274572	0.554728	-0.000033
1719	1.7094e+02	2.9008	0.929759	0.000389	3.888554	0.658739	-0.000039
1720	1.7104e+02	2.8916	0.895135	0.000348	3.479233	0.589398	-0.000035
1721	1.7114e+02	2.8816	0.862141	0.000332	3.315504	0.561662	-0.000033
1722	1.7124e+02	2.8719	0.822628	0.000397	3.970418	0.672607	-0.000040
1723	1.7134e+02	2.8622	0.790041	0.000327	3.274572	0.554728	-0.000033
1724	1.7144e+02	2.8496	0.750936	0.000393	3.929486	0.665673	-0.000039
1725	1.7154e+02	2.8396	0.715497	0.000356	3.561097	0.603266	-0.000036
1726	1.7164e+02	2.8307	0.679651	0.000360	3.602029	0.610200	-0.000036
1727	1.7174e+02	2.8223	0.641768	0.000381	3.806690	0.644871	-0.000038
1728	1.7184e+02	2.8127	0.605107	0.000368	3.683893	0.624068	-0.000037
1729	1.7194e+02	2.8019	0.568039	0.000372	3.724826	0.631003	-0.000037
1730	1.7204e+02	2.7917	0.528120	0.000401	4.011351	0.679541	-0.000040
1731	1.7213e+02	2.7843	0.493903	0.000344	3.438301	0.582464	-0.000034
1732	1.7223e+02	2.7734	0.454391	0.000397	3.970418	0.672607	-0.000040
1733	1.7233e+02	2.7612	0.419359	0.000352	3.520165	0.596332	-0.000035
1734	1.7243e+02	2.7520	0.382291	0.000372	3.724826	0.631003	-0.000037
1735	1.7253e+02	2.7399	0.344001	0.000385	3.847622	0.651805	-0.000038
1736	1.7263e+02	2.7337	0.310191	0.000340	3.397368	0.575530	-0.000034
1737	1.7273e+02	2.7216	0.274753	0.000356	3.561097	0.603266	-0.000036
1738	1.7283e+02	2.7121	0.231167	0.000438	4.379740	0.741948	-0.000044
1739	1.7293e+02	2.7015	0.198172	0.000332	3.315504	0.561662	-0.000033
1740	1.7303e+02	2.6929	0.161104	0.000372	3.724826	0.631003	-0.000037
1741	1.7313e+02	2.6831	0.121184	0.000401	4.011351	0.679541	-0.000040
1742	1.7323e+02	2.6730	0.081672	0.000397	3.970418	0.672607	-0.000040
1743	1.7333e+02	2.6631	0.042567	0.000393	3.929486	0.665673	-0.000039
1744	1.7343e+02	2.6525	0.003055	0.000397	3.970418	0.672607	-0.000040
1745	1.7353e+02	2.6414	-0.031569	0.000348	3.479233	0.589398	-0.000035
1746	1.7363e+02	2.6334	-0.067415	0.000360	3.602029	0.610200	-0.000036
1747	1.7373e+02	2.6244	-0.110186	0.000430	4.297876	0.728080	-0.000043
1748	1.7383e+02	2.6122	-0.146440	0.000364	3.642961	0.617134	-0.000036
1749	1.7393e+02	2.6012	-0.183508	0.000372	3.724826	0.631003	-0.000037
1750	1.7403e+02	2.5912	-0.219354	0.000360	3.602029	0.610200	-0.000036
1751	1.7413e+02	2.5814	-0.257237	0.000381	3.806690	0.644871	-0.000038
1752	1.7422e+02	2.5735	-0.295527	0.000385	3.847622	0.651805	-0.000038
1753	1.7432e+02	2.5620	-0.337483	0.000422	4.216011	0.714212	-0.000042
1754	1.7442e+02	2.5542	-0.374551	0.000372	3.724826	0.631003	-0.000037
1755	1.7452e+02	2.5420	-0.411620	0.000372	3.724826	0.631003	-0.000037
1756	1.7462e+02	2.5341	-0.454798	0.000434	4.338808	0.735014	-0.000043
1757	1.7472e+02	2.5233	-0.491866	0.000372	3.724826	0.631003	-0.000037
1758	1.7482e+02	2.5116	-0.532600	0.000409	4.093215	0.693409	-0.000041
1759	1.7492e+02	2.5043	-0.572520	0.000401	4.011351	0.679541	-0.000040
1760	1.7502e+02	2.4933	-0.613662	0.000413	4.134147	0.700343	-0.000041
1761	1.7512e+02	2.4821	-0.651544	0.000381	3.806690	0.644871	-0.000038
1762	1.7522e+02	2.4741	-0.695130	0.000438	4.379740	0.741948	-0.000044
1763	1.7532e+02	2.4615	-0.732606	0.000377	3.765758	0.637937	-0.000038
1764	1.7542e+02	2.4510	-0.772932	0.000405	4.052283	0.686475	-0.000041
1765	1.7552e+02	2.4418	-0.810408	0.000377	3.765758	0.637937	-0.000038
1766	1.7562e+02	2.4352	-0.853994	0.000438	4.379740	0.741948	-0.000044
1767	1.7572e+02	2.4242	-0.891062	0.000372	3.724826	0.631003	-0.000037
1768	1.7582e+02	2.4141	-0.930574	0.000397	3.970418	0.672607	-0.000040
1769	1.7592e+02	2.4036	-0.975382	0.000450	4.502536	0.762750	-0.000045
1770	1.7602e+02	2.3949	-1.018560	0.000434	4.338808	0.735014	-0.000043
1771	1.7612e+02	2.3833	-1.063775	0.000454	4.543469	0.769684	-0.000045
1772	1.7621e+02	2.3739	-1.104917	0.000413	4.134147	0.700343	-0.000041
1773	1.7631e+02	2.3637	-1.144022	0.000393	3.929486	0.665673	-0.000039
1774	1.7641e+02	2.3551	-1.188422	0.000446	4.461604	0.755816	-0.000045
1775	1.7651e+02	2.3457	-1.223861	0.000356	3.561097	0.603266	-0.000036
1776	1.7661e+02	2.3328	-1.269483	0.000458	4.584401	0.776619	-0.000046
1777	1.7671e+02	2.3251	-1.304922	0.000356	3.561097	0.603266	-0.000036
1778	1.7681e+02	2.3163	-1.348915	0.000442	4.420672	0.748882	-0.000044
1779	1.7691e+02	2.3052	-1.387612	0.000389	3.888554	0.658739	-0.000039
1780	1.7701e+02	2.2924	-1.428754	0.000413	4.134147	0.700343	-0.000041
1781	1.7711e+02	2.2841	-1.469081	0.000405	4.052283	0.686475	-0.000041
1782	1.7721e+02	2.2756	-1.512667	0.000438	4.379740	0.741948	-0.000044
1783	1.7731e+02	2.2654	-1.555030	0.000426	4.256944	0.721146	-0.000043
1784	1.7741e+02	2.2552	-1.594542	0.000397	3.970418	0.672607	-0.000040
1785	1.7751e+02	2.2442	-1.633240	0.000389	3.888554	0.658739	-0.000039
1786	1.7761e+02	2.2353	-1.676418	0.000434	4.338808	0.735014	-0.000043
1787	1.7771e+02	2.2221	-1.715523	0.000393	3.929486	0.665673	-0.000039
1788	1.7781e+02	2.2167	-1.753406	0.000381	3.806690	0.644871	-0.000038
1789	1.7791e+02	2.2021	-1.793326	0.000401	4.011351	0.679541	-0.000040
1790	1.7801e+02	2.1932	-1.830394	0.000372	3.724826	0.631003	-0.000037
1791	1.7810e+02	2.1829	-1.865833	0.000356	3.561097	0.603266	-0.000036
1792	1.7820e+02	2.1740	-1.911048	0.000454	4.543469	0.769684	-0.000045
1793	1.7830e+02	2.1635	-1.949338	0.000385	3.847622	0.651805	-0.000038
1794	1.7840e+02	2.1548	-1.982333	0.000332	3.315504	0.561662	-0.000033
1795	1.7850e+02	2.1439	-2.023881	0.000418	4.175079	0.707278	-0.000042
1796	1.7860e+02	2.1342	-2.062579	0.000389	3.888554	0.658739	-0.000039
1797	1.7870e+02	2.1250	-2.098832	0.000364	3.642961	0.617134	-0.000036
1798	1.7880e+02	2.1141	-2.139159	0.000405	4.052283	0.686475	-0.000041
1799	1.7890e+02	2.1056	-2.176228	0.000372	3.724826	0.631003	-0.000037
1800	1.7900e+02	2.0953	-2.213703	0.000377	3.765758	0.637937	-0.000038
1801	1.7910e+02	2.0855	-2.251993	0.000385	3.847622	0.651805	-0.000038
1802	1.7920e+02	2.0742	-2.290691	0.000389	3.888554	0.658739	-0.000039
1803	1.7930e+02	2.0625	-2.333462	0.000430	4.297876	0.728080	-0.000043
1804	1.7940e+02	2.0519	-2.370123	0.000368	3.683893	0.624068	-0.000037
1805	1.7950e+02	2.0423	-2.408005	0.000381	3.806690	0.644871	-0.000038
1806	1.7960e+02	2.0350	-2.445074	0.000372	3.724826	0.631003	-0.000037
1807	1.7970e+02	2.0245	-2.483364	0.000385	3.847622	0.651805	-0.000038
1808	1.7980e+02	2.0175	-2.522469	0.000393	3.929486	0.665673	-0.000039
1809	1.7990e+02	2.0077	-2.559944	0.000377	3.765758	0.637937	-0.000038
1810	1.8000e+02	1.9932	-2.599864	0.000401	4.011351	0.679541	-0.000040
1811	1.8009e+02	1.9859	-2.636932	0.000372	3.724826	0.631003	-0.000037
1812	1.8019e+02	1.9773	-2.671963	0.000352	3.520165	0.596332	-0.000035
1813	1.8029e+02	1.9656	-2.713105	0.000413	4.134147	0.700343	-0.000041
1814	1.8039e+02	1.9540	-2.751803	0.000389	3.888554	0.658739	-0.000039
1815	1.8049e+02	1.9453	-2.786427	0.000348	3.479233	0.589398	-0.000035
1816	1.8059e+02	1.9378	-2.828383	0.000422	4.216011	0.714212	-0.000042
1817	1.8069e+02	1.9241	-2.865859	0.000377	3.765758	0.637937	-0.000038
1818	1.8079e+02	1.9151	-2.904963	0.000393	3.929486	0.665673	-0.000039
1819	1.8089e+02	1.9076	-2.940402	0.000356	3.561097	0.603266	-0.000036
1820	1.8099e+02	1.8999	-2.979914	0.000397	3.970418	0.672607	-0.000040
1821	1.8109e+02	1.8876	-3.021056	0.000413	4.134147	0.700343	-0.000041
1822	1.8119e+02	1.8737	-3.054865	0.000340	3.397368	0.575530	-0.000034
1823	1.8129e+02	1.8660	-3.096822	0.000422	4.216011	0.714212	-0.000042
1824	1.8139e+02	1.8560	-3.133075	0.000364	3.642961	0.617134	-0.000036
1825	1.8149e+02	1.8456	-3.169736	0.000368	3.683893	0.624068	-0.000037
1826	1.8159e+02	1.8353	-3.205582	0.000360	3.602029	0.610200	-0.000036
1827	1.8169e+02	1.8256	-3.243872	0.000385	3.847622	0.651805	-0.000038
1828	1.8179e+02	1.8166	-3.285829	0.000422	4.216011	0.714212	-0.000042
1829	1.8189e+02	1.8046	-3.319638	0.000340	3.397368	0.575530	-0.000034
1830	1.8199e+02	1.7962	-3.362816	0.000434	4.338808	0.735014	-0.000043
1831	1.8209e+02	1.7843	-3.401514	0.000389	3.888554	0.658739	-0.000039
1832	1.8218e+02	1.7754	-3.438175	0.000368	3.683893	0.624068	-0.000037
1833	1.8228e+02	1.7652	-3.482982	0.000450	4.502536	0.762750	-0.000045
1834	1.8238e+02	1.7568	-3.518421	0.000356	3.561097	0.603266	-0.000036
1835	1.8248e+02	1.7494	-3.559156	0.000409	4.093215	0.693409	-0.000041
1836	1.8258e+02	1.7360	-3.592965	0.000340	3.397368	0.575530	-0.000034
1837	1.8268e+02	1.7273	-3.635329	0.000426	4.256944	0.721146	-0.000043
1838	1.8278e+02	1.7163	-3.672397	0.000372	3.724826	0.631003	-0.000037
1839	1.8288e+02	1.7078	-3.715168	0.000430	4.297876	0.728080	-0.000043
1840	1.8298e+02	1.6992	-3.746126	0.000311	3.110843	0.526991	-0.000031
1841	1.8308e+02	1.6881	-3.783194	0.000372	3.724826	0.631003	-0.000037
1842	1.8318e+02	1.6755	-3.823928	0.000409	4.093215	0.693409	-0.000041
1843	1.8328e+02	1.6677	-3.859367	0.000356	3.561097	0.603266	-0.000036
1844	1.8338e+02	1.6591	-3.893584	0.000344	3.438301	0.582464	-0.000034
1845	1.8348e+02	1.6441	-3.932281	0.000389	3.888554	0.658739	-0.000039
1846	1.8358e+02	1.6389	-3.971386	0.000393	3.929486	0.665673	-0.000039
1847	1.8368e+02	1.6268	-4.010898	0.000397	3.970418	0.672607	-0.000040
1848	1.8378e+02	1.6164	-4.048374	0.000377	3.765758	0.637937	-0.000038
1849	1.8388e+02	1.6071	-4.088701	0.000405	4.052283	0.686475	-0.000041
1850	1.8398e+02	1.6003	-4.123732	0.000352	3.520165	0.596332	-0.000035
1851	1.8407e+02	1.5858	-4.158356	0.000348	3.479233	0.589398	-0.000035
1852	1.8417e+02	1.5774	-4.197869	0.000397	3.970418	0.672607	-0.000040
1853	1.8427e+02	1.5663	-4.230456	0.000327	3.274572	0.554728	-0.000033
1854	1.8437e+02	1.5596	-4.266710	0.000364	3.642961	0.617134	-0.000036
1855	1.8447e+02	1.5487	-4.305407	0.000389	3.888554	0.658739	-0.000039
1856	1.8457e+02	1.5385	-4.343697	0.000385	3.847622	0.651805	-0.000038
1857	1.8467e+02	1.5292	-4.379951	0.000364	3.642961	0.617134	-0.000036
1858	1.8477e+02	1.5179	-4.415390	0.000356	3.561097	0.603266	-0.000036
1859	1.8487e+02	1.5115	-4.456939	0.000418	4.175079	0.707278	-0.000042
1860	1.8497e+02	1.4967	-4.494414	0.000377	3.765758	0.637937	-0.000038
1861	1.8507e+02	1.4915	-4.535148	0.000409	4.093215	0.693409	-0.000041
1862	1.8517e+02	1.4771	-4.573031	0.000381	3.806690	0.644871	-0.000038
1863	1.8527e+02	1.4672	-4.613358	0.000405	4.052283	0.686475	-0.000041
1864	1.8537e+02	1.4590	-4.652056	0.000389	3.888554	0.658739	-0.000039
1865	1.8547e+02	1.4471	-4.692383	0.000405	4.052283	0.686475	-0.000041
1866	1.8557e+02	1.4375	-4.730265	0.000381	3.806690	0.644871	-0.000038
1867	1.8567e+02	1.4285	-4.767334	0.000372	3.724826	0.631003	-0.000037
1868	1.8577e+02	1.4187	-4.807660	0.000405	4.052283	0.686475	-0.000041
1869	1.8587e+02	1.4079	-4.849617	0.000422	4.216011	0.714212	-0.000042
1870	1.8597e+02	1.3969	-4.885870	0.000364	3.642961	0.617134	-0.000036
1871	1.8606e+02	1.3856	-4.926604	0.000409	4.093215	0.693409	-0.000041
1872	1.8616e+02	1.3783	-4.970597	0.000442	4.420672	0.748882	-0.000044
1873	1.8626e+02	1.3688	-5.014590	0.000442	4.420672	0.748882	-0.000044
1874	1.8636e+02	1.3592	-5.050844	0.000364	3.642961	0.617134	-0.000036
1875	1.8646e+02	1.3476	-5.090764	0.000401	4.011351	0.679541	-0.000040
1876	1.8656e+02	1.3380	-5.136793	0.000463	4.625333	0.783553	-0.000046
1877	1.8666e+02	1.3293	-5.179157	0.000426	4.256944	0.721146	-0.000043
1878	1.8676e+02	1.3187	-5.218262	0.000393	3.929486	0.665673	-0.000039
1879	1.8686e+02	1.3079	-5.260625	0.000426	4.256944	0.721146	-0.000043
1880	1.8696e+02	1.2981	-5.305433	0.000450	4.502536	0.762750	-0.000045
1881	1.8706e+02	1.2891	-5.341687	0.000364	3.642961	0.617134	-0.000036
1882	1.8716e+02	1.2759	-5.386087	0.000446	4.461604	0.755816	-0.000045
1883	1.8726e+02	1.2675	-5.431302	0.000454	4.543469	0.769684	-0.000045
1884	1.8736e+02	1.2583	-5.471221	0.000401	4.011351	0.679541	-0.000040
1885	1.8746e+02	1.2482	-5.510734	0.000397	3.970418	0.672607	-0.000040
1886	1.8756e+02	1.2403	-5.552283	0.000418	4.175079	0.707278	-0.000042
1887	1.8766e+02	1.2300	-5.597498	0.000454	4.543469	0.769684	-0.000045
1888	1.8776e+02	1.2244	-5.641898	0.000446	4.461604	0.755816	-0.000045
1889	1.8786e+02	1.2118	-5.683447	0.000418	4.175079	0.707278	-0.000042
1890	1.8796e+02	1.1989	-5.726218	0.000430	4.297876	0.728080	-0.000043
1891	1.8806e+02	1.1914	-5.765730	0.000397	3.970418	0.672607	-0.000040
1892	1.8815e+02	1.1816	-5.813797	0.000483	4.829994	0.818223	-0.000048
1893	1.8825e+02	1.1698	-5.853309	0.000397	3.970418	0.672607	-0.000040
1894	1.8835e+02	1.1611	-5.901375	0.000483	4.829994	0.818223	-0.000048
1895	1.8845e+02	1.1505	-5.945776	0.000446	4.461604	0.755816	-0.000045
1896	1.8855e+02	1.1407	-5.988954	0.000434	4.338808	0.735014	-0.000043
1897	1.8865e+02	1.1320	-6.035391	0.000467	4.666265	0.790487	-0.000047
1898	1.8875e+02	1.1192	-6.077347	0.000422	4.216011	0.714212	-0.000042
1899	1.8885e+02	1.1123	-6.122562	0.000454	4.543469	0.769684	-0.000045
1900	1.8895e+02	1.1015	-6.166555	0.000442	4.420672	0.748882	-0.000044
1901	1.8905e+02	1.0879	-6.208511	0.000422	4.216011	0.714212	-0.000042
1902	1.8915e+02	1.0795	-6.256171	0.000479	4.789061	0.811289	-0.000048
1903	1.8925e+02	1.0683	-6.298534	0.000426	4.256944	0.721146	-0.000043
1904	1.8935e+02	1.0587	-6.344157	0.000458	4.584401	0.776619	-0.000046
1905	1.8945e+02	1.0513	-6.388964	0.000450	4.502536	0.762750	-0.000045
1906	1.8955e+02	1.0406	-6.428884	0.000401	4.011351	0.679541	-0.000040
1907	1.8965e+02	1.0336	-6.478172	0.000495	4.952790	0.839025	-0.000050
1908	1.8975e+02	1.0226	-6.523387	0.000454	4.543469	0.769684	-0.000045
1909	1.8985e+02	1.0096	-6.566973	0.000438	4.379740	0.741948	-0.000044
1910	1.8995e+02	1.0024	-6.612595	0.000458	4.584401	0.776619	-0.000046
1911	1.9004e+02	0.9902	-6.661884	0.000495	4.952790	0.839025	-0.000050
1912	1.9014e+02	0.9800	-6.706284	0.000446	4.461604	0.755816	-0.000045
1913	1.9024e+02	0.9702	-6.753943	0.000479	4.789061	0.811289	-0.000048
1914	1.9034e+02	0.9618	-6.797529	0.000438	4.379740	0.741948	-0.000044
1915	1.9044e+02	0.9534	-6.839078	0.000418	4.175079	0.707278	-0.000042
1916	1.9054e+02	0.9422	-6.885922	0.000471	4.707197	0.797421	-0.000047
1917	1.9064e+02	0.9310	-6.930730	0.000450	4.502536	0.762750	-0.000045
1918	1.9074e+02	0.9194	-6.972686	0.000422	4.216011	0.714212	-0.000042
1919	1.9084e+02	0.9116	-7.019938	0.000475	4.748129	0.804355	-0.000047
1920	1.9094e+02	0.9008	-7.067190	0.000475	4.748129	0.804355	-0.000047
1921	1.9104e+02	0.8904	-7.114034	0.000471	4.707197	0.797421	-0.000047
1922	1.9114e+02	0.8834	-7.160878	0.000471	4.707197	0.797421	-0.000047
1923	1.9124e+02	0.8703	-7.206501	0.000458	4.584401	0.776619	-0.000046
1924	1.9134e+02	0.8608	-7.255789	0.000495	4.952790	0.839025	-0.000050
1925	1.9144e+02	0.8508	-7.307114	0.000516	5.157451	0.873696	-0.000052
1926	1.9154e+02	0.8414	-7.345812	0.000389	3.888554	0.658739	-0.000039
1927	1.9164e+02	0.8311	-7.399581	0.000540	5.403044	0.915300	-0.000054
1928	1.9174e+02	0.8232	-7.446426	0.000471	4.707197	0.797421	-0.000047
1929	1.9184e+02	0.8111	-7.493270	0.000471	4.707197	0.797421	-0.000047
1930	1.9194e+02	0.8006	-7.540522	0.000475	4.748129	0.804355	-0.000047
1931	1.9203e+02	0.7929	-7.588588	0.000483	4.829994	0.818223	-0.000048
1932	1.9213e+02	0.7856	-7.634210	0.000458	4.584401	0.776619	-0.000046
1933	1.9223e+02	0.7724	-7.682277	0.000483	4.829994	0.818223	-0.000048
1934	1.9233e+02	0.7590	-7.732380	0.000503	5.034654	0.852894	-0.000050
1935	1.9243e+02	0.7507	-7.780446	0.000483	4.829994	0.818223	-0.000048
1936	1.9253e+02	0.7433	-7.826883	0.000467	4.666265	0.790487	-0.000047
1937	1.9263e+02	0.7326	-7.875357	0.000487	4.870926	0.825157	-0.000049
1938	1.9273e+02	0.7214	-7.930756	0.000557	5.566772	0.943037	-0.000056
1939	1.9283e+02	0.7133	-7.976378	0.000458	4.584401	0.776619	-0.000046
1940	1.9293e+02	0.7019	-8.028518	0.000524	5.239315	0.887564	-0.000052
1941	1.9303e+02	0.6915	-8.077806	0.000495	4.952790	0.839025	-0.000050
1942	1.9313e+02	0.6817	-8.126688	0.000491	4.911858	0.832091	-0.000049
1943	1.9323e+02	0.6715	-8.171495	0.000450	4.502536	0.762750	-0.000045
1944	1.9333e+02	0.6612	-8.222006	0.000508	5.075586	0.859828	-0.000051
1945	1.9343e+02	0.6505	-8.272109	0.000503	5.034654	0.852894	-0.000050
1946	1.9353e+02	0.6416	-8.316102	0.000442	4.420672	0.748882	-0.000044
1947	1.9363e+02	0.6307	-8.362946	0.000471	4.707197	0.797421	-0.000047
1948	1.9373e+02	0.6216	-8.413049	0.000503	5.034654	0.852894	-0.000050
1949	1.9383e+02	0.6120	-8.464375	0.000516	5.157451	0.873696	-0.000052
1950	1.9393e+02	0.6025	-8.511219	0.000471	4.707197	0.797421	-0.000047
1951	1.9403e+02	0.5919	-8.557249	0.000463	4.625333	0.783553	-0.000046
1952	1.9412e+02	0.5827	-8.604908	0.000479	4.789061	0.811289	-0.000048
1953	1.9422e+02	0.5732	-8.650530	0.000458	4.584401	0.776619	-0.000046
1954	1.9432e+02	0.5616	-8.702263	0.000520	5.198383	0.880630	-0.000052
1955	1.9442e+02	0.5526	-8.746663	0.000446	4.461604	0.755816	-0.000045
1956	1.9452e+02	0.5454	-8.794322	0.000479	4.789061	0.811289	-0.000048
1957	1.9462e+02	0.5331	-8.841981	0.000479	4.789061	0.811289	-0.000048
1958	1.9472e+02	0.5231	-8.888825	0.000471	4.707197	0.797421	-0.000047
1959	1.9482e+02	0.5130	-8.931596	0.000430	4.297876	0.728080	-0.000043
1960	1.9492e+02	0.5016	-8.977626	0.000463	4.625333	0.783553	-0.000046
1961	1.9502e+02	0.4929	-9.023656	0.000463	4.625333	0.783553	-0.000046
1962	1.9512e+02	0.4875	-9.071722	0.000483	4.829994	0.818223	-0.000048
1963	1.9522e+02	0.4750	-9.117752	0.000463	4.625333	0.783553	-0.000046
1964	1.9532e+02	0.4614	-9.163374	0.000458	4.584401	0.776619	-0.000046
1965	1.9542e+02	0.4512	-9.210219	0.000471	4.707197	0.797421	-0.000047
1966	1.9552e+02	0.4427	-9.255434	0.000454	4.543469	0.769684	-0.000045
1967	1.9562e+02	0.4346	-9.302686	0.000475	4.748129	0.804355	-0.000047
1968	1.9572e+02	0.4213	-9.347086	0.000446	4.461604	0.755816	-0.000045
1969	1.9582e+02	0.4136	-9.391079	0.000442	4.420672	0.748882	-0.000044
1970	1.9592e+02	0.4025	-9.439145	0.000483	4.829994	0.818223	-0.000048
1971	1.9601e+02	0.3939	-9.483953	0.000450	4.502536	0.762750	-0.000045
1972	1.9611e+02	0.3823	-9.533649	0.000499	4.993722	0.845959	-0.000050
1973	1.9621e+02	0.3712	-9.577642	0.000442	4.420672	0.748882	-0.000044
1974	1.9631e+02	0.3636	-9.620820	0.000434	4.338808	0.735014	-0.000043
1975	1.9641e+02	0.3526	-9.668479	0.000479	4.789061	0.811289	-0.000048
1976	1.9651e+02	0.3453	-9.714101	0.000458	4.584401	0.776619	-0.000046
1977	1.9661e+02	0.3366	-9.762983	0.000491	4.911858	0.832091	-0.000049
1978	1.9671e+02	0.3233	-9.805754	0.000430	4.297876	0.728080	-0.000043
1979	1.9681e+02	0.3141	-9.851376	0.000458	4.584401	0.776619	-0.000046
1980	1.9691e+02	0.3030	-9.893332	0.000422	4.216011	0.714212	-0.000042
1981	1.9701e+02	0.2922	-9.940584	0.000475	4.748129	0.804355	-0.000047
1982	1.9711e+02	0.2838	-9.989465	0.000491	4.911858	0.832091	-0.000049
1983	1.9721e+02	0.2712	-10.033865	0.000446	4.461604	0.755816	-0.000045
1984	1.9731e+02	0.2640	-10.079488	0.000458	4.584401	0.776619	-0.000046
1985	1.9741e+02	0.2541	-10.123888	0.000446	4.461604	0.755816	-0.000045
1986	1.9751e+02	0.2438	-10.170325	0.000467	4.666265	0.790487	-0.000047
1987	1.9761e+02	0.2368	-10.215133	0.000450	4.502536	0.762750	-0.000045
1988	1.9771e+02	0.2254	-10.266051	0.000512	5.116519	0.866762	-0.000051
1989	1.9781e+02	0.2178	-10.305156	0.000393	3.929486	0.665673	-0.000039
1990	1.9791e+02	0.2032	-10.355666	0.000508	5.075586	0.859828	-0.000051
1991	1.9800e+02	0.1953	-10.398030	0.000426	4.256944	0.721146	-0.000043
1992	1.9810e+02	0.1838	-10.446096	0.000483	4.829994	0.818223	-0.000048
1993	1.9820e+02	0.1771	-10.492940	0.000471	4.707197	0.797421	-0.000047
1994	1.9830e+02	0.1656	-10.536119	0.000434	4.338808	0.735014	-0.000043
1995	1.9840e+02	0.1555	-10.584185	0.000483	4.829994	0.818223	-0.000048
1996	1.9850e+02	0.1449	-10.630622	0.000467	4.666265	0.790487	-0.000047
1997	1.9860e+02	0.1369	-10.672171	0.000418	4.175079	0.707278	-0.000042
1998	1.9870e+02	0.1234	-10.720238	0.000483	4.829994	0.818223	-0.000048
1999	1.9880e+02	0.1128	-10.765860	0.000458	4.584401	0.776619	-0.000046
2000	1.9890e+02	0.1045	-10.813112	0.000475	4.748129	0.804355	-0.000047
2001	1.9900e+02	0.0955	-10.856697	0.000438	4.379740	0.741948	-0.000044
2002	1.9910e+02	0.0835	-10.907615	0.000512	5.116519	0.866762	-0.000051
2003	1.9920e+02	0.0745	-10.953238	0.000458	4.584401	0.776619	-0.000046
2004	1.9930e+02	0.0616	-10.996009	0.000430	4.297876	0.728080	-0.000043
2005	1.9940e+02	0.0562	-11.044890	0.000491	4.911858	0.832091	-0.000049
2006	1.9950e+02	0.0436	-11.088475	0.000438	4.379740	0.741948	-0.000044
2007	1.9960e+02	0.0371	-11.134098	0.000458	4.584401	0.776619	-0.000046
2008	1.9970e+02	0.0256	-11.176054	0.000422	4.216011	0.714212	-0.000042
2009	1.9980e+02	0.0150	-11.221676	0.000458	4.584401	0.776619	-0.000046
2010	1.9990e+02	0.0055	-11.266484	0.000450	4.502536	0.762750	-0.000045
2011	2.0000e+02	-0.0047	-11.309662	0.000450	4.502536	0.762750	-0.000043

PMax (uC/cm2):	3.51e+01
Pr (uC/cm2):	6.34e+00
-Pr (uC/cm2):	0.00e+00
PLoss (uC/cm2):	0.00e+00
C (Max-Eff) (nF):	3.51e-01
K (Eff):	5.95e+02
Vert. (+/-Pr) Shift (uC/cm2):	3.17e+00
Offset (uC/cm2):	1.77e+01

A (Loop Area - uC/cm2·Volts):	-5.98e-02



Hysteresis Version: 5.48.1 - Radiant Technologies, Inc., 1999 - 9/12/24

