»»»»»»»»»»»»»»»»»»»»»»»»»»»»»»»»»»»» Hysteresis ««««««««««««««««««««««««««««««««««««
»»»  Executed Version:	5.48.1
»»»  Vision Version:	5.48.4 (R)
»»»  Vision Compiled:	9/18/24
»»»  Driver Version:	5.47.0
»»»  Windows Version:	Windows 8 or 8.1
»»»  Processor Information:	x86 (AMD or Intel) - 32 Processors
»»»  Tester Name:	PMF21124-494 (100V)
»»»  Tester S/N:	PMF21124-494
»»»  Internal Amp Type:	100V RevK 270k
»»»  Internal Amp S/N:	iAB2-596/K     
»»»  Execution Count:	1
»»»»»»»»»»»»»»»»»»»»»»»»»»»»»»»»»»»»»»»»»»««««««««««««««««««««««««««««««««««««««««««

Stored:	6/30/2025 - 15:52:3
Configured:	06/30/25 10:19:58 AM
Executed:	06/30/25 03:51:34 PM

»»»»»»»»»»»»»»»»»»»»»»»»»»»»»»»»»»» Sample Info ««««««««««««««««««««««««««««««««««««
Sample Name:	
Lot Name:	
Wafer Name:	
Die Row/Column:	0/0
Capacitor Number:	0
Sample Area (cm2):	1.00e-04
Sample Thickness (microns):	1.50e-01

Amplifier:	Internal

»»»»»»»»»»»»»»»»»»»»»»»»»»»»»»»»»»» Tester Info «««««««««««««««««««««««««««««««««««
Tester Name:	PMF21124-494 (100V)
Tester Serial Number:	PMF21124-494
Return Signal Amp. Level:	1.9 [Index: 2]

»»»»»»»»»»»»»»»»»»»»»»»»»»»»»»»» Hysteresis Info ««««««««««««««««««««««««««««««««««
Task Name:	Hyst-1804
Volts:	10.00
Field:	666.67 (kV/cm)
DCBias:	0.00
DCField:	0.00 (kV/cm)
Hysteresis Period (ms):	2.00e+02
Preset:	Enabled
Preset Delay (ms):	1.00e+03
Profile:	Standard Monopolar

»»»»»»»»»»»»»»»»»»»»»»»»»»»»»»»»»»»»»» Data «««««««««««««««««««««««««««««««««««««««
Points:	2011

Valid Data

Point	Time (ms)	Drive Voltage	Measured Polarization (uC/cm2)	Capacitance (uF)	Normalized Capacitance (uF/cm2)	Dielectric Constant	Instantaneous Current (mA)
   1	0.0000e+00	-0.0027	-22.064931	0.000496	4.955171	0.839429	0.000050
   2	9.9500e-02	0.0060	-22.015643	0.000496	4.955171	0.839429	0.000050
   3	1.9900e-01	0.0151	-21.959837	0.000561	5.610401	0.950428	0.000056
   4	2.9850e-01	0.0241	-21.908512	0.000516	5.159931	0.874116	0.000052
   5	3.9800e-01	0.0336	-21.859631	0.000491	4.914220	0.832491	0.000049
   6	4.9750e-01	0.0436	-21.803417	0.000565	5.651353	0.957365	0.000056
   7	5.9700e-01	0.0549	-21.751278	0.000524	5.241834	0.887991	0.000052
   8	6.9650e-01	0.0624	-21.701174	0.000504	5.037075	0.853304	0.000050
   9	7.9600e-01	0.0746	-21.644961	0.000565	5.651353	0.957365	0.000056
  10	8.9550e-01	0.0832	-21.592821	0.000524	5.241834	0.887991	0.000052
  11	9.9500e-01	0.0957	-21.537423	0.000557	5.569449	0.943490	0.000056
  12	1.0945e+00	0.1035	-21.486505	0.000512	5.118979	0.867178	0.000051
  13	1.1940e+00	0.1166	-21.430292	0.000565	5.651353	0.957365	0.000056
  14	1.2935e+00	0.1256	-21.374893	0.000557	5.569449	0.943490	0.000056
  15	1.3930e+00	0.1333	-21.320716	0.000545	5.446593	0.922678	0.000054
  16	1.4925e+00	0.1450	-21.264911	0.000561	5.610401	0.950428	0.000056
  17	1.5920e+00	0.1530	-21.211956	0.000532	5.323738	0.901866	0.000053
  18	1.6915e+00	0.1620	-21.159409	0.000528	5.282786	0.894928	0.000053
  19	1.7910e+00	0.1766	-21.107269	0.000524	5.241834	0.887991	0.000052
  20	1.8905e+00	0.1853	-21.049019	0.000586	5.856112	0.992052	0.000059
  21	1.9900e+00	0.1954	-21.001767	0.000475	4.750412	0.804742	0.000047
  22	2.0895e+00	0.2039	-20.946369	0.000557	5.569449	0.943490	0.000056
  23	2.1890e+00	0.2122	-20.892599	0.000541	5.405642	0.915740	0.000054
  24	2.2885e+00	0.2250	-20.834349	0.000586	5.856112	0.992052	0.000059
  25	2.3880e+00	0.2344	-20.783839	0.000508	5.078027	0.860241	0.000051
  26	2.4875e+00	0.2441	-20.729255	0.000549	5.487545	0.929615	0.000055
  27	2.5870e+00	0.2544	-20.679559	0.000500	4.996123	0.846366	0.000050
  28	2.6865e+00	0.2633	-20.620902	0.000590	5.897064	0.998990	0.000059
  29	2.7860e+00	0.2742	-20.568762	0.000524	5.241834	0.887991	0.000052
  30	2.8855e+00	0.2855	-20.510919	0.000582	5.815160	0.985115	0.000058
  31	2.9850e+00	0.2920	-20.455521	0.000557	5.569449	0.943490	0.000056
  32	3.0845e+00	0.3019	-20.406232	0.000496	4.955171	0.839429	0.000050
  33	3.1840e+00	0.3147	-20.351649	0.000549	5.487545	0.929615	0.000055
  34	3.2835e+00	0.3240	-20.295435	0.000565	5.651353	0.957365	0.000056
  35	3.3830e+00	0.3335	-20.242888	0.000528	5.282786	0.894928	0.000053
  36	3.4825e+00	0.3448	-20.186267	0.000569	5.692304	0.964302	0.000057
  37	3.5820e+00	0.3534	-20.133313	0.000532	5.323738	0.901866	0.000053
  38	3.6815e+00	0.3655	-20.082802	0.000508	5.078027	0.860241	0.000051
  39	3.7810e+00	0.3753	-20.026182	0.000569	5.692304	0.964302	0.000057
  40	3.8805e+00	0.3823	-19.973227	0.000532	5.323738	0.901866	0.000053
  41	3.9800e+00	0.3939	-19.920680	0.000528	5.282786	0.894928	0.000053
  42	4.0795e+00	0.4025	-19.864467	0.000565	5.651353	0.957365	0.000056
  43	4.1790e+00	0.4124	-19.809883	0.000549	5.487545	0.929615	0.000055
  44	4.2785e+00	0.4208	-19.758150	0.000520	5.200882	0.881053	0.000052
  45	4.3780e+00	0.4327	-19.705196	0.000532	5.323738	0.901866	0.000053
  46	4.4775e+00	0.4430	-19.649390	0.000561	5.610401	0.950428	0.000056
  47	4.5770e+00	0.4528	-19.594399	0.000553	5.528497	0.936553	0.000055
  48	4.6765e+00	0.4626	-19.541037	0.000536	5.364690	0.908803	0.000054
  49	4.7760e+00	0.4732	-19.488897	0.000524	5.241834	0.887991	0.000052
  50	4.8755e+00	0.4822	-19.425759	0.000635	6.347534	1.075301	0.000063
  51	4.9750e+00	0.4905	-19.376878	0.000491	4.914220	0.832491	0.000049
  52	5.0745e+00	0.5044	-19.323109	0.000541	5.405642	0.915740	0.000054
  53	5.1740e+00	0.5137	-19.273413	0.000500	4.996123	0.846366	0.000050
  54	5.2735e+00	0.5235	-19.217200	0.000565	5.651353	0.957365	0.000056
  55	5.3730e+00	0.5324	-19.165467	0.000520	5.200882	0.881053	0.000052
  56	5.4725e+00	0.5432	-19.106810	0.000590	5.897064	0.998990	0.000059
  57	5.5720e+00	0.5515	-19.056299	0.000508	5.078027	0.860241	0.000051
  58	5.6715e+00	0.5645	-19.003345	0.000532	5.323738	0.901866	0.000053
  59	5.7710e+00	0.5756	-18.949168	0.000545	5.446593	0.922678	0.000054
  60	5.8705e+00	0.5817	-18.891733	0.000577	5.774208	0.978177	0.000058
  61	5.9700e+00	0.5939	-18.842444	0.000496	4.955171	0.839429	0.000050
  62	6.0695e+00	0.6016	-18.782158	0.000606	6.060871	1.026739	0.000061
  63	6.1690e+00	0.6134	-18.731240	0.000512	5.118979	0.867178	0.000051
  64	6.2685e+00	0.6243	-18.678285	0.000532	5.323738	0.901866	0.000053
  65	6.3680e+00	0.6358	-18.621257	0.000573	5.733256	0.971240	0.000057
  66	6.4675e+00	0.6429	-18.567488	0.000541	5.405642	0.915740	0.000054
  67	6.5670e+00	0.6525	-18.515756	0.000520	5.200882	0.881053	0.000052
  68	6.6665e+00	0.6629	-18.458728	0.000573	5.733256	0.971240	0.000057
  69	6.7660e+00	0.6726	-18.408217	0.000508	5.078027	0.860241	0.000051
  70	6.8655e+00	0.6837	-18.354041	0.000545	5.446593	0.922678	0.000054
  71	6.9650e+00	0.6917	-18.300679	0.000536	5.364690	0.908803	0.000054
  72	7.0645e+00	0.7036	-18.244058	0.000569	5.692304	0.964302	0.000057
  73	7.1640e+00	0.7134	-18.189882	0.000545	5.446593	0.922678	0.000054
  74	7.2635e+00	0.7198	-18.141408	0.000487	4.873268	0.825554	0.000049
  75	7.3630e+00	0.7298	-18.084787	0.000569	5.692304	0.964302	0.000057
  76	7.4625e+00	0.7404	-18.028167	0.000569	5.692304	0.964302	0.000057
  77	7.5620e+00	0.7527	-17.978471	0.000500	4.996123	0.846366	0.000050
  78	7.6615e+00	0.7634	-17.921443	0.000573	5.733256	0.971240	0.000057
  79	7.7610e+00	0.7699	-17.864008	0.000577	5.774208	0.978177	0.000058
  80	7.8605e+00	0.7808	-17.809016	0.000553	5.528497	0.936553	0.000055
  81	7.9600e+00	0.7932	-17.758913	0.000504	5.037075	0.853304	0.000050
  82	8.0595e+00	0.8003	-17.701885	0.000573	5.733256	0.971240	0.000057
  83	8.1590e+00	0.8118	-17.646079	0.000561	5.610401	0.950428	0.000056
  84	8.2585e+00	0.8212	-17.599235	0.000471	4.709460	0.797804	0.000047
  85	8.3580e+00	0.8302	-17.540985	0.000586	5.856112	0.992052	0.000059
  86	8.4575e+00	0.8422	-17.490067	0.000512	5.118979	0.867178	0.000051
  87	8.5570e+00	0.8525	-17.435891	0.000545	5.446593	0.922678	0.000054
  88	8.6565e+00	0.8600	-17.384565	0.000516	5.159931	0.874116	0.000052
  89	8.7560e+00	0.8717	-17.327537	0.000573	5.733256	0.971240	0.000057
  90	8.8555e+00	0.8849	-17.270509	0.000573	5.733256	0.971240	0.000057
  91	8.9550e+00	0.8886	-17.217555	0.000532	5.323738	0.901866	0.000053
  92	9.0545e+00	0.9007	-17.165415	0.000524	5.241834	0.887991	0.000052
  93	9.1540e+00	0.9108	-17.109609	0.000561	5.610401	0.950428	0.000056
  94	9.2535e+00	0.9223	-17.059099	0.000508	5.078027	0.860241	0.000051
  95	9.3530e+00	0.9311	-17.006144	0.000532	5.323738	0.901866	0.000053
  96	9.4525e+00	0.9393	-16.949524	0.000569	5.692304	0.964302	0.000057
  97	9.5520e+00	0.9493	-16.896569	0.000532	5.323738	0.901866	0.000053
  98	9.6515e+00	0.9621	-16.847281	0.000496	4.955171	0.839429	0.000050
  99	9.7510e+00	0.9697	-16.797177	0.000504	5.037075	0.853304	0.000050
 100	9.8505e+00	0.9820	-16.742594	0.000549	5.487545	0.929615	0.000055
 101	9.9500e+00	0.9901	-16.691268	0.000516	5.159931	0.874116	0.000052
 102	1.0050e+01	1.0024	-16.635870	0.000557	5.569449	0.943490	0.000056
 103	1.0149e+01	1.0136	-16.579249	0.000569	5.692304	0.964302	0.000057
 104	1.0248e+01	1.0201	-16.526702	0.000528	5.282786	0.894928	0.000053
 105	1.0348e+01	1.0306	-16.473747	0.000532	5.323738	0.901866	0.000053
 106	1.0447e+01	1.0403	-16.417534	0.000565	5.651353	0.957365	0.000056
 107	1.0547e+01	1.0509	-16.367024	0.000508	5.078027	0.860241	0.000051
 108	1.0646e+01	1.0581	-16.314069	0.000532	5.323738	0.901866	0.000053
 109	1.0746e+01	1.0672	-16.261929	0.000524	5.241834	0.887991	0.000052
 110	1.0845e+01	1.0807	-16.204087	0.000582	5.815160	0.985115	0.000058
 111	1.0945e+01	1.0902	-16.152762	0.000516	5.159931	0.874116	0.000052
 112	1.1044e+01	1.1008	-16.101844	0.000512	5.118979	0.867178	0.000051
 113	1.1144e+01	1.1081	-16.049704	0.000524	5.241834	0.887991	0.000052
 114	1.1243e+01	1.1221	-15.994305	0.000557	5.569449	0.943490	0.000056
 115	1.1343e+01	1.1288	-15.941351	0.000532	5.323738	0.901866	0.000053
 116	1.1443e+01	1.1409	-15.886767	0.000549	5.487545	0.929615	0.000055
 117	1.1542e+01	1.1500	-15.834627	0.000524	5.241834	0.887991	0.000052
 118	1.1642e+01	1.1591	-15.782487	0.000524	5.241834	0.887991	0.000052
 119	1.1741e+01	1.1703	-15.728311	0.000545	5.446593	0.922678	0.000054
 120	1.1841e+01	1.1797	-15.676578	0.000520	5.200882	0.881053	0.000052
 121	1.1940e+01	1.1893	-15.623624	0.000532	5.323738	0.901866	0.000053
 122	1.2040e+01	1.2003	-15.571076	0.000528	5.282786	0.894928	0.000053
 123	1.2139e+01	1.2091	-15.519751	0.000516	5.159931	0.874116	0.000052
 124	1.2239e+01	1.2180	-15.464353	0.000557	5.569449	0.943490	0.000056
 125	1.2338e+01	1.2302	-15.410176	0.000545	5.446593	0.922678	0.000054
 126	1.2438e+01	1.2386	-15.356814	0.000536	5.364690	0.908803	0.000054
 127	1.2537e+01	1.2512	-15.301416	0.000557	5.569449	0.943490	0.000056
 128	1.2636e+01	1.2596	-15.250090	0.000516	5.159931	0.874116	0.000052
 129	1.2736e+01	1.2673	-15.201617	0.000487	4.873268	0.825554	0.000049
 130	1.2835e+01	1.2772	-15.148662	0.000532	5.323738	0.901866	0.000053
 131	1.2935e+01	1.2909	-15.095708	0.000532	5.323738	0.901866	0.000053
 132	1.3034e+01	1.2989	-15.044790	0.000512	5.118979	0.867178	0.000051
 133	1.3134e+01	1.3087	-14.993465	0.000516	5.159931	0.874116	0.000052
 134	1.3233e+01	1.3177	-14.943362	0.000504	5.037075	0.853304	0.000050
 135	1.3333e+01	1.3279	-14.885519	0.000582	5.815160	0.985115	0.000058
 136	1.3432e+01	1.3386	-14.832972	0.000528	5.282786	0.894928	0.000053
 137	1.3532e+01	1.3485	-14.782461	0.000508	5.078027	0.860241	0.000051
 138	1.3632e+01	1.3584	-14.727877	0.000549	5.487545	0.929615	0.000055
 139	1.3731e+01	1.3688	-14.672479	0.000557	5.569449	0.943490	0.000056
 140	1.3831e+01	1.3772	-14.622376	0.000504	5.037075	0.853304	0.000050
 141	1.3930e+01	1.3873	-14.569014	0.000536	5.364690	0.908803	0.000054
 142	1.4030e+01	1.4006	-14.515652	0.000536	5.364690	0.908803	0.000054
 143	1.4129e+01	1.4075	-14.465549	0.000504	5.037075	0.853304	0.000050
 144	1.4229e+01	1.4190	-14.413409	0.000524	5.241834	0.887991	0.000052
 145	1.4328e+01	1.4279	-14.360454	0.000532	5.323738	0.901866	0.000053
 146	1.4428e+01	1.4385	-14.305463	0.000553	5.528497	0.936553	0.000055
 147	1.4527e+01	1.4530	-14.254545	0.000512	5.118979	0.867178	0.000051
 148	1.4627e+01	1.4593	-14.200776	0.000541	5.405642	0.915740	0.000054
 149	1.4726e+01	1.4695	-14.149858	0.000512	5.118979	0.867178	0.000051
 150	1.4825e+01	1.4774	-14.097311	0.000528	5.282786	0.894928	0.000053
 151	1.4925e+01	1.4896	-14.044764	0.000528	5.282786	0.894928	0.000053
 152	1.5024e+01	1.4983	-13.991809	0.000532	5.323738	0.901866	0.000053
 153	1.5124e+01	1.5108	-13.938855	0.000532	5.323738	0.901866	0.000053
 154	1.5223e+01	1.5180	-13.890381	0.000487	4.873268	0.825554	0.000049
 155	1.5323e+01	1.5263	-13.837019	0.000536	5.364690	0.908803	0.000054
 156	1.5422e+01	1.5392	-13.784472	0.000528	5.282786	0.894928	0.000053
 157	1.5522e+01	1.5486	-13.732739	0.000520	5.200882	0.881053	0.000052
 158	1.5621e+01	1.5571	-13.678970	0.000541	5.405642	0.915740	0.000054
 159	1.5721e+01	1.5662	-13.630496	0.000487	4.873268	0.825554	0.000049
 160	1.5820e+01	1.5760	-13.577949	0.000528	5.282786	0.894928	0.000053
 161	1.5920e+01	1.5873	-13.524180	0.000541	5.405642	0.915740	0.000054
 162	1.6020e+01	1.5961	-13.472855	0.000516	5.159931	0.874116	0.000052
 163	1.6119e+01	1.6082	-13.425603	0.000475	4.750412	0.804742	0.000047
 164	1.6218e+01	1.6183	-13.374685	0.000512	5.118979	0.867178	0.000051
 165	1.6318e+01	1.6243	-13.320916	0.000541	5.405642	0.915740	0.000054
 166	1.6418e+01	1.6412	-13.268776	0.000524	5.241834	0.887991	0.000052
 167	1.6517e+01	1.6476	-13.217451	0.000516	5.159931	0.874116	0.000052
 168	1.6616e+01	1.6569	-13.164497	0.000532	5.323738	0.901866	0.000053
 169	1.6716e+01	1.6671	-13.112357	0.000524	5.241834	0.887991	0.000052
 170	1.6816e+01	1.6753	-13.061846	0.000508	5.078027	0.860241	0.000051
 171	1.6915e+01	1.6882	-13.007670	0.000545	5.446593	0.922678	0.000054
 172	1.7015e+01	1.6973	-12.956752	0.000512	5.118979	0.867178	0.000051
 173	1.7114e+01	1.7075	-12.904612	0.000524	5.241834	0.887991	0.000052
 174	1.7213e+01	1.7177	-12.854102	0.000508	5.078027	0.860241	0.000051
 175	1.7313e+01	1.7277	-12.804406	0.000500	4.996123	0.846366	0.000050
 176	1.7413e+01	1.7382	-12.755117	0.000496	4.955171	0.839429	0.000050
 177	1.7512e+01	1.7480	-12.701755	0.000536	5.364690	0.908803	0.000054
 178	1.7611e+01	1.7571	-12.647579	0.000545	5.446593	0.922678	0.000054
 179	1.7711e+01	1.7664	-12.597476	0.000504	5.037075	0.853304	0.000050
 180	1.7811e+01	1.7774	-12.543707	0.000541	5.405642	0.915740	0.000054
 181	1.7910e+01	1.7863	-12.494011	0.000500	4.996123	0.846366	0.000050
 182	1.8009e+01	1.7970	-12.440649	0.000536	5.364690	0.908803	0.000054
 183	1.8109e+01	1.8064	-12.387287	0.000536	5.364690	0.908803	0.000054
 184	1.8209e+01	1.8145	-12.335554	0.000520	5.200882	0.881053	0.000052
 185	1.8308e+01	1.8260	-12.285451	0.000504	5.037075	0.853304	0.000050
 186	1.8407e+01	1.8395	-12.231275	0.000545	5.446593	0.922678	0.000054
 187	1.8507e+01	1.8478	-12.184838	0.000467	4.668509	0.790867	0.000047
 188	1.8607e+01	1.8571	-12.128624	0.000565	5.651353	0.957365	0.000056
 189	1.8706e+01	1.8649	-12.081373	0.000475	4.750412	0.804742	0.000047
 190	1.8805e+01	1.8763	-12.028418	0.000532	5.323738	0.901866	0.000053
 191	1.8905e+01	1.8864	-11.977908	0.000508	5.078027	0.860241	0.000051
 192	1.9005e+01	1.8941	-11.926175	0.000520	5.200882	0.881053	0.000052
 193	1.9104e+01	1.9089	-11.876887	0.000496	4.955171	0.839429	0.000050
 194	1.9203e+01	1.9159	-11.826376	0.000508	5.078027	0.860241	0.000051
 195	1.9303e+01	1.9237	-11.774236	0.000524	5.241834	0.887991	0.000052
 196	1.9402e+01	1.9327	-11.723319	0.000512	5.118979	0.867178	0.000051
 197	1.9502e+01	1.9460	-11.673623	0.000500	4.996123	0.846366	0.000050
 198	1.9602e+01	1.9516	-11.625964	0.000479	4.791364	0.811679	0.000048
 199	1.9701e+01	1.9661	-11.575046	0.000512	5.118979	0.867178	0.000051
 200	1.9800e+01	1.9773	-11.521684	0.000536	5.364690	0.908803	0.000054
 201	1.9900e+01	1.9843	-11.470359	0.000516	5.159931	0.874116	0.000052
 202	2.0000e+01	1.9955	-11.425959	0.000446	4.463749	0.756180	0.000045
 203	2.0099e+01	2.0061	-11.370967	0.000553	5.528497	0.936553	0.000055
 204	2.0198e+01	2.0135	-11.318013	0.000532	5.323738	0.901866	0.000053
 205	2.0298e+01	2.0242	-11.267910	0.000504	5.037075	0.853304	0.000050
 206	2.0398e+01	2.0338	-11.217399	0.000508	5.078027	0.860241	0.000051
 207	2.0497e+01	2.0445	-11.170147	0.000475	4.750412	0.804742	0.000047
 208	2.0596e+01	2.0558	-11.118822	0.000516	5.159931	0.874116	0.000052
 209	2.0696e+01	2.0649	-11.070756	0.000483	4.832316	0.818616	0.000048
 210	2.0796e+01	2.0750	-11.017394	0.000536	5.364690	0.908803	0.000054
 211	2.0895e+01	2.0850	-10.966069	0.000516	5.159931	0.874116	0.000052
 212	2.0994e+01	2.0956	-10.918817	0.000475	4.750412	0.804742	0.000047
 213	2.1094e+01	2.1053	-10.868714	0.000504	5.037075	0.853304	0.000050
 214	2.1194e+01	2.1147	-10.816574	0.000524	5.241834	0.887991	0.000052
 215	2.1293e+01	2.1236	-10.767286	0.000496	4.955171	0.839429	0.000050
 216	2.1392e+01	2.1357	-10.716368	0.000512	5.118979	0.867178	0.000051
 217	2.1492e+01	2.1447	-10.665857	0.000508	5.078027	0.860241	0.000051
 218	2.1591e+01	2.1538	-10.617384	0.000487	4.873268	0.825554	0.000049
 219	2.1691e+01	2.1644	-10.566058	0.000516	5.159931	0.874116	0.000052
 220	2.1791e+01	2.1739	-10.517177	0.000491	4.914220	0.832491	0.000049
 221	2.1890e+01	2.1860	-10.465445	0.000520	5.200882	0.881053	0.000052
 222	2.1989e+01	2.1932	-10.419415	0.000463	4.627557	0.783929	0.000046
 223	2.2089e+01	2.2034	-10.367683	0.000520	5.200882	0.881053	0.000052
 224	2.2189e+01	2.2150	-10.317579	0.000504	5.037075	0.853304	0.000050
 225	2.2288e+01	2.2240	-10.271142	0.000467	4.668509	0.790867	0.000047
 226	2.2387e+01	2.2326	-10.219003	0.000524	5.241834	0.887991	0.000052
 227	2.2487e+01	2.2441	-10.170936	0.000483	4.832316	0.818616	0.000048
 228	2.2587e+01	2.2547	-10.118389	0.000528	5.282786	0.894928	0.000053
 229	2.2686e+01	2.2635	-10.071137	0.000475	4.750412	0.804742	0.000047
 230	2.2785e+01	2.2721	-10.021034	0.000504	5.037075	0.853304	0.000050
 231	2.2885e+01	2.2845	-9.969302	0.000520	5.200882	0.881053	0.000052
 232	2.2985e+01	2.2933	-9.925309	0.000442	4.422798	0.749242	0.000044
 233	2.3084e+01	2.3035	-9.875613	0.000500	4.996123	0.846366	0.000050
 234	2.3183e+01	2.3120	-9.825102	0.000508	5.078027	0.860241	0.000051
 235	2.3283e+01	2.3229	-9.776221	0.000491	4.914220	0.832491	0.000049
 236	2.3383e+01	2.3365	-9.728155	0.000483	4.832316	0.818616	0.000048
 237	2.3482e+01	2.3467	-9.678459	0.000500	4.996123	0.846366	0.000050
 238	2.3581e+01	2.3540	-9.625912	0.000528	5.282786	0.894928	0.000053
 239	2.3681e+01	2.3619	-9.580289	0.000459	4.586605	0.776992	0.000046
 240	2.3780e+01	2.3719	-9.529372	0.000512	5.118979	0.867178	0.000051
 241	2.3880e+01	2.3833	-9.480491	0.000491	4.914220	0.832491	0.000049
 242	2.3980e+01	2.3948	-9.431609	0.000491	4.914220	0.832491	0.000049
 243	2.4079e+01	2.4029	-9.382728	0.000491	4.914220	0.832491	0.000049
 244	2.4178e+01	2.4109	-9.334255	0.000487	4.873268	0.825554	0.000049
 245	2.4278e+01	2.4271	-9.283744	0.000508	5.078027	0.860241	0.000051
 246	2.4378e+01	2.4319	-9.234048	0.000500	4.996123	0.846366	0.000050
 247	2.4477e+01	2.4434	-9.185575	0.000487	4.873268	0.825554	0.000049
 248	2.4576e+01	2.4526	-9.133842	0.000520	5.200882	0.881053	0.000052
 249	2.4676e+01	2.4628	-9.083739	0.000504	5.037075	0.853304	0.000050
 250	2.4776e+01	2.4708	-9.038931	0.000450	4.504701	0.763117	0.000045
 251	2.4875e+01	2.4845	-8.989235	0.000500	4.996123	0.846366	0.000050
 252	2.4974e+01	2.4921	-8.941576	0.000479	4.791364	0.811679	0.000048
 253	2.5074e+01	2.5037	-8.895547	0.000463	4.627557	0.783929	0.000046
 254	2.5174e+01	2.5137	-8.846666	0.000491	4.914220	0.832491	0.000049
 255	2.5273e+01	2.5222	-8.798192	0.000487	4.873268	0.825554	0.000049
 256	2.5372e+01	2.5332	-8.749718	0.000487	4.873268	0.825554	0.000049
 257	2.5472e+01	2.5428	-8.701244	0.000487	4.873268	0.825554	0.000049
 258	2.5572e+01	2.5534	-8.650326	0.000512	5.118979	0.867178	0.000051
 259	2.5671e+01	2.5622	-8.603889	0.000467	4.668509	0.790867	0.000047
 260	2.5770e+01	2.5733	-8.552972	0.000512	5.118979	0.867178	0.000051
 261	2.5870e+01	2.5852	-8.508571	0.000446	4.463749	0.756180	0.000045
 262	2.5970e+01	2.5921	-8.457246	0.000516	5.159931	0.874116	0.000052
 263	2.6069e+01	2.6035	-8.412031	0.000455	4.545653	0.770054	0.000045
 264	2.6169e+01	2.6138	-8.366816	0.000455	4.545653	0.770054	0.000045
 265	2.6268e+01	2.6208	-8.318750	0.000483	4.832316	0.818616	0.000048
 266	2.6367e+01	2.6319	-8.270683	0.000483	4.832316	0.818616	0.000048
 267	2.6467e+01	2.6432	-8.222617	0.000483	4.832316	0.818616	0.000048
 268	2.6567e+01	2.6520	-8.175772	0.000471	4.709460	0.797804	0.000047
 269	2.6666e+01	2.6618	-8.128521	0.000475	4.750412	0.804742	0.000047
 270	2.6765e+01	2.6746	-8.084528	0.000442	4.422798	0.749242	0.000044
 271	2.6865e+01	2.6812	-8.029536	0.000553	5.528497	0.936553	0.000055
 272	2.6965e+01	2.6910	-7.988802	0.000410	4.095183	0.693743	0.000041
 273	2.7064e+01	2.7039	-7.938292	0.000508	5.078027	0.860241	0.000051
 274	2.7163e+01	2.7112	-7.890633	0.000479	4.791364	0.811679	0.000048
 275	2.7263e+01	2.7228	-7.840937	0.000500	4.996123	0.846366	0.000050
 276	2.7363e+01	2.7310	-7.794500	0.000467	4.668509	0.790867	0.000047
 277	2.7462e+01	2.7393	-7.749285	0.000455	4.545653	0.770054	0.000045
 278	2.7561e+01	2.7548	-7.702848	0.000467	4.668509	0.790867	0.000047
 279	2.7661e+01	2.7614	-7.651930	0.000512	5.118979	0.867178	0.000051
 280	2.7761e+01	2.7712	-7.608752	0.000434	4.340894	0.735367	0.000043
 281	2.7860e+01	2.7843	-7.559463	0.000496	4.955171	0.839429	0.000050
 282	2.7959e+01	2.7924	-7.512619	0.000471	4.709460	0.797804	0.000047
 283	2.8059e+01	2.8016	-7.462108	0.000508	5.078027	0.860241	0.000051
 284	2.8159e+01	2.8136	-7.420559	0.000418	4.177087	0.707618	0.000042
 285	2.8258e+01	2.8209	-7.371678	0.000491	4.914220	0.832491	0.000049
 286	2.8358e+01	2.8310	-7.324019	0.000479	4.791364	0.811679	0.000048
 287	2.8457e+01	2.8424	-7.278397	0.000459	4.586605	0.776992	0.000046
 288	2.8556e+01	2.8518	-7.229923	0.000487	4.873268	0.825554	0.000049
 289	2.8656e+01	2.8641	-7.188781	0.000414	4.136135	0.700680	0.000041
 290	2.8756e+01	2.8712	-7.139493	0.000496	4.955171	0.839429	0.000050
 291	2.8855e+01	2.8819	-7.090204	0.000496	4.955171	0.839429	0.000050
 292	2.8954e+01	2.8903	-7.048248	0.000422	4.218038	0.714555	0.000042
 293	2.9054e+01	2.9025	-6.995701	0.000528	5.282786	0.894928	0.000053
 294	2.9154e+01	2.9114	-6.954152	0.000418	4.177087	0.707618	0.000042
 295	2.9253e+01	2.9200	-6.903642	0.000508	5.078027	0.860241	0.000051
 296	2.9352e+01	2.9289	-6.857612	0.000463	4.627557	0.783929	0.000046
 297	2.9452e+01	2.9398	-6.811175	0.000467	4.668509	0.790867	0.000047
 298	2.9552e+01	2.9523	-6.763923	0.000475	4.750412	0.804742	0.000047
 299	2.9651e+01	2.9585	-6.717893	0.000463	4.627557	0.783929	0.000046
 300	2.9750e+01	2.9710	-6.671049	0.000471	4.709460	0.797804	0.000047
 301	2.9850e+01	2.9823	-6.624612	0.000467	4.668509	0.790867	0.000047
 302	2.9950e+01	2.9888	-6.583063	0.000418	4.177087	0.707618	0.000042
 303	3.0049e+01	3.0015	-6.534182	0.000491	4.914220	0.832491	0.000049
 304	3.0148e+01	3.0126	-6.487337	0.000471	4.709460	0.797804	0.000047
 305	3.0248e+01	3.0233	-6.441308	0.000463	4.627557	0.783929	0.000046
 306	3.0348e+01	3.0314	-6.392427	0.000491	4.914220	0.832491	0.000049
 307	3.0447e+01	3.0387	-6.348841	0.000438	4.381846	0.742305	0.000044
 308	3.0547e+01	3.0495	-6.299960	0.000491	4.914220	0.832491	0.000049
 309	3.0646e+01	3.0617	-6.256782	0.000434	4.340894	0.735367	0.000043
 310	3.0745e+01	3.0697	-6.211567	0.000455	4.545653	0.770054	0.000045
 311	3.0845e+01	3.0803	-6.163500	0.000483	4.832316	0.818616	0.000048
 312	3.0945e+01	3.0875	-6.117063	0.000467	4.668509	0.790867	0.000047
 313	3.1044e+01	3.0982	-6.072663	0.000446	4.463749	0.756180	0.000045
 314	3.1143e+01	3.1098	-6.025411	0.000475	4.750412	0.804742	0.000047
 315	3.1243e+01	3.1208	-5.981418	0.000442	4.422798	0.749242	0.000044
 316	3.1343e+01	3.1281	-5.935796	0.000459	4.586605	0.776992	0.000046
 317	3.1442e+01	3.1413	-5.890581	0.000455	4.545653	0.770054	0.000045
 318	3.1541e+01	3.1482	-5.841700	0.000491	4.914220	0.832491	0.000049
 319	3.1641e+01	3.1611	-5.801373	0.000405	4.054231	0.686805	0.000041
 320	3.1741e+01	3.1705	-5.752084	0.000496	4.955171	0.839429	0.000050
 321	3.1840e+01	3.1841	-5.703610	0.000487	4.873268	0.825554	0.000049
 322	3.1939e+01	3.1911	-5.662061	0.000418	4.177087	0.707618	0.000042
 323	3.2039e+01	3.1989	-5.612773	0.000496	4.955171	0.839429	0.000050
 324	3.2139e+01	3.2088	-5.565521	0.000475	4.750412	0.804742	0.000047
 325	3.2238e+01	3.2191	-5.523972	0.000418	4.177087	0.707618	0.000042
 326	3.2337e+01	3.2339	-5.479572	0.000446	4.463749	0.756180	0.000045
 327	3.2437e+01	3.2397	-5.432320	0.000475	4.750412	0.804742	0.000047
 328	3.2536e+01	3.2500	-5.387105	0.000455	4.545653	0.770054	0.000045
 329	3.2636e+01	3.2572	-5.342298	0.000450	4.504701	0.763117	0.000045
 330	3.2736e+01	3.2685	-5.299934	0.000426	4.258990	0.721492	0.000043
 331	3.2835e+01	3.2829	-5.255941	0.000442	4.422798	0.749242	0.000044
 332	3.2934e+01	3.2885	-5.214392	0.000418	4.177087	0.707618	0.000042
 333	3.3034e+01	3.2992	-5.164696	0.000500	4.996123	0.846366	0.000050
 334	3.3133e+01	3.3116	-5.121111	0.000438	4.381846	0.742305	0.000044
 335	3.3233e+01	3.3181	-5.071007	0.000504	5.037075	0.853304	0.000050
 336	3.3333e+01	3.3289	-5.029458	0.000418	4.177087	0.707618	0.000042
 337	3.3432e+01	3.3379	-4.985465	0.000442	4.422798	0.749242	0.000044
 338	3.3532e+01	3.3508	-4.938621	0.000471	4.709460	0.797804	0.000047
 339	3.3631e+01	3.3585	-4.893406	0.000455	4.545653	0.770054	0.000045
 340	3.3730e+01	3.3696	-4.846969	0.000467	4.668509	0.790867	0.000047
 341	3.3830e+01	3.3786	-4.805420	0.000418	4.177087	0.707618	0.000042
 342	3.3929e+01	3.3910	-4.761020	0.000446	4.463749	0.756180	0.000045
 343	3.4029e+01	3.3994	-4.717841	0.000434	4.340894	0.735367	0.000043
 344	3.4129e+01	3.4084	-4.669368	0.000487	4.873268	0.825554	0.000049
 345	3.4228e+01	3.4200	-4.623745	0.000459	4.586605	0.776992	0.000046
 346	3.4328e+01	3.4289	-4.582604	0.000414	4.136135	0.700680	0.000041
 347	3.4427e+01	3.4396	-4.537796	0.000450	4.504701	0.763117	0.000045
 348	3.4526e+01	3.4464	-4.490544	0.000475	4.750412	0.804742	0.000047
 349	3.4626e+01	3.4578	-4.445737	0.000450	4.504701	0.763117	0.000045
 350	3.4725e+01	3.4677	-4.400522	0.000455	4.545653	0.770054	0.000045
 351	3.4825e+01	3.4795	-4.352863	0.000479	4.791364	0.811679	0.000048
 352	3.4925e+01	3.4872	-4.307240	0.000459	4.586605	0.776992	0.000046
 353	3.5024e+01	3.4975	-4.267321	0.000401	4.013279	0.679868	0.000040
 354	3.5123e+01	3.5081	-4.220069	0.000475	4.750412	0.804742	0.000047
 355	3.5223e+01	3.5200	-4.180964	0.000393	3.931376	0.665993	0.000039
 356	3.5322e+01	3.5275	-4.133712	0.000475	4.750412	0.804742	0.000047
 357	3.5422e+01	3.5369	-4.091349	0.000426	4.258990	0.721492	0.000043
 358	3.5522e+01	3.5455	-4.044097	0.000475	4.750412	0.804742	0.000047
 359	3.5621e+01	3.5604	-3.999289	0.000450	4.504701	0.763117	0.000045
 360	3.5721e+01	3.5651	-3.956111	0.000434	4.340894	0.735367	0.000043
 361	3.5820e+01	3.5788	-3.913747	0.000426	4.258990	0.721492	0.000043
 362	3.5919e+01	3.5861	-3.867718	0.000463	4.627557	0.783929	0.000046
 363	3.6019e+01	3.5958	-3.825354	0.000426	4.258990	0.721492	0.000043
 364	3.6118e+01	3.6080	-3.782990	0.000426	4.258990	0.721492	0.000043
 365	3.6218e+01	3.6192	-3.736146	0.000471	4.709460	0.797804	0.000047
 366	3.6318e+01	3.6263	-3.690931	0.000455	4.545653	0.770054	0.000045
 367	3.6417e+01	3.6366	-3.651826	0.000393	3.931376	0.665993	0.000039
 368	3.6517e+01	3.6477	-3.603760	0.000483	4.832316	0.818616	0.000048
 369	3.6616e+01	3.6597	-3.561396	0.000426	4.258990	0.721492	0.000043
 370	3.6715e+01	3.6681	-3.519032	0.000426	4.258990	0.721492	0.000043
 371	3.6815e+01	3.6761	-3.476261	0.000430	4.299942	0.728430	0.000043
 372	3.6914e+01	3.6879	-3.431046	0.000455	4.545653	0.770054	0.000045
 373	3.7014e+01	3.6960	-3.388275	0.000430	4.299942	0.728430	0.000043
 374	3.7114e+01	3.7084	-3.342653	0.000459	4.586605	0.776992	0.000046
 375	3.7213e+01	3.7167	-3.305585	0.000373	3.726617	0.631306	0.000037
 376	3.7313e+01	3.7292	-3.253445	0.000524	5.241834	0.887991	0.000052
 377	3.7412e+01	3.7387	-3.215155	0.000385	3.849472	0.652118	0.000038
 378	3.7511e+01	3.7479	-3.169125	0.000463	4.627557	0.783929	0.000046
 379	3.7611e+01	3.7589	-3.127576	0.000418	4.177087	0.707618	0.000042
 380	3.7711e+01	3.7659	-3.083583	0.000442	4.422798	0.749242	0.000044
 381	3.7810e+01	3.7768	-3.038775	0.000450	4.504701	0.763117	0.000045
 382	3.7910e+01	3.7857	-2.998856	0.000401	4.013279	0.679868	0.000040
 383	3.8009e+01	3.7946	-2.954863	0.000442	4.422798	0.749242	0.000044
 384	3.8108e+01	3.8042	-2.911277	0.000438	4.381846	0.742305	0.000044
 385	3.8208e+01	3.8180	-2.868914	0.000426	4.258990	0.721492	0.000043
 386	3.8307e+01	3.8264	-2.825735	0.000434	4.340894	0.735367	0.000043
 387	3.8407e+01	3.8380	-2.782150	0.000438	4.381846	0.742305	0.000044
 388	3.8507e+01	3.8459	-2.741415	0.000410	4.095183	0.693743	0.000041
 389	3.8606e+01	3.8560	-2.698644	0.000430	4.299942	0.728430	0.000043
 390	3.8706e+01	3.8670	-2.653022	0.000459	4.586605	0.776992	0.000046
 391	3.8805e+01	3.8754	-2.610658	0.000426	4.258990	0.721492	0.000043
 392	3.8904e+01	3.8892	-2.568702	0.000422	4.218038	0.714555	0.000042
 393	3.9004e+01	3.8929	-2.521858	0.000471	4.709460	0.797804	0.000047
 394	3.9103e+01	3.9061	-2.486419	0.000356	3.562809	0.603556	0.000036
 395	3.9203e+01	3.9171	-2.439167	0.000475	4.750412	0.804742	0.000047
 396	3.9303e+01	3.9263	-2.396804	0.000426	4.258990	0.721492	0.000043
 397	3.9402e+01	3.9378	-2.353625	0.000434	4.340894	0.735367	0.000043
 398	3.9502e+01	3.9426	-2.312891	0.000410	4.095183	0.693743	0.000041
 399	3.9601e+01	3.9558	-2.268898	0.000442	4.422798	0.749242	0.000044
 400	3.9700e+01	3.9654	-2.226534	0.000426	4.258990	0.721492	0.000043
 401	3.9800e+01	3.9755	-2.182541	0.000442	4.422798	0.749242	0.000044
 402	3.9900e+01	3.9841	-2.141400	0.000414	4.136135	0.700680	0.000041
 403	3.9999e+01	3.9974	-2.100258	0.000414	4.136135	0.700680	0.000041
 404	4.0099e+01	4.0099	-2.055043	0.000455	4.545653	0.770054	0.000045
 405	4.0198e+01	4.0175	-2.015124	0.000401	4.013279	0.679868	0.000040
 406	4.0297e+01	4.0272	-1.970723	0.000446	4.463749	0.756180	0.000045
 407	4.0397e+01	4.0347	-1.934062	0.000369	3.685665	0.624369	0.000037
 408	4.0496e+01	4.0447	-1.888847	0.000455	4.545653	0.770054	0.000045
 409	4.0596e+01	4.0568	-1.846484	0.000426	4.258990	0.721492	0.000043
 410	4.0696e+01	4.0655	-1.805750	0.000410	4.095183	0.693743	0.000041
 411	4.0795e+01	4.0736	-1.762979	0.000430	4.299942	0.728430	0.000043
 412	4.0895e+01	4.0841	-1.720208	0.000430	4.299942	0.728430	0.000043
 413	4.0994e+01	4.0915	-1.675807	0.000446	4.463749	0.756180	0.000045
 414	4.1093e+01	4.1038	-1.631407	0.000446	4.463749	0.756180	0.000045
 415	4.1193e+01	4.1154	-1.589451	0.000422	4.218038	0.714555	0.000042
 416	4.1292e+01	4.1251	-1.546680	0.000430	4.299942	0.728430	0.000043
 417	4.1392e+01	4.1322	-1.505945	0.000410	4.095183	0.693743	0.000041
 418	4.1492e+01	4.1445	-1.468063	0.000381	3.808520	0.645181	0.000038
 419	4.1591e+01	4.1538	-1.424477	0.000438	4.381846	0.742305	0.000044
 420	4.1691e+01	4.1658	-1.381706	0.000430	4.299942	0.728430	0.000043
 421	4.1790e+01	4.1743	-1.339750	0.000422	4.218038	0.714555	0.000042
 422	4.1889e+01	4.1834	-1.298608	0.000414	4.136135	0.700680	0.000041
 423	4.1989e+01	4.1940	-1.257874	0.000410	4.095183	0.693743	0.000041
 424	4.2089e+01	4.2045	-1.218769	0.000393	3.931376	0.665993	0.000039
 425	4.2188e+01	4.2152	-1.173961	0.000450	4.504701	0.763117	0.000045
 426	4.2288e+01	4.2265	-1.129154	0.000450	4.504701	0.763117	0.000045
 427	4.2387e+01	4.2371	-1.090456	0.000389	3.890424	0.659056	0.000039
 428	4.2486e+01	4.2442	-1.046463	0.000442	4.422798	0.749242	0.000044
 429	4.2586e+01	4.2561	-1.010210	0.000364	3.644713	0.617431	0.000036
 430	4.2685e+01	4.2659	-0.965809	0.000446	4.463749	0.756180	0.000045
 431	4.2785e+01	4.2754	-0.922631	0.000434	4.340894	0.735367	0.000043
 432	4.2885e+01	4.2818	-0.886785	0.000360	3.603761	0.610494	0.000036
 433	4.2984e+01	4.2945	-0.844828	0.000422	4.218038	0.714555	0.000042
 434	4.3084e+01	4.3056	-0.803280	0.000418	4.177087	0.707618	0.000042
 435	4.3183e+01	4.3126	-0.765804	0.000377	3.767568	0.638243	0.000038
 436	4.3282e+01	4.3237	-0.725884	0.000401	4.013279	0.679868	0.000040
 437	4.3382e+01	4.3328	-0.681891	0.000442	4.422798	0.749242	0.000044
 438	4.3481e+01	4.3438	-0.641972	0.000401	4.013279	0.679868	0.000040
 439	4.3581e+01	4.3546	-0.596757	0.000455	4.545653	0.770054	0.000045
 440	4.3681e+01	4.3621	-0.560911	0.000360	3.603761	0.610494	0.000036
 441	4.3780e+01	4.3731	-0.515288	0.000459	4.586605	0.776992	0.000046
 442	4.3880e+01	4.3832	-0.476591	0.000389	3.890424	0.659056	0.000039
 443	4.3979e+01	4.3937	-0.435449	0.000414	4.136135	0.700680	0.000041
 444	4.4078e+01	4.4025	-0.393493	0.000422	4.218038	0.714555	0.000042
 445	4.4178e+01	4.4153	-0.351944	0.000418	4.177087	0.707618	0.000042
 446	4.4278e+01	4.4238	-0.313246	0.000389	3.890424	0.659056	0.000039
 447	4.4377e+01	4.4343	-0.274142	0.000393	3.931376	0.665993	0.000039
 448	4.4477e+01	4.4428	-0.231371	0.000430	4.299942	0.728430	0.000043
 449	4.4576e+01	4.4532	-0.189414	0.000422	4.218038	0.714555	0.000042
 450	4.4675e+01	4.4666	-0.153975	0.000356	3.562809	0.603556	0.000036
 451	4.4775e+01	4.4739	-0.110390	0.000438	4.381846	0.742305	0.000044
 452	4.4874e+01	4.4854	-0.068841	0.000418	4.177087	0.707618	0.000042
 453	4.4974e+01	4.4942	-0.028107	0.000410	4.095183	0.693743	0.000041
 454	4.5074e+01	4.5055	0.012628	0.000410	4.095183	0.693743	0.000041
 455	4.5173e+01	4.5124	0.053362	0.000410	4.095183	0.693743	0.000041
 456	4.5273e+01	4.5226	0.090430	0.000373	3.726617	0.631306	0.000037
 457	4.5372e+01	4.5319	0.130350	0.000401	4.013279	0.679868	0.000040
 458	4.5471e+01	4.5412	0.171491	0.000414	4.136135	0.700680	0.000041
 459	4.5571e+01	4.5531	0.214670	0.000434	4.340894	0.735367	0.000043
 460	4.5670e+01	4.5625	0.251738	0.000373	3.726617	0.631306	0.000037
 461	4.5770e+01	4.5770	0.294916	0.000434	4.340894	0.735367	0.000043
 462	4.5870e+01	4.5789	0.334836	0.000401	4.013279	0.679868	0.000040
 463	4.5969e+01	4.5927	0.376792	0.000422	4.218038	0.714555	0.000042
 464	4.6069e+01	4.6055	0.415082	0.000385	3.849472	0.652118	0.000038
 465	4.6168e+01	4.6124	0.452965	0.000381	3.808520	0.645181	0.000038
 466	4.6267e+01	4.6214	0.497365	0.000446	4.463749	0.756180	0.000045
 467	4.6367e+01	4.6339	0.530767	0.000336	3.358050	0.568869	0.000034
 468	4.6467e+01	4.6432	0.574353	0.000438	4.381846	0.742305	0.000044
 469	4.6566e+01	4.6533	0.612643	0.000385	3.849472	0.652118	0.000038
 470	4.6666e+01	4.6608	0.652563	0.000401	4.013279	0.679868	0.000040
 471	4.6765e+01	4.6725	0.692890	0.000405	4.054231	0.686805	0.000041
 472	4.6864e+01	4.6822	0.734846	0.000422	4.218038	0.714555	0.000042
 473	4.6964e+01	4.6924	0.774766	0.000401	4.013279	0.679868	0.000040
 474	4.7063e+01	4.7017	0.814685	0.000401	4.013279	0.679868	0.000040
 475	4.7163e+01	4.7134	0.854605	0.000401	4.013279	0.679868	0.000040
 476	4.7263e+01	4.7207	0.894932	0.000405	4.054231	0.686805	0.000041
 477	4.7362e+01	4.7327	0.931592	0.000369	3.685665	0.624369	0.000037
 478	4.7462e+01	4.7408	0.975178	0.000438	4.381846	0.742305	0.000044
 479	4.7561e+01	4.7523	1.014690	0.000397	3.972328	0.672930	0.000040
 480	4.7660e+01	4.7610	1.054610	0.000401	4.013279	0.679868	0.000040
 481	4.7760e+01	4.7729	1.090863	0.000364	3.644713	0.617431	0.000036
 482	4.7859e+01	4.7845	1.132820	0.000422	4.218038	0.714555	0.000042
 483	4.7959e+01	4.7929	1.172332	0.000397	3.972328	0.672930	0.000040
 484	4.8059e+01	4.8016	1.210215	0.000381	3.808520	0.645181	0.000038
 485	4.8158e+01	4.8139	1.251356	0.000414	4.136135	0.700680	0.000041
 486	4.8258e+01	4.8206	1.288832	0.000377	3.767568	0.638243	0.000038
 487	4.8357e+01	4.8322	1.329159	0.000405	4.054231	0.686805	0.000041
 488	4.8456e+01	4.8391	1.369893	0.000410	4.095183	0.693743	0.000041
 489	4.8556e+01	4.8501	1.408591	0.000389	3.890424	0.659056	0.000039
 490	4.8656e+01	4.8615	1.446066	0.000377	3.767568	0.638243	0.000038
 491	4.8755e+01	4.8719	1.487615	0.000418	4.177087	0.707618	0.000042
 492	4.8855e+01	4.8812	1.528349	0.000410	4.095183	0.693743	0.000041
 493	4.8954e+01	4.8905	1.567861	0.000397	3.972328	0.672930	0.000040
 494	4.9053e+01	4.9012	1.604115	0.000364	3.644713	0.617431	0.000036
 495	4.9153e+01	4.9149	1.646886	0.000430	4.299942	0.728430	0.000043
 496	4.9252e+01	4.9220	1.681103	0.000344	3.439954	0.582744	0.000034
 497	4.9352e+01	4.9335	1.720208	0.000393	3.931376	0.665993	0.000039
 498	4.9452e+01	4.9391	1.755646	0.000356	3.562809	0.603556	0.000036
 499	4.9551e+01	4.9497	1.793937	0.000385	3.849472	0.652118	0.000038
 500	4.9651e+01	4.9608	1.832227	0.000385	3.849472	0.652118	0.000038
 501	4.9750e+01	4.9722	1.874183	0.000422	4.218038	0.714555	0.000042
 502	4.9849e+01	4.9801	1.914917	0.000410	4.095183	0.693743	0.000041
 503	4.9949e+01	4.9925	1.950356	0.000356	3.562809	0.603556	0.000036
 504	5.0048e+01	5.0005	1.989461	0.000393	3.931376	0.665993	0.000039
 505	5.0148e+01	5.0089	2.031825	0.000426	4.258990	0.721492	0.000043
 506	5.0248e+01	5.0196	2.068485	0.000369	3.685665	0.624369	0.000037
 507	5.0347e+01	5.0295	2.108405	0.000401	4.013279	0.679868	0.000040
 508	5.0447e+01	5.0394	2.147103	0.000389	3.890424	0.659056	0.000039
 509	5.0546e+01	5.0503	2.185393	0.000385	3.849472	0.652118	0.000038
 510	5.0645e+01	5.0594	2.220424	0.000352	3.521857	0.596619	0.000035
 511	5.0745e+01	5.0685	2.258307	0.000381	3.808520	0.645181	0.000038
 512	5.0844e+01	5.0793	2.301078	0.000430	4.299942	0.728430	0.000043
 513	5.0944e+01	5.0880	2.338961	0.000381	3.808520	0.645181	0.000038
 514	5.1044e+01	5.1028	2.378473	0.000397	3.972328	0.672930	0.000040
 515	5.1143e+01	5.1093	2.417578	0.000393	3.931376	0.665993	0.000039
 516	5.1242e+01	5.1185	2.454239	0.000369	3.685665	0.624369	0.000037
 517	5.1342e+01	5.1319	2.497825	0.000438	4.381846	0.742305	0.000044
 518	5.1441e+01	5.1394	2.534485	0.000369	3.685665	0.624369	0.000037
 519	5.1541e+01	5.1500	2.573998	0.000397	3.972328	0.672930	0.000040
 520	5.1641e+01	5.1585	2.611880	0.000381	3.808520	0.645181	0.000038
 521	5.1740e+01	5.1698	2.649356	0.000377	3.767568	0.638243	0.000038
 522	5.1840e+01	5.1806	2.688868	0.000397	3.972328	0.672930	0.000040
 523	5.1939e+01	5.1894	2.728788	0.000401	4.013279	0.679868	0.000040
 524	5.2038e+01	5.1978	2.769115	0.000405	4.054231	0.686805	0.000041
 525	5.2138e+01	5.2095	2.806998	0.000381	3.808520	0.645181	0.000038
 526	5.2237e+01	5.2168	2.843658	0.000369	3.685665	0.624369	0.000037
 527	5.2337e+01	5.2308	2.884393	0.000410	4.095183	0.693743	0.000041
 528	5.2437e+01	5.2389	2.919831	0.000356	3.562809	0.603556	0.000036
 529	5.2536e+01	5.2467	2.957307	0.000377	3.767568	0.638243	0.000038
 530	5.2636e+01	5.2598	2.995190	0.000381	3.808520	0.645181	0.000038
 531	5.2735e+01	5.2694	3.034295	0.000393	3.931376	0.665993	0.000039
 532	5.2834e+01	5.2792	3.073807	0.000397	3.972328	0.672930	0.000040
 533	5.2934e+01	5.2891	3.111282	0.000377	3.767568	0.638243	0.000038
 534	5.3033e+01	5.2975	3.148351	0.000373	3.726617	0.631306	0.000037
 535	5.3133e+01	5.3106	3.188270	0.000401	4.013279	0.679868	0.000040
 536	5.3233e+01	5.3194	3.222894	0.000348	3.480906	0.589681	0.000035
 537	5.3332e+01	5.3286	3.262406	0.000397	3.972328	0.672930	0.000040
 538	5.3431e+01	5.3399	3.298253	0.000360	3.603761	0.610494	0.000036
 539	5.3531e+01	5.3510	3.339394	0.000414	4.136135	0.700680	0.000041
 540	5.3630e+01	5.3571	3.376055	0.000369	3.685665	0.624369	0.000037
 541	5.3730e+01	5.3663	3.414753	0.000389	3.890424	0.659056	0.000039
 542	5.3830e+01	5.3759	3.450599	0.000360	3.603761	0.610494	0.000036
 543	5.3929e+01	5.3873	3.489296	0.000389	3.890424	0.659056	0.000039
 544	5.4029e+01	5.3982	3.529216	0.000401	4.013279	0.679868	0.000040
 545	5.4128e+01	5.4075	3.565469	0.000364	3.644713	0.617431	0.000036
 546	5.4227e+01	5.4202	3.602130	0.000369	3.685665	0.624369	0.000037
 547	5.4327e+01	5.4301	3.638791	0.000369	3.685665	0.624369	0.000037
 548	5.4426e+01	5.4404	3.680747	0.000422	4.218038	0.714555	0.000042
 549	5.4526e+01	5.4475	3.716593	0.000360	3.603761	0.610494	0.000036
 550	5.4626e+01	5.4585	3.751625	0.000352	3.521857	0.596619	0.000035
 551	5.4725e+01	5.4689	3.791544	0.000401	4.013279	0.679868	0.000040
 552	5.4825e+01	5.4794	3.830242	0.000389	3.890424	0.659056	0.000039
 553	5.4924e+01	5.4870	3.866088	0.000360	3.603761	0.610494	0.000036
 554	5.5023e+01	5.4964	3.903971	0.000381	3.808520	0.645181	0.000038
 555	5.5123e+01	5.5079	3.941039	0.000373	3.726617	0.631306	0.000037
 556	5.5222e+01	5.5161	3.980959	0.000401	4.013279	0.679868	0.000040
 557	5.5322e+01	5.5278	4.018842	0.000381	3.808520	0.645181	0.000038
 558	5.5422e+01	5.5371	4.052244	0.000336	3.358050	0.568869	0.000034
 559	5.5521e+01	5.5470	4.090127	0.000381	3.808520	0.645181	0.000038
 560	5.5620e+01	5.5569	4.127602	0.000377	3.767568	0.638243	0.000038
 561	5.5720e+01	5.5692	4.165078	0.000377	3.767568	0.638243	0.000038
 562	5.5819e+01	5.5784	4.204997	0.000401	4.013279	0.679868	0.000040
 563	5.5919e+01	5.5875	4.238807	0.000340	3.399002	0.575807	0.000034
 564	5.6019e+01	5.5957	4.275060	0.000364	3.644713	0.617431	0.000036
 565	5.6118e+01	5.6097	4.313758	0.000389	3.890424	0.659056	0.000039
 566	5.6218e+01	5.6185	4.350418	0.000369	3.685665	0.624369	0.000037
 567	5.6317e+01	5.6261	4.387487	0.000373	3.726617	0.631306	0.000037
 568	5.6416e+01	5.6384	4.423740	0.000364	3.644713	0.617431	0.000036
 569	5.6516e+01	5.6460	4.462438	0.000389	3.890424	0.659056	0.000039
 570	5.6615e+01	5.6561	4.501543	0.000393	3.931376	0.665993	0.000039
 571	5.6715e+01	5.6690	4.536167	0.000348	3.480906	0.589681	0.000035
 572	5.6815e+01	5.6767	4.577308	0.000414	4.136135	0.700680	0.000041
 573	5.6914e+01	5.6858	4.607452	0.000303	3.030435	0.513370	0.000030
 574	5.7014e+01	5.6973	4.649815	0.000426	4.258990	0.721492	0.000043
 575	5.7113e+01	5.7076	4.680773	0.000311	3.112339	0.527245	0.000031
 576	5.7212e+01	5.7157	4.719471	0.000389	3.890424	0.659056	0.000039
 577	5.7312e+01	5.7285	4.756539	0.000373	3.726617	0.631306	0.000037
 578	5.7411e+01	5.7359	4.792792	0.000364	3.644713	0.617431	0.000036
 579	5.7511e+01	5.7461	4.830675	0.000381	3.808520	0.645181	0.000038
 580	5.7611e+01	5.7552	4.866929	0.000364	3.644713	0.617431	0.000036
 581	5.7710e+01	5.7679	4.904404	0.000377	3.767568	0.638243	0.000038
 582	5.7809e+01	5.7803	4.944324	0.000401	4.013279	0.679868	0.000040
 583	5.7909e+01	5.7862	4.982614	0.000385	3.849472	0.652118	0.000038
 584	5.8008e+01	5.7962	5.016424	0.000340	3.399002	0.575807	0.000034
 585	5.8108e+01	5.8044	5.057565	0.000414	4.136135	0.700680	0.000041
 586	5.8208e+01	5.8143	5.090153	0.000328	3.276146	0.554994	0.000033
 587	5.8307e+01	5.8245	5.130479	0.000405	4.054231	0.686805	0.000041
 588	5.8407e+01	5.8352	5.161030	0.000307	3.071387	0.520307	0.000031
 589	5.8506e+01	5.8468	5.199728	0.000389	3.890424	0.659056	0.000039
 590	5.8605e+01	5.8555	5.233130	0.000336	3.358050	0.568869	0.000034
 591	5.8705e+01	5.8662	5.272642	0.000397	3.972328	0.672930	0.000040
 592	5.8804e+01	5.8770	5.305229	0.000328	3.276146	0.554994	0.000033
 593	5.8904e+01	5.8875	5.342705	0.000377	3.767568	0.638243	0.000038
 594	5.9004e+01	5.8940	5.384661	0.000422	4.218038	0.714555	0.000042
 595	5.9103e+01	5.9057	5.420915	0.000364	3.644713	0.617431	0.000036
 596	5.9203e+01	5.9178	5.457983	0.000373	3.726617	0.631306	0.000037
 597	5.9302e+01	5.9293	5.491385	0.000336	3.358050	0.568869	0.000034
 598	5.9401e+01	5.9368	5.525194	0.000340	3.399002	0.575807	0.000034
 599	5.9501e+01	5.9454	5.563485	0.000385	3.849472	0.652118	0.000038
 600	5.9600e+01	5.9537	5.598923	0.000356	3.562809	0.603556	0.000036
 601	5.9700e+01	5.9661	5.630696	0.000319	3.194243	0.541119	0.000032
 602	5.9800e+01	5.9759	5.668986	0.000385	3.849472	0.652118	0.000038
 603	5.9899e+01	5.9868	5.706054	0.000373	3.726617	0.631306	0.000037
 604	5.9998e+01	5.9953	5.741901	0.000360	3.603761	0.610494	0.000036
 605	6.0098e+01	6.0049	5.777339	0.000356	3.562809	0.603556	0.000036
 606	6.0197e+01	6.0165	5.813593	0.000364	3.644713	0.617431	0.000036
 607	6.0297e+01	6.0267	5.848624	0.000352	3.521857	0.596619	0.000035
 608	6.0397e+01	6.0355	5.881619	0.000332	3.317098	0.561932	0.000033
 609	6.0496e+01	6.0439	5.919502	0.000381	3.808520	0.645181	0.000038
 610	6.0596e+01	6.0564	5.959422	0.000401	4.013279	0.679868	0.000040
 611	6.0695e+01	6.0644	5.998119	0.000389	3.890424	0.659056	0.000039
 612	6.0794e+01	6.0725	6.029892	0.000319	3.194243	0.541119	0.000032
 613	6.0894e+01	6.0836	6.063294	0.000336	3.358050	0.568869	0.000034
 614	6.0993e+01	6.0943	6.098733	0.000356	3.562809	0.603556	0.000036
 615	6.1093e+01	6.1042	6.137838	0.000393	3.931376	0.665993	0.000039
 616	6.1193e+01	6.1154	6.171647	0.000340	3.399002	0.575807	0.000034
 617	6.1292e+01	6.1231	6.207900	0.000364	3.644713	0.617431	0.000036
 618	6.1392e+01	6.1366	6.243747	0.000360	3.603761	0.610494	0.000036
 619	6.1491e+01	6.1469	6.280407	0.000369	3.685665	0.624369	0.000037
 620	6.1590e+01	6.1575	6.315846	0.000356	3.562809	0.603556	0.000036
 621	6.1690e+01	6.1648	6.351285	0.000356	3.562809	0.603556	0.000036
 622	6.1789e+01	6.1755	6.387946	0.000369	3.685665	0.624369	0.000037
 623	6.1889e+01	6.1826	6.420533	0.000328	3.276146	0.554994	0.000033
 624	6.1989e+01	6.1954	6.460453	0.000401	4.013279	0.679868	0.000040
 625	6.2088e+01	6.2046	6.490596	0.000303	3.030435	0.513370	0.000030
 626	6.2188e+01	6.2144	6.530108	0.000397	3.972328	0.672930	0.000040
 627	6.2287e+01	6.2257	6.561881	0.000319	3.194243	0.541119	0.000032
 628	6.2386e+01	6.2342	6.598135	0.000364	3.644713	0.617431	0.000036
 629	6.2486e+01	6.2441	6.637240	0.000393	3.931376	0.665993	0.000039
 630	6.2586e+01	6.2543	6.670642	0.000336	3.358050	0.568869	0.000034
 631	6.2685e+01	6.2641	6.707710	0.000373	3.726617	0.631306	0.000037
 632	6.2785e+01	6.2744	6.741927	0.000344	3.439954	0.582744	0.000034
 633	6.2884e+01	6.2826	6.776551	0.000348	3.480906	0.589681	0.000035
 634	6.2983e+01	6.2954	6.811175	0.000348	3.480906	0.589681	0.000035
 635	6.3083e+01	6.3040	6.848243	0.000373	3.726617	0.631306	0.000037
 636	6.3182e+01	6.3149	6.879608	0.000315	3.153291	0.534182	0.000032
 637	6.3282e+01	6.3247	6.919528	0.000401	4.013279	0.679868	0.000040
 638	6.3382e+01	6.3361	6.951301	0.000319	3.194243	0.541119	0.000032
 639	6.3481e+01	6.3454	6.987147	0.000360	3.603761	0.610494	0.000036
 640	6.3581e+01	6.3500	7.021364	0.000344	3.439954	0.582744	0.000034
 641	6.3680e+01	6.3616	7.058432	0.000373	3.726617	0.631306	0.000037
 642	6.3779e+01	6.3737	7.095907	0.000377	3.767568	0.638243	0.000038
 643	6.3879e+01	6.3837	7.130939	0.000352	3.521857	0.596619	0.000035
 644	6.3978e+01	6.3932	7.167600	0.000369	3.685665	0.624369	0.000037
 645	6.4078e+01	6.4022	7.199780	0.000324	3.235195	0.548057	0.000032
 646	6.4177e+01	6.4132	7.236848	0.000373	3.726617	0.631306	0.000037
 647	6.4277e+01	6.4216	7.270657	0.000340	3.399002	0.575807	0.000034
 648	6.4376e+01	6.4330	7.305689	0.000352	3.521857	0.596619	0.000035
 649	6.4476e+01	6.4429	7.343164	0.000377	3.767568	0.638243	0.000038
 650	6.4576e+01	6.4526	7.374937	0.000319	3.194243	0.541119	0.000032
 651	6.4675e+01	6.4631	7.413634	0.000389	3.890424	0.659056	0.000039
 652	6.4775e+01	6.4713	7.446629	0.000332	3.317098	0.561932	0.000033
 653	6.4874e+01	6.4825	7.483290	0.000369	3.685665	0.624369	0.000037
 654	6.4974e+01	6.4944	7.520766	0.000377	3.767568	0.638243	0.000038
 655	6.5073e+01	6.5006	7.555797	0.000352	3.521857	0.596619	0.000035
 656	6.5172e+01	6.5118	7.588792	0.000332	3.317098	0.561932	0.000033
 657	6.5272e+01	6.5234	7.623823	0.000352	3.521857	0.596619	0.000035
 658	6.5371e+01	6.5334	7.658447	0.000348	3.480906	0.589681	0.000035
 659	6.5471e+01	6.5424	7.693886	0.000356	3.562809	0.603556	0.000036
 660	6.5570e+01	6.5546	7.725251	0.000315	3.153291	0.534182	0.000032
 661	6.5670e+01	6.5627	7.762727	0.000377	3.767568	0.638243	0.000038
 662	6.5769e+01	6.5721	7.799795	0.000373	3.726617	0.631306	0.000037
 663	6.5869e+01	6.5832	7.836049	0.000364	3.644713	0.617431	0.000036
 664	6.5969e+01	6.5942	7.868636	0.000328	3.276146	0.554994	0.000033
 665	6.6068e+01	6.6024	7.904482	0.000360	3.603761	0.610494	0.000036
 666	6.6168e+01	6.6145	7.931774	0.000274	2.743773	0.464808	0.000027
 667	6.6267e+01	6.6214	7.967620	0.000360	3.603761	0.610494	0.000036
 668	6.6367e+01	6.6304	7.999800	0.000324	3.235195	0.548057	0.000032
 669	6.6466e+01	6.6415	8.037276	0.000377	3.767568	0.638243	0.000038
 670	6.6566e+01	6.6490	8.072715	0.000356	3.562809	0.603556	0.000036
 671	6.6665e+01	6.6607	8.109783	0.000373	3.726617	0.631306	0.000037
 672	6.6764e+01	6.6700	8.144407	0.000348	3.480906	0.589681	0.000035
 673	6.6864e+01	6.6808	8.180253	0.000360	3.603761	0.610494	0.000036
 674	6.6963e+01	6.6909	8.215285	0.000352	3.521857	0.596619	0.000035
 675	6.7063e+01	6.7030	8.249094	0.000340	3.399002	0.575807	0.000034
 676	6.7162e+01	6.7116	8.283718	0.000348	3.480906	0.589681	0.000035
 677	6.7262e+01	6.7202	8.318750	0.000352	3.521857	0.596619	0.000035
 678	6.7362e+01	6.7316	8.348078	0.000295	2.948532	0.499495	0.000029
 679	6.7461e+01	6.7400	8.388813	0.000410	4.095183	0.693743	0.000041
 680	6.7561e+01	6.7525	8.422622	0.000340	3.399002	0.575807	0.000034
 681	6.7660e+01	6.7629	8.458875	0.000364	3.644713	0.617431	0.000036
 682	6.7760e+01	6.7706	8.495536	0.000369	3.685665	0.624369	0.000037
 683	6.7859e+01	6.7800	8.530975	0.000356	3.562809	0.603556	0.000036
 684	6.7959e+01	6.7910	8.563970	0.000332	3.317098	0.561932	0.000033
 685	6.8058e+01	6.8005	8.601853	0.000381	3.808520	0.645181	0.000038
 686	6.8157e+01	6.8099	8.640550	0.000389	3.890424	0.659056	0.000039
 687	6.8257e+01	6.8194	8.671508	0.000311	3.112339	0.527245	0.000031
 688	6.8356e+01	6.8311	8.704503	0.000332	3.317098	0.561932	0.000033
 689	6.8456e+01	6.8426	8.739534	0.000352	3.521857	0.596619	0.000035
 690	6.8555e+01	6.8506	8.776195	0.000369	3.685665	0.624369	0.000037
 691	6.8655e+01	6.8604	8.810412	0.000344	3.439954	0.582744	0.000034
 692	6.8754e+01	6.8748	8.845444	0.000352	3.521857	0.596619	0.000035
 693	6.8854e+01	6.8807	8.883326	0.000381	3.808520	0.645181	0.000038
 694	6.8954e+01	6.8908	8.919173	0.000360	3.603761	0.610494	0.000036
 695	6.9053e+01	6.8977	8.946464	0.000274	2.743773	0.464808	0.000027
 696	6.9153e+01	6.9092	8.983940	0.000377	3.767568	0.638243	0.000038
 697	6.9252e+01	6.9215	9.017749	0.000340	3.399002	0.575807	0.000034
 698	6.9352e+01	6.9288	9.055632	0.000381	3.808520	0.645181	0.000038
 699	6.9451e+01	6.9393	9.089034	0.000336	3.358050	0.568869	0.000034
 700	6.9550e+01	6.9495	9.124066	0.000352	3.521857	0.596619	0.000035
 701	6.9650e+01	6.9596	9.157875	0.000340	3.399002	0.575807	0.000034
 702	6.9749e+01	6.9728	9.192092	0.000344	3.439954	0.582744	0.000034
 703	6.9849e+01	6.9801	9.230790	0.000389	3.890424	0.659056	0.000039
 704	6.9948e+01	6.9918	9.262155	0.000315	3.153291	0.534182	0.000032
 705	7.0048e+01	6.9992	9.293928	0.000319	3.194243	0.541119	0.000032
 706	7.0147e+01	7.0099	9.334255	0.000405	4.054231	0.686805	0.000041
 707	7.0247e+01	7.0177	9.367249	0.000332	3.317098	0.561932	0.000033
 708	7.0347e+01	7.0293	9.400651	0.000336	3.358050	0.568869	0.000034
 709	7.0446e+01	7.0428	9.437312	0.000369	3.685665	0.624369	0.000037
 710	7.0546e+01	7.0493	9.473158	0.000360	3.603761	0.610494	0.000036
 711	7.0645e+01	7.0592	9.506560	0.000336	3.358050	0.568869	0.000034
 712	7.0745e+01	7.0724	9.539148	0.000328	3.276146	0.554994	0.000033
 713	7.0844e+01	7.0801	9.577438	0.000385	3.849472	0.652118	0.000038
 714	7.0944e+01	7.0854	9.605545	0.000283	2.825676	0.478683	0.000028
 715	7.1043e+01	7.0974	9.643835	0.000385	3.849472	0.652118	0.000038
 716	7.1142e+01	7.1094	9.680496	0.000369	3.685665	0.624369	0.000037
 717	7.1242e+01	7.1194	9.712268	0.000319	3.194243	0.541119	0.000032
 718	7.1341e+01	7.1274	9.748522	0.000364	3.644713	0.617431	0.000036
 719	7.1441e+01	7.1416	9.785590	0.000373	3.726617	0.631306	0.000037
 720	7.1540e+01	7.1487	9.818585	0.000332	3.317098	0.561932	0.000033
 721	7.1640e+01	7.1597	9.855653	0.000373	3.726617	0.631306	0.000037
 722	7.1740e+01	7.1720	9.886611	0.000311	3.112339	0.527245	0.000031
 723	7.1839e+01	7.1785	9.921643	0.000352	3.521857	0.596619	0.000035
 724	7.1939e+01	7.1885	9.957489	0.000360	3.603761	0.610494	0.000036
 725	7.2038e+01	7.1992	9.994557	0.000373	3.726617	0.631306	0.000037
 726	7.2138e+01	7.2073	10.028774	0.000344	3.439954	0.582744	0.000034
 727	7.2237e+01	7.2188	10.061768	0.000332	3.317098	0.561932	0.000033
 728	7.2337e+01	7.2289	10.095170	0.000336	3.358050	0.568869	0.000034
 729	7.2436e+01	7.2372	10.128980	0.000340	3.399002	0.575807	0.000034
 730	7.2535e+01	7.2485	10.164011	0.000352	3.521857	0.596619	0.000035
 731	7.2635e+01	7.2569	10.198635	0.000348	3.480906	0.589681	0.000035
 732	7.2734e+01	7.2726	10.234889	0.000364	3.644713	0.617431	0.000036
 733	7.2834e+01	7.2797	10.271957	0.000373	3.726617	0.631306	0.000037
 734	7.2933e+01	7.2884	10.303730	0.000319	3.194243	0.541119	0.000032
 735	7.3033e+01	7.2998	10.339169	0.000356	3.562809	0.603556	0.000036
 736	7.3132e+01	7.3086	10.372571	0.000336	3.358050	0.568869	0.000034
 737	7.3232e+01	7.3204	10.405158	0.000328	3.276146	0.554994	0.000033
 738	7.3332e+01	7.3284	10.444263	0.000393	3.931376	0.665993	0.000039
 739	7.3431e+01	7.3370	10.477258	0.000332	3.317098	0.561932	0.000033
 740	7.3531e+01	7.3502	10.512289	0.000352	3.521857	0.596619	0.000035
 741	7.3630e+01	7.3575	10.545691	0.000336	3.358050	0.568869	0.000034
 742	7.3730e+01	7.3668	10.583167	0.000377	3.767568	0.638243	0.000038
 743	7.3829e+01	7.3755	10.615754	0.000328	3.276146	0.554994	0.000033
 744	7.3928e+01	7.3865	10.652822	0.000373	3.726617	0.631306	0.000037
 745	7.4028e+01	7.3976	10.685002	0.000324	3.235195	0.548057	0.000032
 746	7.4127e+01	7.4066	10.720034	0.000352	3.521857	0.596619	0.000035
 747	7.4227e+01	7.4167	10.756695	0.000369	3.685665	0.624369	0.000037
 748	7.4326e+01	7.4284	10.794985	0.000385	3.849472	0.652118	0.000038
 749	7.4426e+01	7.4384	10.827165	0.000324	3.235195	0.548057	0.000032
 750	7.4525e+01	7.4480	10.863826	0.000369	3.685665	0.624369	0.000037
 751	7.4625e+01	7.4573	10.899672	0.000360	3.603761	0.610494	0.000036
 752	7.4725e+01	7.4660	10.935111	0.000356	3.562809	0.603556	0.000036
 753	7.4824e+01	7.4759	10.966884	0.000319	3.194243	0.541119	0.000032
 754	7.4924e+01	7.4862	11.001915	0.000352	3.521857	0.596619	0.000035
 755	7.5023e+01	7.5002	11.040613	0.000389	3.890424	0.659056	0.000039
 756	7.5123e+01	7.5089	11.071978	0.000315	3.153291	0.534182	0.000032
 757	7.5222e+01	7.5154	11.107009	0.000352	3.521857	0.596619	0.000035
 758	7.5322e+01	7.5277	11.143263	0.000364	3.644713	0.617431	0.000036
 759	7.5421e+01	7.5370	11.177887	0.000348	3.480906	0.589681	0.000035
 760	7.5520e+01	7.5459	11.211289	0.000336	3.358050	0.568869	0.000034
 761	7.5620e+01	7.5574	11.248765	0.000377	3.767568	0.638243	0.000038
 762	7.5719e+01	7.5678	11.283796	0.000352	3.521857	0.596619	0.000035
 763	7.5819e+01	7.5779	11.319235	0.000356	3.562809	0.603556	0.000036
 764	7.5918e+01	7.5879	11.347749	0.000287	2.866628	0.485620	0.000029
 765	7.6018e+01	7.5972	11.384002	0.000364	3.644713	0.617431	0.000036
 766	7.6118e+01	7.6060	11.421885	0.000381	3.808520	0.645181	0.000038
 767	7.6217e+01	7.6188	11.456917	0.000352	3.521857	0.596619	0.000035
 768	7.6317e+01	7.6281	11.487467	0.000307	3.071387	0.520307	0.000031
 769	7.6416e+01	7.6367	11.525350	0.000381	3.808520	0.645181	0.000038
 770	7.6516e+01	7.6478	11.562418	0.000373	3.726617	0.631306	0.000037
 771	7.6615e+01	7.6575	11.598264	0.000360	3.603761	0.610494	0.000036
 772	7.6715e+01	7.6663	11.628000	0.000299	2.989484	0.506432	0.000030
 773	7.6814e+01	7.6767	11.665069	0.000373	3.726617	0.631306	0.000037
 774	7.6913e+01	7.6852	11.696434	0.000315	3.153291	0.534182	0.000032
 775	7.7013e+01	7.6947	11.735946	0.000397	3.972328	0.672930	0.000040
 776	7.7112e+01	7.7105	11.767719	0.000319	3.194243	0.541119	0.000032
 777	7.7212e+01	7.7158	11.806009	0.000385	3.849472	0.652118	0.000038
 778	7.7311e+01	7.7264	11.844707	0.000389	3.890424	0.659056	0.000039
 779	7.7411e+01	7.7357	11.878109	0.000336	3.358050	0.568869	0.000034
 780	7.7510e+01	7.7490	11.911104	0.000332	3.317098	0.561932	0.000033
 781	7.7610e+01	7.7574	11.947357	0.000364	3.644713	0.617431	0.000036
 782	7.7710e+01	7.7679	11.983203	0.000360	3.603761	0.610494	0.000036
 783	7.7809e+01	7.7756	12.014976	0.000319	3.194243	0.541119	0.000032
 784	7.7909e+01	7.7852	12.051229	0.000364	3.644713	0.617431	0.000036
 785	7.8008e+01	7.7950	12.087890	0.000369	3.685665	0.624369	0.000037
 786	7.8108e+01	7.8059	12.121292	0.000336	3.358050	0.568869	0.000034
 787	7.8207e+01	7.8132	12.162841	0.000418	4.177087	0.707618	0.000042
 788	7.8306e+01	7.8223	12.194207	0.000315	3.153291	0.534182	0.000032
 789	7.8406e+01	7.8362	12.228423	0.000344	3.439954	0.582744	0.000034
 790	7.8505e+01	7.8446	12.268343	0.000401	4.013279	0.679868	0.000040
 791	7.8605e+01	7.8576	12.303782	0.000356	3.562809	0.603556	0.000036
 792	7.8704e+01	7.8648	12.338406	0.000348	3.480906	0.589681	0.000035
 793	7.8804e+01	7.8722	12.377103	0.000389	3.890424	0.659056	0.000039
 794	7.8903e+01	7.8864	12.409691	0.000328	3.276146	0.554994	0.000033
 795	7.9003e+01	7.8952	12.441871	0.000324	3.235195	0.548057	0.000032
 796	7.9103e+01	7.9049	12.480568	0.000389	3.890424	0.659056	0.000039
 797	7.9202e+01	7.9169	12.512748	0.000324	3.235195	0.548057	0.000032
 798	7.9302e+01	7.9276	12.553483	0.000410	4.095183	0.693743	0.000041
 799	7.9401e+01	7.9340	12.587292	0.000340	3.399002	0.575807	0.000034
 800	7.9501e+01	7.9450	12.624360	0.000373	3.726617	0.631306	0.000037
 801	7.9600e+01	7.9552	12.657762	0.000336	3.358050	0.568869	0.000034
 802	7.9700e+01	7.9652	12.700126	0.000426	4.258990	0.721492	0.000043
 803	7.9799e+01	7.9786	12.731491	0.000315	3.153291	0.534182	0.000032
 804	7.9898e+01	7.9856	12.769782	0.000385	3.849472	0.652118	0.000038
 805	7.9998e+01	7.9942	12.801147	0.000315	3.153291	0.534182	0.000032
 806	8.0097e+01	8.0041	12.844733	0.000438	4.381846	0.742305	0.000044
 807	8.0197e+01	8.0166	12.877320	0.000328	3.276146	0.554994	0.000033
 808	8.0296e+01	8.0241	12.914796	0.000377	3.767568	0.638243	0.000038
 809	8.0396e+01	8.0355	12.954308	0.000397	3.972328	0.672930	0.000040
 810	8.0496e+01	8.0475	12.986488	0.000324	3.235195	0.548057	0.000032
 811	8.0595e+01	8.0535	13.025593	0.000393	3.931376	0.665993	0.000039
 812	8.0695e+01	8.0656	13.060217	0.000348	3.480906	0.589681	0.000035
 813	8.0794e+01	8.0786	13.095248	0.000352	3.521857	0.596619	0.000035
 814	8.0894e+01	8.0837	13.131094	0.000360	3.603761	0.610494	0.000036
 815	8.0993e+01	8.0936	13.168977	0.000381	3.808520	0.645181	0.000038
 816	8.1093e+01	8.1019	13.204823	0.000360	3.603761	0.610494	0.000036
 817	8.1192e+01	8.1136	13.243928	0.000393	3.931376	0.665993	0.000039
 818	8.1291e+01	8.1243	13.274886	0.000311	3.112339	0.527245	0.000031
 819	8.1391e+01	8.1329	13.316028	0.000414	4.136135	0.700680	0.000041
 820	8.1490e+01	8.1445	13.351874	0.000360	3.603761	0.610494	0.000036
 821	8.1590e+01	8.1548	13.391386	0.000397	3.972328	0.672930	0.000040
 822	8.1689e+01	8.1623	13.428047	0.000369	3.685665	0.624369	0.000037
 823	8.1789e+01	8.1741	13.466745	0.000389	3.890424	0.659056	0.000039
 824	8.1888e+01	8.1858	13.502591	0.000360	3.603761	0.610494	0.000036
 825	8.1988e+01	8.1934	13.539252	0.000369	3.685665	0.624369	0.000037
 826	8.2088e+01	8.2040	13.577135	0.000381	3.808520	0.645181	0.000038
 827	8.2187e+01	8.2162	13.611351	0.000344	3.439954	0.582744	0.000034
 828	8.2287e+01	8.2257	13.652900	0.000418	4.177087	0.707618	0.000042
 829	8.2386e+01	8.2314	13.690376	0.000377	3.767568	0.638243	0.000038
 830	8.2486e+01	8.2423	13.727037	0.000369	3.685665	0.624369	0.000037
 831	8.2585e+01	8.2532	13.761253	0.000344	3.439954	0.582744	0.000034
 832	8.2684e+01	8.2627	13.800358	0.000393	3.931376	0.665993	0.000039
 833	8.2784e+01	8.2742	13.835797	0.000356	3.562809	0.603556	0.000036
 834	8.2883e+01	8.2838	13.872458	0.000369	3.685665	0.624369	0.000037
 835	8.2983e+01	8.2926	13.909933	0.000377	3.767568	0.638243	0.000038
 836	8.3082e+01	8.3033	13.947409	0.000377	3.767568	0.638243	0.000038
 837	8.3182e+01	8.3151	13.983255	0.000360	3.603761	0.610494	0.000036
 838	8.3281e+01	8.3231	14.023989	0.000410	4.095183	0.693743	0.000041
 839	8.3381e+01	8.3318	14.060243	0.000364	3.644713	0.617431	0.000036
 840	8.3481e+01	8.3421	14.097718	0.000377	3.767568	0.638243	0.000038
 841	8.3580e+01	8.3533	14.139267	0.000418	4.177087	0.707618	0.000042
 842	8.3680e+01	8.3625	14.179187	0.000401	4.013279	0.679868	0.000040
 843	8.3779e+01	8.3743	14.212996	0.000340	3.399002	0.575807	0.000034
 844	8.3879e+01	8.3838	14.252509	0.000397	3.972328	0.672930	0.000040
 845	8.3978e+01	8.3918	14.288355	0.000360	3.603761	0.610494	0.000036
 846	8.4078e+01	8.4033	14.325016	0.000369	3.685665	0.624369	0.000037
 847	8.4177e+01	8.4151	14.365750	0.000410	4.095183	0.693743	0.000041
 848	8.4276e+01	8.4241	14.405262	0.000397	3.972328	0.672930	0.000040
 849	8.4376e+01	8.4311	14.441108	0.000360	3.603761	0.610494	0.000036
 850	8.4475e+01	8.4433	14.483472	0.000426	4.258990	0.721492	0.000043
 851	8.4575e+01	8.4540	14.525021	0.000418	4.177087	0.707618	0.000042
 852	8.4674e+01	8.4628	14.562496	0.000377	3.767568	0.638243	0.000038
 853	8.4774e+01	8.4742	14.605267	0.000430	4.299942	0.728430	0.000043
 854	8.4874e+01	8.4815	14.642743	0.000377	3.767568	0.638243	0.000038
 855	8.4973e+01	8.4933	14.684699	0.000422	4.218038	0.714555	0.000042
 856	8.5073e+01	8.5026	14.720952	0.000364	3.644713	0.617431	0.000036
 857	8.5172e+01	8.5116	14.764131	0.000434	4.340894	0.735367	0.000043
 858	8.5272e+01	8.5239	14.797533	0.000336	3.358050	0.568869	0.000034
 859	8.5371e+01	8.5324	14.838674	0.000414	4.136135	0.700680	0.000041
 860	8.5471e+01	8.5424	14.881038	0.000426	4.258990	0.721492	0.000043
 861	8.5570e+01	8.5511	14.919736	0.000389	3.890424	0.659056	0.000039
 862	8.5669e+01	8.5605	14.959655	0.000401	4.013279	0.679868	0.000040
 863	8.5769e+01	8.5735	14.997131	0.000377	3.767568	0.638243	0.000038
 864	8.5868e+01	8.5828	15.039902	0.000430	4.299942	0.728430	0.000043
 865	8.5968e+01	8.5907	15.077785	0.000381	3.808520	0.645181	0.000038
 866	8.6067e+01	8.6008	15.120148	0.000426	4.258990	0.721492	0.000043
 867	8.6167e+01	8.6119	15.159660	0.000397	3.972328	0.672930	0.000040
 868	8.6266e+01	8.6214	15.195914	0.000364	3.644713	0.617431	0.000036
 869	8.6366e+01	8.6332	15.235833	0.000401	4.013279	0.679868	0.000040
 870	8.6466e+01	8.6418	15.279419	0.000438	4.381846	0.742305	0.000044
 871	8.6565e+01	8.6532	15.318931	0.000397	3.972328	0.672930	0.000040
 872	8.6665e+01	8.6642	15.358851	0.000401	4.013279	0.679868	0.000040
 873	8.6764e+01	8.6732	15.401215	0.000426	4.258990	0.721492	0.000043
 874	8.6864e+01	8.6823	15.439912	0.000389	3.890424	0.659056	0.000039
 875	8.6963e+01	8.6914	15.480646	0.000410	4.095183	0.693743	0.000041
 876	8.7063e+01	8.7036	15.521788	0.000414	4.136135	0.700680	0.000041
 877	8.7162e+01	8.7105	15.562115	0.000405	4.054231	0.686805	0.000041
 878	8.7261e+01	8.7196	15.608145	0.000463	4.627557	0.783929	0.000046
 879	8.7361e+01	8.7312	15.646842	0.000389	3.890424	0.659056	0.000039
 880	8.7460e+01	8.7422	15.686762	0.000401	4.013279	0.679868	0.000040
 881	8.7560e+01	8.7502	15.730755	0.000442	4.422798	0.749242	0.000044
 882	8.7659e+01	8.7611	15.771082	0.000405	4.054231	0.686805	0.000041
 883	8.7759e+01	8.7714	15.813038	0.000422	4.218038	0.714555	0.000042
 884	8.7859e+01	8.7813	15.854587	0.000418	4.177087	0.707618	0.000042
 885	8.7958e+01	8.7931	15.897358	0.000430	4.299942	0.728430	0.000043
 886	8.8058e+01	8.7991	15.938092	0.000410	4.095183	0.693743	0.000041
 887	8.8157e+01	8.8086	15.977604	0.000397	3.972328	0.672930	0.000040
 888	8.8257e+01	8.8213	16.022412	0.000450	4.504701	0.763117	0.000045
 889	8.8356e+01	8.8288	16.061517	0.000393	3.931376	0.665993	0.000039
 890	8.8456e+01	8.8403	16.105510	0.000442	4.422798	0.749242	0.000044
 891	8.8555e+01	8.8504	16.148281	0.000430	4.299942	0.728430	0.000043
 892	8.8654e+01	8.8592	16.190644	0.000426	4.258990	0.721492	0.000043
 893	8.8754e+01	8.8708	16.231379	0.000410	4.095183	0.693743	0.000041
 894	8.8853e+01	8.8785	16.272113	0.000410	4.095183	0.693743	0.000041
 895	8.8953e+01	8.8902	16.315291	0.000434	4.340894	0.735367	0.000043
 896	8.9052e+01	8.8998	16.359692	0.000446	4.463749	0.756180	0.000045
 897	8.9152e+01	8.9091	16.402463	0.000430	4.299942	0.728430	0.000043
 898	8.9251e+01	8.9210	16.443604	0.000414	4.136135	0.700680	0.000041
 899	8.9351e+01	8.9333	16.491263	0.000479	4.791364	0.811679	0.000048
 900	8.9451e+01	8.9370	16.532812	0.000418	4.177087	0.707618	0.000042
 901	8.9550e+01	8.9466	16.572324	0.000397	3.972328	0.672930	0.000040
 902	8.9650e+01	8.9587	16.619983	0.000479	4.791364	0.811679	0.000048
 903	8.9749e+01	8.9682	16.660718	0.000410	4.095183	0.693743	0.000041
 904	8.9849e+01	8.9767	16.703489	0.000430	4.299942	0.728430	0.000043
 905	8.9948e+01	8.9896	16.752370	0.000491	4.914220	0.832491	0.000049
 906	9.0047e+01	8.9983	16.793919	0.000418	4.177087	0.707618	0.000042
 907	9.0147e+01	9.0091	16.838726	0.000450	4.504701	0.763117	0.000045
 908	9.0246e+01	9.0204	16.885163	0.000467	4.668509	0.790867	0.000047
 909	9.0346e+01	9.0285	16.927527	0.000426	4.258990	0.721492	0.000043
 910	9.0445e+01	9.0381	16.970298	0.000430	4.299942	0.728430	0.000043
 911	9.0545e+01	9.0503	17.015920	0.000459	4.586605	0.776992	0.000046
 912	9.0644e+01	9.0588	17.058284	0.000426	4.258990	0.721492	0.000043
 913	9.0744e+01	9.0684	17.102684	0.000446	4.463749	0.756180	0.000045
 914	9.0844e+01	9.0771	17.147085	0.000446	4.463749	0.756180	0.000045
 915	9.0943e+01	9.0897	17.195558	0.000487	4.873268	0.825554	0.000049
 916	9.1043e+01	9.0961	17.241996	0.000467	4.668509	0.790867	0.000047
 917	9.1142e+01	9.1074	17.283952	0.000422	4.218038	0.714555	0.000042
 918	9.1242e+01	9.1162	17.331611	0.000479	4.791364	0.811679	0.000048
 919	9.1341e+01	9.1278	17.378048	0.000467	4.668509	0.790867	0.000047
 920	9.1441e+01	9.1386	17.420412	0.000426	4.258990	0.721492	0.000043
 921	9.1540e+01	9.1470	17.469700	0.000496	4.955171	0.839429	0.000050
 922	9.1639e+01	9.1580	17.514915	0.000455	4.545653	0.770054	0.000045
 923	9.1739e+01	9.1681	17.559315	0.000446	4.463749	0.756180	0.000045
 924	9.1838e+01	9.1753	17.605345	0.000463	4.627557	0.783929	0.000046
 925	9.1938e+01	9.1865	17.656670	0.000516	5.159931	0.874116	0.000052
 926	9.2037e+01	9.1982	17.699441	0.000430	4.299942	0.728430	0.000043
 927	9.2137e+01	9.2078	17.751174	0.000520	5.200882	0.881053	0.000052
 928	9.2237e+01	9.2212	17.798833	0.000479	4.791364	0.811679	0.000048
 929	9.2336e+01	9.2300	17.844048	0.000455	4.545653	0.770054	0.000045
 930	9.2436e+01	9.2368	17.892929	0.000491	4.914220	0.832491	0.000049
 931	9.2535e+01	9.2495	17.936922	0.000442	4.422798	0.749242	0.000044
 932	9.2635e+01	9.2603	17.984988	0.000483	4.832316	0.818616	0.000048
 933	9.2734e+01	9.2689	18.033462	0.000487	4.873268	0.825554	0.000049
 934	9.2834e+01	9.2762	18.075011	0.000418	4.177087	0.707618	0.000042
 935	9.2933e+01	9.2877	18.123485	0.000487	4.873268	0.825554	0.000049
 936	9.3032e+01	9.2994	18.173181	0.000500	4.996123	0.846366	0.000050
 937	9.3132e+01	9.3073	18.222062	0.000491	4.914220	0.832491	0.000049
 938	9.3231e+01	9.3176	18.264018	0.000422	4.218038	0.714555	0.000042
 939	9.3331e+01	9.3286	18.315750	0.000520	5.200882	0.881053	0.000052
 940	9.3430e+01	9.3390	18.363002	0.000475	4.750412	0.804742	0.000047
 941	9.3530e+01	9.3481	18.409847	0.000471	4.709460	0.797804	0.000047
 942	9.3629e+01	9.3555	18.459135	0.000496	4.955171	0.839429	0.000050
 943	9.3729e+01	9.3659	18.510460	0.000516	5.159931	0.874116	0.000052
 944	9.3829e+01	9.3756	18.558119	0.000479	4.791364	0.811679	0.000048
 945	9.3928e+01	9.3850	18.607000	0.000491	4.914220	0.832491	0.000049
 946	9.4028e+01	9.3954	18.657511	0.000508	5.078027	0.860241	0.000051
 947	9.4127e+01	9.4097	18.704763	0.000475	4.750412	0.804742	0.000047
 948	9.4227e+01	9.4162	18.758939	0.000545	5.446593	0.922678	0.000054
 949	9.4326e+01	9.4271	18.806598	0.000479	4.791364	0.811679	0.000048
 950	9.4425e+01	9.4373	18.861997	0.000557	5.569449	0.943490	0.000056
 951	9.4525e+01	9.4482	18.909656	0.000479	4.791364	0.811679	0.000048
 952	9.4624e+01	9.4574	18.957315	0.000479	4.791364	0.811679	0.000048
 953	9.4724e+01	9.4654	19.005381	0.000483	4.832316	0.818616	0.000048
 954	9.4823e+01	9.4740	19.057521	0.000524	5.241834	0.887991	0.000052
 955	9.4923e+01	9.4843	19.107624	0.000504	5.037075	0.853304	0.000050
 956	9.5022e+01	9.4983	19.159764	0.000524	5.241834	0.887991	0.000052
 957	9.5122e+01	9.5047	19.210682	0.000512	5.118979	0.867178	0.000051
 958	9.5222e+01	9.5136	19.260785	0.000504	5.037075	0.853304	0.000050
 959	9.5321e+01	9.5264	19.311296	0.000508	5.078027	0.860241	0.000051
 960	9.5421e+01	9.5364	19.364250	0.000532	5.323738	0.901866	0.000053
 961	9.5520e+01	9.5467	19.416797	0.000528	5.282786	0.894928	0.000053
 962	9.5620e+01	9.5564	19.469752	0.000532	5.323738	0.901866	0.000053
 963	9.5719e+01	9.5692	19.524336	0.000549	5.487545	0.929615	0.000055
 964	9.5819e+01	9.5747	19.575254	0.000512	5.118979	0.867178	0.000051
 965	9.5918e+01	9.5884	19.626171	0.000512	5.118979	0.867178	0.000051
 966	9.6017e+01	9.5954	19.678311	0.000524	5.241834	0.887991	0.000052
 967	9.6117e+01	9.6063	19.731266	0.000532	5.323738	0.901866	0.000053
 968	9.6216e+01	9.6174	19.785035	0.000541	5.405642	0.915740	0.000054
 969	9.6316e+01	9.6243	19.839619	0.000549	5.487545	0.929615	0.000055
 970	9.6415e+01	9.6355	19.888500	0.000491	4.914220	0.832491	0.000049
 971	9.6515e+01	9.6461	19.944713	0.000565	5.651353	0.957365	0.000056
 972	9.6615e+01	9.6558	19.999705	0.000553	5.528497	0.936553	0.000055
 973	9.6714e+01	9.6658	20.051030	0.000516	5.159931	0.874116	0.000052
 974	9.6814e+01	9.6741	20.108872	0.000582	5.815160	0.985115	0.000058
 975	9.6913e+01	9.6867	20.164678	0.000561	5.610401	0.950428	0.000056
 976	9.7013e+01	9.6933	20.217633	0.000532	5.323738	0.901866	0.000053
 977	9.7112e+01	9.7041	20.273439	0.000561	5.610401	0.950428	0.000056
 978	9.7212e+01	9.7137	20.328430	0.000553	5.528497	0.936553	0.000055
 979	9.7311e+01	9.7251	20.384643	0.000565	5.651353	0.957365	0.000056
 980	9.7410e+01	9.7366	20.438820	0.000545	5.446593	0.922678	0.000054
 981	9.7510e+01	9.7449	20.493404	0.000549	5.487545	0.929615	0.000055
 982	9.7609e+01	9.7534	20.551246	0.000582	5.815160	0.985115	0.000058
 983	9.7709e+01	9.7656	20.605016	0.000541	5.405642	0.915740	0.000054
 984	9.7808e+01	9.7779	20.659192	0.000545	5.446593	0.922678	0.000054
 985	9.7908e+01	9.7865	20.715405	0.000565	5.651353	0.957365	0.000056
 986	9.8007e+01	9.7913	20.774470	0.000594	5.938015	1.005927	0.000059
 987	9.8107e+01	9.8059	20.833127	0.000590	5.897064	0.998990	0.000059
 988	9.8207e+01	9.8157	20.892192	0.000594	5.938015	1.005927	0.000059
 989	9.8306e+01	9.8230	20.950442	0.000586	5.856112	0.992052	0.000059
 990	9.8406e+01	9.8340	21.003804	0.000536	5.364690	0.908803	0.000054
 991	9.8505e+01	9.8447	21.062869	0.000594	5.938015	1.005927	0.000059
 992	9.8605e+01	9.8550	21.123563	0.000610	6.101823	1.033677	0.000061
 993	9.8704e+01	9.8624	21.178961	0.000557	5.569449	0.943490	0.000056
 994	9.8803e+01	9.8724	21.237211	0.000586	5.856112	0.992052	0.000059
 995	9.8903e+01	9.8833	21.296276	0.000594	5.938015	1.005927	0.000059
 996	9.9002e+01	9.8951	21.352897	0.000569	5.692304	0.964302	0.000057
 997	9.9102e+01	9.9027	21.415627	0.000631	6.306582	1.068364	0.000063
 998	9.9201e+01	9.9129	21.476321	0.000610	6.101823	1.033677	0.000061
 999	9.9301e+01	9.9248	21.527239	0.000512	5.118979	0.867178	0.000051
1000	9.9400e+01	9.9335	21.591599	0.000647	6.470389	1.096114	0.000065
1001	9.9500e+01	9.9433	21.649849	0.000586	5.856112	0.992052	0.000059
1002	9.9600e+01	9.9537	21.710951	0.000614	6.142774	1.040614	0.000061
1003	9.9699e+01	9.9622	21.771237	0.000606	6.060871	1.026739	0.000061
1004	9.9799e+01	9.9743	21.833561	0.000627	6.265630	1.061426	0.000063
1005	9.9898e+01	9.9823	21.895477	0.000622	6.224678	1.054489	0.000062
1006	9.9998e+01	9.9929	21.954541	0.000594	5.938015	1.005927	0.000059
1007	1.0010e+02	9.9854	21.970021	-0.000156	-1.556170	-0.263622	0.000016
1008	1.0020e+02	9.9738	21.981833	-0.000119	-1.187603	-0.201185	0.000012
1009	1.0030e+02	9.9665	21.992424	-0.000106	-1.064748	-0.180373	0.000011
1010	1.0040e+02	9.9542	22.000571	-0.000082	-0.819037	-0.138749	0.000008
1011	1.0050e+02	9.9464	22.007903	-0.000074	-0.737133	-0.124874	0.000007
1012	1.0059e+02	9.9347	22.016458	-0.000086	-0.859988	-0.145686	0.000009
1013	1.0069e+02	9.9213	22.020124	-0.000037	-0.368566	-0.062437	0.000004
1014	1.0079e+02	9.9146	22.027456	-0.000074	-0.737133	-0.124874	0.000007
1015	1.0089e+02	9.9043	22.029493	-0.000020	-0.204759	-0.034687	0.000002
1016	1.0099e+02	9.8930	22.040491	-0.000111	-1.105699	-0.187311	0.000011
1017	1.0109e+02	9.8866	22.041305	-0.000008	-0.081904	-0.013875	0.000001
1018	1.0119e+02	9.8759	22.048638	-0.000074	-0.737133	-0.124874	0.000007
1019	1.0129e+02	9.8641	22.051896	-0.000033	-0.327615	-0.055499	0.000003
1020	1.0139e+02	9.8549	22.053526	-0.000016	-0.163807	-0.027750	0.000002
1021	1.0149e+02	9.8450	22.057599	-0.000041	-0.409518	-0.069374	0.000004
1022	1.0159e+02	9.8370	22.061265	-0.000037	-0.368566	-0.062437	0.000004
1023	1.0169e+02	9.8261	22.064931	-0.000037	-0.368566	-0.062437	0.000004
1024	1.0179e+02	9.8145	22.061673	0.000033	0.327615	0.055499	-0.000003
1025	1.0189e+02	9.8050	22.061265	0.000004	0.040952	0.006937	-0.000000
1026	1.0199e+02	9.7943	22.057192	0.000041	0.409518	0.069374	-0.000004
1027	1.0209e+02	9.7865	22.061265	-0.000041	-0.409518	-0.069374	0.000004
1028	1.0219e+02	9.7774	22.055970	0.000053	0.532374	0.090187	-0.000005
1029	1.0229e+02	9.7660	22.056377	-0.000004	-0.040952	-0.006937	0.000000
1030	1.0239e+02	9.7572	22.053118	0.000033	0.327615	0.055499	-0.000003
1031	1.0248e+02	9.7477	22.048230	0.000049	0.491422	0.083249	-0.000005
1032	1.0258e+02	9.7339	22.048638	-0.000004	-0.040952	-0.006937	0.000000
1033	1.0268e+02	9.7268	22.042120	0.000066	0.655229	0.110999	-0.000007
1034	1.0278e+02	9.7144	22.039676	0.000025	0.245711	0.041625	-0.000002
1035	1.0288e+02	9.7050	22.037232	0.000025	0.245711	0.041625	-0.000002
1036	1.0298e+02	9.6967	22.034788	0.000025	0.245711	0.041625	-0.000002
1037	1.0308e+02	9.6863	22.032344	0.000025	0.245711	0.041625	-0.000002
1038	1.0318e+02	9.6744	22.027863	0.000045	0.450470	0.076312	-0.000005
1039	1.0328e+02	9.6668	22.020531	0.000074	0.737133	0.124874	-0.000007
1040	1.0338e+02	9.6555	22.014421	0.000061	0.614277	0.104061	-0.000006
1041	1.0348e+02	9.6473	22.009533	0.000049	0.491422	0.083249	-0.000005
1042	1.0358e+02	9.6394	21.999349	0.000102	1.023796	0.173436	-0.000010
1043	1.0368e+02	9.6284	21.993646	0.000057	0.573326	0.097124	-0.000006
1044	1.0378e+02	9.6143	21.988351	0.000053	0.532374	0.090187	-0.000005
1045	1.0388e+02	9.6061	21.979797	0.000086	0.859988	0.145686	-0.000009
1046	1.0398e+02	9.5962	21.969613	0.000102	1.023796	0.173436	-0.000010
1047	1.0408e+02	9.5856	21.967169	0.000025	0.245711	0.041625	-0.000002
1048	1.0418e+02	9.5753	21.958615	0.000086	0.859988	0.145686	-0.000009
1049	1.0428e+02	9.5686	21.950468	0.000082	0.819037	0.138749	-0.000008
1050	1.0438e+02	9.5572	21.941507	0.000090	0.900940	0.152623	-0.000009
1051	1.0447e+02	9.5448	21.931730	0.000098	0.982844	0.166498	-0.000010
1052	1.0457e+02	9.5361	21.924398	0.000074	0.737133	0.124874	-0.000007
1053	1.0467e+02	9.5301	21.912585	0.000119	1.187603	0.201185	-0.000012
1054	1.0477e+02	9.5147	21.904846	0.000078	0.778085	0.131811	-0.000008
1055	1.0487e+02	9.5068	21.895069	0.000098	0.982844	0.166498	-0.000010
1056	1.0497e+02	9.4980	21.886108	0.000090	0.900940	0.152623	-0.000009
1057	1.0507e+02	9.4836	21.873480	0.000127	1.269507	0.215060	-0.000013
1058	1.0517e+02	9.4757	21.863704	0.000098	0.982844	0.166498	-0.000010
1059	1.0527e+02	9.4666	21.851891	0.000119	1.187603	0.201185	-0.000012
1060	1.0537e+02	9.4581	21.839264	0.000127	1.269507	0.215060	-0.000013
1061	1.0547e+02	9.4470	21.831931	0.000074	0.737133	0.124874	-0.000007
1062	1.0557e+02	9.4376	21.820933	0.000111	1.105699	0.187311	-0.000011
1063	1.0567e+02	9.4287	21.808713	0.000123	1.228555	0.208123	-0.000012
1064	1.0577e+02	9.4165	21.795678	0.000131	1.310459	0.221998	-0.000013
1065	1.0587e+02	9.4092	21.785494	0.000102	1.023796	0.173436	-0.000010
1066	1.0597e+02	9.3970	21.771237	0.000143	1.433314	0.242810	-0.000014
1067	1.0607e+02	9.3867	21.760239	0.000111	1.105699	0.187311	-0.000011
1068	1.0617e+02	9.3771	21.747611	0.000127	1.269507	0.215060	-0.000013
1069	1.0627e+02	9.3667	21.737428	0.000102	1.023796	0.173436	-0.000010
1070	1.0637e+02	9.3586	21.718283	0.000192	1.924736	0.326059	-0.000019
1071	1.0647e+02	9.3469	21.710951	0.000074	0.737133	0.124874	-0.000007
1072	1.0656e+02	9.3372	21.696286	0.000147	1.474266	0.249747	-0.000015
1073	1.0666e+02	9.3250	21.679993	0.000164	1.638073	0.277497	-0.000016
1074	1.0676e+02	9.3191	21.666958	0.000131	1.310459	0.221998	-0.000013
1075	1.0686e+02	9.3095	21.654737	0.000123	1.228555	0.208123	-0.000012
1076	1.0696e+02	9.2970	21.636407	0.000184	1.842832	0.312184	-0.000018
1077	1.0706e+02	9.2876	21.623779	0.000127	1.269507	0.215060	-0.000013
1078	1.0716e+02	9.2795	21.611966	0.000119	1.187603	0.201185	-0.000012
1079	1.0726e+02	9.2706	21.596080	0.000160	1.597121	0.270560	-0.000016
1080	1.0736e+02	9.2587	21.582638	0.000135	1.351410	0.228935	-0.000014
1081	1.0746e+02	9.2465	21.569195	0.000135	1.351410	0.228935	-0.000014
1082	1.0756e+02	9.2391	21.553309	0.000160	1.597121	0.270560	-0.000016
1083	1.0766e+02	9.2270	21.541089	0.000123	1.228555	0.208123	-0.000012
1084	1.0776e+02	9.2170	21.517870	0.000233	2.334254	0.395433	-0.000023
1085	1.0786e+02	9.2090	21.508909	0.000090	0.900940	0.152623	-0.000009
1086	1.0796e+02	9.1978	21.493430	0.000156	1.556170	0.263622	-0.000016
1087	1.0806e+02	9.1883	21.476729	0.000168	1.679025	0.284435	-0.000017
1088	1.0816e+02	9.1824	21.462879	0.000139	1.392362	0.235873	-0.000014
1089	1.0826e+02	9.1688	21.444141	0.000188	1.883784	0.319122	-0.000019
1090	1.0836e+02	9.1585	21.430292	0.000139	1.392362	0.235873	-0.000014
1091	1.0845e+02	9.1494	21.407073	0.000233	2.334254	0.395433	-0.000023
1092	1.0855e+02	9.1407	21.392409	0.000147	1.474266	0.249747	-0.000015
1093	1.0865e+02	9.1296	21.378152	0.000143	1.433314	0.242810	-0.000014
1094	1.0875e+02	9.1182	21.363080	0.000152	1.515218	0.256685	-0.000015
1095	1.0885e+02	9.1085	21.346786	0.000164	1.638073	0.277497	-0.000016
1096	1.0895e+02	9.0973	21.327234	0.000197	1.965688	0.332997	-0.000020
1097	1.0905e+02	9.0894	21.314606	0.000127	1.269507	0.215060	-0.000013
1098	1.0915e+02	9.0771	21.293425	0.000213	2.129495	0.360746	-0.000021
1099	1.0925e+02	9.0675	21.278353	0.000152	1.515218	0.256685	-0.000015
1100	1.0935e+02	9.0601	21.260430	0.000180	1.801881	0.305247	-0.000018
1101	1.0945e+02	9.0491	21.238026	0.000225	2.252351	0.381559	-0.000023
1102	1.0955e+02	9.0398	21.222547	0.000156	1.556170	0.263622	-0.000016
1103	1.0965e+02	9.0283	21.200958	0.000217	2.170447	0.367684	-0.000022
1104	1.0975e+02	9.0190	21.184257	0.000168	1.679025	0.284435	-0.000017
1105	1.0985e+02	9.0123	21.164704	0.000197	1.965688	0.332997	-0.000020
1106	1.0995e+02	8.9972	21.145559	0.000192	1.924736	0.326059	-0.000019
1107	1.1005e+02	8.9893	21.130080	0.000156	1.556170	0.263622	-0.000016
1108	1.1015e+02	8.9786	21.112972	0.000172	1.719977	0.291372	-0.000017
1109	1.1025e+02	8.9677	21.090975	0.000221	2.211399	0.374621	-0.000022
1110	1.1035e+02	8.9617	21.068979	0.000221	2.211399	0.374621	-0.000022
1111	1.1044e+02	8.9474	21.050648	0.000184	1.842832	0.312184	-0.000018
1112	1.1054e+02	8.9394	21.033947	0.000168	1.679025	0.284435	-0.000017
1113	1.1064e+02	8.9282	21.013988	0.000201	2.006640	0.339934	-0.000020
1114	1.1074e+02	8.9194	20.997287	0.000168	1.679025	0.284435	-0.000017
1115	1.1084e+02	8.9100	20.974068	0.000233	2.334254	0.395433	-0.000023
1116	1.1094e+02	8.8995	20.954516	0.000197	1.965688	0.332997	-0.000020
1117	1.1104e+02	8.8906	20.940259	0.000143	1.433314	0.242810	-0.000014
1118	1.1114e+02	8.8779	20.915003	0.000254	2.539013	0.430121	-0.000025
1119	1.1124e+02	8.8704	20.891785	0.000233	2.334254	0.395433	-0.000023
1120	1.1134e+02	8.8599	20.878750	0.000131	1.310459	0.221998	-0.000013
1121	1.1144e+02	8.8490	20.855124	0.000238	2.375206	0.402371	-0.000024
1122	1.1154e+02	8.8382	20.833942	0.000213	2.129495	0.360746	-0.000021
1123	1.1164e+02	8.8311	20.815612	0.000184	1.842832	0.312184	-0.000018
1124	1.1174e+02	8.8227	20.796467	0.000192	1.924736	0.326059	-0.000019
1125	1.1184e+02	8.8120	20.775692	0.000209	2.088543	0.353809	-0.000021
1126	1.1194e+02	8.8004	20.758991	0.000168	1.679025	0.284435	-0.000017
1127	1.1204e+02	8.7927	20.738217	0.000209	2.088543	0.353809	-0.000021
1128	1.1214e+02	8.7787	20.716627	0.000217	2.170447	0.367684	-0.000022
1129	1.1224e+02	8.7713	20.695446	0.000213	2.129495	0.360746	-0.000021
1130	1.1234e+02	8.7610	20.670190	0.000254	2.539013	0.430121	-0.000025
1131	1.1244e+02	8.7502	20.653489	0.000168	1.679025	0.284435	-0.000017
1132	1.1253e+02	8.7457	20.632308	0.000213	2.129495	0.360746	-0.000021
1133	1.1263e+02	8.7325	20.613570	0.000188	1.883784	0.319122	-0.000019
1134	1.1273e+02	8.7208	20.589537	0.000242	2.416158	0.409308	-0.000024
1135	1.1283e+02	8.7117	20.567540	0.000221	2.211399	0.374621	-0.000022
1136	1.1293e+02	8.7000	20.547988	0.000197	1.965688	0.332997	-0.000020
1137	1.1303e+02	8.6914	20.524362	0.000238	2.375206	0.402371	-0.000024
1138	1.1313e+02	8.6792	20.503995	0.000205	2.047591	0.346871	-0.000020
1139	1.1323e+02	8.6732	20.481998	0.000221	2.211399	0.374621	-0.000022
1140	1.1333e+02	8.6626	20.458372	0.000238	2.375206	0.402371	-0.000024
1141	1.1343e+02	8.6510	20.438005	0.000205	2.047591	0.346871	-0.000020
1142	1.1353e+02	8.6417	20.415194	0.000229	2.293302	0.388496	-0.000023
1143	1.1363e+02	8.6315	20.396864	0.000184	1.842832	0.312184	-0.000018
1144	1.1373e+02	8.6224	20.371201	0.000258	2.579965	0.437058	-0.000026
1145	1.1383e+02	8.6096	20.352056	0.000192	1.924736	0.326059	-0.000019
1146	1.1393e+02	8.6023	20.329245	0.000229	2.293302	0.388496	-0.000023
1147	1.1403e+02	8.5931	20.307656	0.000217	2.170447	0.367684	-0.000022
1148	1.1413e+02	8.5815	20.284030	0.000238	2.375206	0.402371	-0.000024
1149	1.1423e+02	8.5742	20.261219	0.000229	2.293302	0.388496	-0.000023
1150	1.1433e+02	8.5609	20.238407	0.000229	2.293302	0.388496	-0.000023
1151	1.1442e+02	8.5532	20.216818	0.000217	2.170447	0.367684	-0.000022
1152	1.1452e+02	8.5432	20.192378	0.000246	2.457110	0.416246	-0.000025
1153	1.1462e+02	8.5314	20.167530	0.000250	2.498062	0.423183	-0.000025
1154	1.1472e+02	8.5242	20.150421	0.000172	1.719977	0.291372	-0.000017
1155	1.1482e+02	8.5120	20.128832	0.000217	2.170447	0.367684	-0.000022
1156	1.1492e+02	8.5046	20.107243	0.000217	2.170447	0.367684	-0.000022
1157	1.1502e+02	8.4945	20.080358	0.000270	2.702821	0.457870	-0.000027
1158	1.1512e+02	8.4814	20.059584	0.000209	2.088543	0.353809	-0.000021
1159	1.1522e+02	8.4743	20.036773	0.000229	2.293302	0.388496	-0.000023
1160	1.1532e+02	8.4641	20.013962	0.000229	2.293302	0.388496	-0.000023
1161	1.1542e+02	8.4518	19.989928	0.000242	2.416158	0.409308	-0.000024
1162	1.1552e+02	8.4448	19.965895	0.000242	2.416158	0.409308	-0.000024
1163	1.1562e+02	8.4351	19.942677	0.000233	2.334254	0.395433	-0.000023
1164	1.1572e+02	8.4237	19.918643	0.000242	2.416158	0.409308	-0.000024
1165	1.1582e+02	8.4152	19.894610	0.000242	2.416158	0.409308	-0.000024
1166	1.1592e+02	8.4033	19.870577	0.000242	2.416158	0.409308	-0.000024
1167	1.1602e+02	8.3937	19.847766	0.000229	2.293302	0.388496	-0.000023
1168	1.1612e+02	8.3863	19.821696	0.000262	2.620917	0.443995	-0.000026
1169	1.1622e+02	8.3734	19.799699	0.000221	2.211399	0.374621	-0.000022
1170	1.1632e+02	8.3618	19.773222	0.000266	2.661869	0.450933	-0.000027
1171	1.1642e+02	8.3522	19.749596	0.000238	2.375206	0.402371	-0.000024
1172	1.1651e+02	8.3408	19.724341	0.000254	2.539013	0.430121	-0.000025
1173	1.1661e+02	8.3342	19.696642	0.000278	2.784724	0.471745	-0.000028
1174	1.1671e+02	8.3237	19.678311	0.000184	1.842832	0.312184	-0.000018
1175	1.1681e+02	8.3134	19.651834	0.000266	2.661869	0.450933	-0.000027
1176	1.1691e+02	8.3018	19.629838	0.000221	2.211399	0.374621	-0.000022
1177	1.1701e+02	8.2932	19.608248	0.000217	2.170447	0.367684	-0.000022
1178	1.1711e+02	8.2861	19.583808	0.000246	2.457110	0.416246	-0.000025
1179	1.1721e+02	8.2726	19.558553	0.000254	2.539013	0.430121	-0.000025
1180	1.1731e+02	8.2633	19.530446	0.000283	2.825676	0.478683	-0.000028
1181	1.1741e+02	8.2528	19.507227	0.000233	2.334254	0.395433	-0.000023
1182	1.1751e+02	8.2427	19.480343	0.000270	2.702821	0.457870	-0.000027
1183	1.1761e+02	8.2318	19.464456	0.000160	1.597121	0.270560	-0.000016
1184	1.1771e+02	8.2202	19.433906	0.000307	3.071387	0.520307	-0.000031
1185	1.1781e+02	8.2130	19.410687	0.000233	2.334254	0.395433	-0.000023
1186	1.1791e+02	8.2047	19.387876	0.000229	2.293302	0.388496	-0.000023
1187	1.1801e+02	8.1934	19.367916	0.000201	2.006640	0.339934	-0.000020
1188	1.1811e+02	8.1855	19.340217	0.000278	2.784724	0.471745	-0.000028
1189	1.1821e+02	8.1768	19.316591	0.000238	2.375206	0.402371	-0.000024
1190	1.1831e+02	8.1631	19.289707	0.000270	2.702821	0.457870	-0.000027
1191	1.1841e+02	8.1527	19.265673	0.000242	2.416158	0.409308	-0.000024
1192	1.1850e+02	8.1445	19.240418	0.000254	2.539013	0.430121	-0.000025
1193	1.1860e+02	8.1357	19.219644	0.000209	2.088543	0.353809	-0.000021
1194	1.1870e+02	8.1226	19.189500	0.000303	3.030435	0.513370	-0.000030
1195	1.1880e+02	8.1152	19.166689	0.000229	2.293302	0.388496	-0.000023
1196	1.1890e+02	8.1066	19.138582	0.000283	2.825676	0.478683	-0.000028
1197	1.1900e+02	8.0943	19.113735	0.000250	2.498062	0.423183	-0.000025
1198	1.1910e+02	8.0839	19.089701	0.000242	2.416158	0.409308	-0.000024
1199	1.1920e+02	8.0762	19.065668	0.000242	2.416158	0.409308	-0.000024
1200	1.1930e+02	8.0630	19.039598	0.000262	2.620917	0.443995	-0.000026
1201	1.1940e+02	8.0527	19.015158	0.000246	2.457110	0.416246	-0.000025
1202	1.1950e+02	8.0444	18.989495	0.000258	2.579965	0.437058	-0.000026
1203	1.1960e+02	8.0346	18.960166	0.000295	2.948532	0.499495	-0.000029
1204	1.1970e+02	8.0256	18.936541	0.000238	2.375206	0.402371	-0.000024
1205	1.1980e+02	8.0161	18.908027	0.000287	2.866628	0.485620	-0.000029
1206	1.1990e+02	8.0047	18.885623	0.000225	2.252351	0.381559	-0.000023
1207	1.2000e+02	7.9946	18.855887	0.000299	2.989484	0.506432	-0.000030
1208	1.2010e+02	7.9846	18.830224	0.000258	2.579965	0.437058	-0.000026
1209	1.2020e+02	7.9760	18.808635	0.000217	2.170447	0.367684	-0.000022
1210	1.2030e+02	7.9665	18.783380	0.000254	2.539013	0.430121	-0.000025
1211	1.2039e+02	7.9571	18.754458	0.000291	2.907580	0.492557	-0.000029
1212	1.2049e+02	7.9478	18.731240	0.000233	2.334254	0.395433	-0.000023
1213	1.2059e+02	7.9333	18.705577	0.000258	2.579965	0.437058	-0.000026
1214	1.2069e+02	7.9283	18.681544	0.000242	2.416158	0.409308	-0.000024
1215	1.2079e+02	7.9162	18.651401	0.000303	3.030435	0.513370	-0.000030
1216	1.2089e+02	7.9046	18.622072	0.000295	2.948532	0.499495	-0.000029
1217	1.2099e+02	7.8944	18.599668	0.000225	2.252351	0.381559	-0.000023
1218	1.2109e+02	7.8875	18.576042	0.000238	2.375206	0.402371	-0.000024
1219	1.2119e+02	7.8775	18.545492	0.000307	3.071387	0.520307	-0.000031
1220	1.2129e+02	7.8643	18.519422	0.000262	2.620917	0.443995	-0.000026
1221	1.2139e+02	7.8543	18.495796	0.000238	2.375206	0.402371	-0.000024
1222	1.2149e+02	7.8450	18.464023	0.000319	3.194243	0.541119	-0.000032
1223	1.2159e+02	7.8369	18.441619	0.000225	2.252351	0.381559	-0.000023
1224	1.2169e+02	7.8261	18.417179	0.000246	2.457110	0.416246	-0.000025
1225	1.2179e+02	7.8152	18.390294	0.000270	2.702821	0.457870	-0.000027
1226	1.2189e+02	7.8068	18.365039	0.000254	2.539013	0.430121	-0.000025
1227	1.2199e+02	7.7943	18.333266	0.000319	3.194243	0.541119	-0.000032
1228	1.2209e+02	7.7857	18.309640	0.000238	2.375206	0.402371	-0.000024
1229	1.2219e+02	7.7762	18.278682	0.000311	3.112339	0.527245	-0.000031
1230	1.2229e+02	7.7670	18.256278	0.000225	2.252351	0.381559	-0.000023
1231	1.2239e+02	7.7588	18.228172	0.000283	2.825676	0.478683	-0.000028
1232	1.2248e+02	7.7467	18.198843	0.000295	2.948532	0.499495	-0.000029
1233	1.2258e+02	7.7351	18.176439	0.000225	2.252351	0.381559	-0.000023
1234	1.2268e+02	7.7255	18.148333	0.000283	2.825676	0.478683	-0.000028
1235	1.2278e+02	7.7174	18.121855	0.000266	2.661869	0.450933	-0.000027
1236	1.2288e+02	7.7051	18.093749	0.000283	2.825676	0.478683	-0.000028
1237	1.2298e+02	7.6958	18.069716	0.000242	2.416158	0.409308	-0.000024
1238	1.2308e+02	7.6865	18.037943	0.000319	3.194243	0.541119	-0.000032
1239	1.2318e+02	7.6768	18.009022	0.000291	2.907580	0.492557	-0.000029
1240	1.2328e+02	7.6688	17.984988	0.000242	2.416158	0.409308	-0.000024
1241	1.2338e+02	7.6579	17.955660	0.000295	2.948532	0.499495	-0.000029
1242	1.2348e+02	7.6437	17.929182	0.000266	2.661869	0.450933	-0.000027
1243	1.2358e+02	7.6357	17.903927	0.000254	2.539013	0.430121	-0.000025
1244	1.2368e+02	7.6274	17.875006	0.000291	2.907580	0.492557	-0.000029
1245	1.2378e+02	7.6189	17.847714	0.000274	2.743773	0.464808	-0.000027
1246	1.2388e+02	7.6068	17.822459	0.000254	2.539013	0.430121	-0.000025
1247	1.2398e+02	7.5977	17.791093	0.000315	3.153291	0.534182	-0.000032
1248	1.2408e+02	7.5900	17.764616	0.000266	2.661869	0.450933	-0.000027
1249	1.2418e+02	7.5768	17.738139	0.000266	2.661869	0.450933	-0.000027
1250	1.2428e+02	7.5674	17.710439	0.000278	2.784724	0.471745	-0.000028
1251	1.2438e+02	7.5568	17.687628	0.000229	2.293302	0.388496	-0.000023
1252	1.2447e+02	7.5478	17.662373	0.000254	2.539013	0.430121	-0.000025
1253	1.2457e+02	7.5391	17.633452	0.000291	2.907580	0.492557	-0.000029
1254	1.2467e+02	7.5237	17.606160	0.000274	2.743773	0.464808	-0.000027
1255	1.2477e+02	7.5178	17.574794	0.000315	3.153291	0.534182	-0.000032
1256	1.2487e+02	7.5069	17.549539	0.000254	2.539013	0.430121	-0.000025
1257	1.2497e+02	7.4951	17.520210	0.000295	2.948532	0.499495	-0.000029
1258	1.2507e+02	7.4886	17.492104	0.000283	2.825676	0.478683	-0.000028
1259	1.2517e+02	7.4780	17.462775	0.000295	2.948532	0.499495	-0.000029
1260	1.2527e+02	7.4664	17.435891	0.000270	2.702821	0.457870	-0.000027
1261	1.2537e+02	7.4561	17.409006	0.000270	2.702821	0.457870	-0.000027
1262	1.2547e+02	7.4499	17.378455	0.000307	3.071387	0.520307	-0.000031
1263	1.2557e+02	7.4388	17.354829	0.000238	2.375206	0.402371	-0.000024
1264	1.2567e+02	7.4272	17.325093	0.000299	2.989484	0.506432	-0.000030
1265	1.2577e+02	7.4184	17.300653	0.000246	2.457110	0.416246	-0.000025
1266	1.2587e+02	7.4081	17.268473	0.000324	3.235195	0.548057	-0.000032
1267	1.2597e+02	7.3980	17.240773	0.000278	2.784724	0.471745	-0.000028
1268	1.2607e+02	7.3906	17.214704	0.000262	2.620917	0.443995	-0.000026
1269	1.2617e+02	7.3785	17.179672	0.000352	3.521857	0.596619	-0.000035
1270	1.2627e+02	7.3651	17.150343	0.000295	2.948532	0.499495	-0.000029
1271	1.2636e+02	7.3592	17.123459	0.000270	2.702821	0.457870	-0.000027
1272	1.2646e+02	7.3477	17.092501	0.000311	3.112339	0.527245	-0.000031
1273	1.2656e+02	7.3392	17.064802	0.000278	2.784724	0.471745	-0.000028
1274	1.2666e+02	7.3272	17.039954	0.000250	2.498062	0.423183	-0.000025
1275	1.2676e+02	7.3194	17.011032	0.000291	2.907580	0.492557	-0.000029
1276	1.2686e+02	7.3081	16.980074	0.000311	3.112339	0.527245	-0.000031
1277	1.2696e+02	7.2977	16.952782	0.000274	2.743773	0.464808	-0.000027
1278	1.2706e+02	7.2884	16.925490	0.000274	2.743773	0.464808	-0.000027
1279	1.2716e+02	7.2785	16.895347	0.000303	3.030435	0.513370	-0.000030
1280	1.2726e+02	7.2669	16.867648	0.000278	2.784724	0.471745	-0.000028
1281	1.2736e+02	7.2601	16.838319	0.000295	2.948532	0.499495	-0.000029
1282	1.2746e+02	7.2461	16.804510	0.000340	3.399002	0.575807	-0.000034
1283	1.2756e+02	7.2396	16.780069	0.000246	2.457110	0.416246	-0.000025
1284	1.2766e+02	7.2272	16.748704	0.000315	3.153291	0.534182	-0.000032
1285	1.2776e+02	7.2187	16.722226	0.000266	2.661869	0.450933	-0.000027
1286	1.2786e+02	7.2076	16.692083	0.000303	3.030435	0.513370	-0.000030
1287	1.2796e+02	7.1990	16.663162	0.000291	2.907580	0.492557	-0.000029
1288	1.2806e+02	7.1893	16.639536	0.000238	2.375206	0.402371	-0.000024
1289	1.2816e+02	7.1804	16.607356	0.000324	3.235195	0.548057	-0.000032
1290	1.2826e+02	7.1682	16.574768	0.000328	3.276146	0.554994	-0.000033
1291	1.2835e+02	7.1592	16.545440	0.000295	2.948532	0.499495	-0.000029
1292	1.2845e+02	7.1500	16.516926	0.000287	2.866628	0.485620	-0.000029
1293	1.2855e+02	7.1402	16.485560	0.000315	3.153291	0.534182	-0.000032
1294	1.2865e+02	7.1304	16.461120	0.000246	2.457110	0.416246	-0.000025
1295	1.2875e+02	7.1206	16.432199	0.000291	2.907580	0.492557	-0.000029
1296	1.2885e+02	7.1081	16.401648	0.000307	3.071387	0.520307	-0.000031
1297	1.2895e+02	7.0987	16.371097	0.000307	3.071387	0.520307	-0.000031
1298	1.2905e+02	7.0892	16.340954	0.000303	3.030435	0.513370	-0.000030
1299	1.2915e+02	7.0794	16.316513	0.000246	2.457110	0.416246	-0.000025
1300	1.2925e+02	7.0722	16.283926	0.000328	3.276146	0.554994	-0.000033
1301	1.2935e+02	7.0599	16.255412	0.000287	2.866628	0.485620	-0.000029
1302	1.2945e+02	7.0504	16.224861	0.000307	3.071387	0.520307	-0.000031
1303	1.2955e+02	7.0415	16.195940	0.000291	2.907580	0.492557	-0.000029
1304	1.2965e+02	7.0302	16.165796	0.000303	3.030435	0.513370	-0.000030
1305	1.2975e+02	7.0199	16.135246	0.000307	3.071387	0.520307	-0.000031
1306	1.2985e+02	7.0086	16.105917	0.000295	2.948532	0.499495	-0.000029
1307	1.2995e+02	7.0002	16.074959	0.000311	3.112339	0.527245	-0.000031
1308	1.3005e+02	6.9913	16.044408	0.000307	3.071387	0.520307	-0.000031
1309	1.3015e+02	6.9808	16.018746	0.000258	2.579965	0.437058	-0.000026
1310	1.3025e+02	6.9704	15.986158	0.000328	3.276146	0.554994	-0.000033
1311	1.3034e+02	6.9613	15.957237	0.000291	2.907580	0.492557	-0.000029
1312	1.3044e+02	6.9488	15.927908	0.000295	2.948532	0.499495	-0.000029
1313	1.3054e+02	6.9420	15.898987	0.000291	2.907580	0.492557	-0.000029
1314	1.3064e+02	6.9305	15.872103	0.000270	2.702821	0.457870	-0.000027
1315	1.3074e+02	6.9166	15.841959	0.000303	3.030435	0.513370	-0.000030
1316	1.3084e+02	6.9109	15.812631	0.000295	2.948532	0.499495	-0.000029
1317	1.3094e+02	6.8987	15.778821	0.000340	3.399002	0.575807	-0.000034
1318	1.3104e+02	6.8914	15.751122	0.000278	2.784724	0.471745	-0.000028
1319	1.3114e+02	6.8804	15.722200	0.000291	2.907580	0.492557	-0.000029
1320	1.3124e+02	6.8684	15.688391	0.000340	3.399002	0.575807	-0.000034
1321	1.3134e+02	6.8597	15.660284	0.000283	2.825676	0.478683	-0.000028
1322	1.3144e+02	6.8507	15.628919	0.000315	3.153291	0.534182	-0.000032
1323	1.3154e+02	6.8412	15.600405	0.000287	2.866628	0.485620	-0.000029
1324	1.3164e+02	6.8309	15.568225	0.000324	3.235195	0.548057	-0.000032
1325	1.3174e+02	6.8215	15.537674	0.000307	3.071387	0.520307	-0.000031
1326	1.3184e+02	6.8105	15.509568	0.000283	2.825676	0.478683	-0.000028
1327	1.3194e+02	6.8024	15.479017	0.000307	3.071387	0.520307	-0.000031
1328	1.3204e+02	6.7896	15.452132	0.000270	2.702821	0.457870	-0.000027
1329	1.3214e+02	6.7825	15.420767	0.000315	3.153291	0.534182	-0.000032
1330	1.3224e+02	6.7707	15.387772	0.000332	3.317098	0.561932	-0.000033
1331	1.3234e+02	6.7623	15.358444	0.000295	2.948532	0.499495	-0.000029
1332	1.3243e+02	6.7482	15.329522	0.000291	2.907580	0.492557	-0.000029
1333	1.3253e+02	6.7421	15.295713	0.000340	3.399002	0.575807	-0.000034
1334	1.3263e+02	6.7286	15.267606	0.000283	2.825676	0.478683	-0.000028
1335	1.3273e+02	6.7224	15.236241	0.000315	3.153291	0.534182	-0.000032
1336	1.3283e+02	6.7119	15.197951	0.000385	3.849472	0.652118	-0.000038
1337	1.3293e+02	6.6992	15.164956	0.000332	3.317098	0.561932	-0.000033
1338	1.3303e+02	6.6901	15.140515	0.000246	2.457110	0.416246	-0.000025
1339	1.3313e+02	6.6810	15.110372	0.000303	3.030435	0.513370	-0.000030
1340	1.3323e+02	6.6709	15.084302	0.000262	2.620917	0.443995	-0.000026
1341	1.3333e+02	6.6636	15.047641	0.000369	3.685665	0.624369	-0.000037
1342	1.3343e+02	6.6506	15.019127	0.000287	2.866628	0.485620	-0.000029
1343	1.3353e+02	6.6425	14.992650	0.000266	2.661869	0.450933	-0.000027
1344	1.3363e+02	6.6308	14.956804	0.000360	3.603761	0.610494	-0.000036
1345	1.3373e+02	6.6241	14.928290	0.000287	2.866628	0.485620	-0.000029
1346	1.3383e+02	6.6128	14.897739	0.000307	3.071387	0.520307	-0.000031
1347	1.3393e+02	6.6042	14.865152	0.000328	3.276146	0.554994	-0.000033
1348	1.3403e+02	6.5927	14.832564	0.000328	3.276146	0.554994	-0.000033
1349	1.3413e+02	6.5810	14.799977	0.000328	3.276146	0.554994	-0.000033
1350	1.3423e+02	6.5702	14.773500	0.000266	2.661869	0.450933	-0.000027
1351	1.3432e+02	6.5637	14.741320	0.000324	3.235195	0.548057	-0.000032
1352	1.3442e+02	6.5533	14.709954	0.000315	3.153291	0.534182	-0.000032
1353	1.3452e+02	6.5424	14.677774	0.000324	3.235195	0.548057	-0.000032
1354	1.3462e+02	6.5301	14.650075	0.000278	2.784724	0.471745	-0.000028
1355	1.3472e+02	6.5253	14.621968	0.000283	2.825676	0.478683	-0.000028
1356	1.3482e+02	6.5105	14.591825	0.000303	3.030435	0.513370	-0.000030
1357	1.3492e+02	6.5018	14.557201	0.000348	3.480906	0.589681	-0.000035
1358	1.3502e+02	6.4950	14.527872	0.000295	2.948532	0.499495	-0.000029
1359	1.3512e+02	6.4836	14.496914	0.000311	3.112339	0.527245	-0.000031
1360	1.3522e+02	6.4688	14.464734	0.000324	3.235195	0.548057	-0.000032
1361	1.3532e+02	6.4620	14.438257	0.000266	2.661869	0.450933	-0.000027
1362	1.3542e+02	6.4520	14.402411	0.000360	3.603761	0.610494	-0.000036
1363	1.3552e+02	6.4442	14.372267	0.000303	3.030435	0.513370	-0.000030
1364	1.3562e+02	6.4342	14.340902	0.000315	3.153291	0.534182	-0.000032
1365	1.3572e+02	6.4225	14.308314	0.000328	3.276146	0.554994	-0.000033
1366	1.3582e+02	6.4133	14.278578	0.000299	2.989484	0.506432	-0.000030
1367	1.3592e+02	6.4028	14.247213	0.000315	3.153291	0.534182	-0.000032
1368	1.3602e+02	6.3921	14.213811	0.000336	3.358050	0.568869	-0.000034
1369	1.3612e+02	6.3811	14.183668	0.000303	3.030435	0.513370	-0.000030
1370	1.3622e+02	6.3721	14.151080	0.000328	3.276146	0.554994	-0.000033
1371	1.3631e+02	6.3625	14.122974	0.000283	2.825676	0.478683	-0.000028
1372	1.3641e+02	6.3512	14.089572	0.000336	3.358050	0.568869	-0.000034
1373	1.3651e+02	6.3448	14.056984	0.000328	3.276146	0.554994	-0.000033
1374	1.3661e+02	6.3338	14.024804	0.000324	3.235195	0.548057	-0.000032
1375	1.3671e+02	6.3253	13.992217	0.000328	3.276146	0.554994	-0.000033
1376	1.3681e+02	6.3146	13.959629	0.000328	3.276146	0.554994	-0.000033
1377	1.3691e+02	6.3042	13.927042	0.000328	3.276146	0.554994	-0.000033
1378	1.3701e+02	6.2948	13.900565	0.000266	2.661869	0.450933	-0.000027
1379	1.3711e+02	6.2852	13.867977	0.000328	3.276146	0.554994	-0.000033
1380	1.3721e+02	6.2746	13.838649	0.000295	2.948532	0.499495	-0.000029
1381	1.3731e+02	6.2652	13.804432	0.000344	3.439954	0.582744	-0.000034
1382	1.3741e+02	6.2560	13.772659	0.000319	3.194243	0.541119	-0.000032
1383	1.3751e+02	6.2444	13.740479	0.000324	3.235195	0.548057	-0.000032
1384	1.3761e+02	6.2344	13.707892	0.000328	3.276146	0.554994	-0.000033
1385	1.3771e+02	6.2257	13.674082	0.000340	3.399002	0.575807	-0.000034
1386	1.3781e+02	6.2135	13.645161	0.000291	2.907580	0.492557	-0.000029
1387	1.3791e+02	6.2044	13.614610	0.000307	3.071387	0.520307	-0.000031
1388	1.3801e+02	6.1936	13.580393	0.000344	3.439954	0.582744	-0.000034
1389	1.3811e+02	6.1848	13.549435	0.000311	3.112339	0.527245	-0.000031
1390	1.3821e+02	6.1752	13.518070	0.000315	3.153291	0.534182	-0.000032
1391	1.3831e+02	6.1644	13.484260	0.000340	3.399002	0.575807	-0.000034
1392	1.3840e+02	6.1570	13.452080	0.000324	3.235195	0.548057	-0.000032
1393	1.3850e+02	6.1445	13.421122	0.000311	3.112339	0.527245	-0.000031
1394	1.3860e+02	6.1345	13.388535	0.000328	3.276146	0.554994	-0.000033
1395	1.3870e+02	6.1254	13.360836	0.000278	2.784724	0.471745	-0.000028
1396	1.3880e+02	6.1135	13.327841	0.000332	3.317098	0.561932	-0.000033
1397	1.3890e+02	6.1045	13.291180	0.000369	3.685665	0.624369	-0.000037
1398	1.3900e+02	6.0946	13.259815	0.000315	3.153291	0.534182	-0.000032
1399	1.3910e+02	6.0889	13.226005	0.000340	3.399002	0.575807	-0.000034
1400	1.3920e+02	6.0760	13.191381	0.000348	3.480906	0.589681	-0.000035
1401	1.3930e+02	6.0671	13.163275	0.000283	2.825676	0.478683	-0.000028
1402	1.3940e+02	6.0551	13.129058	0.000344	3.439954	0.582744	-0.000034
1403	1.3950e+02	6.0449	13.097285	0.000319	3.194243	0.541119	-0.000032
1404	1.3960e+02	6.0333	13.064698	0.000328	3.276146	0.554994	-0.000033
1405	1.3970e+02	6.0284	13.035369	0.000295	2.948532	0.499495	-0.000029
1406	1.3980e+02	6.0157	12.998708	0.000369	3.685665	0.624369	-0.000037
1407	1.3990e+02	6.0059	12.968972	0.000299	2.989484	0.506432	-0.000030
1408	1.4000e+02	5.9964	12.932719	0.000364	3.644713	0.617431	-0.000036
1409	1.4010e+02	5.9866	12.902575	0.000303	3.030435	0.513370	-0.000030
1410	1.4020e+02	5.9754	12.869988	0.000328	3.276146	0.554994	-0.000033
1411	1.4029e+02	5.9661	12.835364	0.000348	3.480906	0.589681	-0.000035
1412	1.4039e+02	5.9566	12.801147	0.000344	3.439954	0.582744	-0.000034
1413	1.4049e+02	5.9447	12.769374	0.000319	3.194243	0.541119	-0.000032
1414	1.4059e+02	5.9367	12.738009	0.000315	3.153291	0.534182	-0.000032
1415	1.4069e+02	5.9275	12.705014	0.000332	3.317098	0.561932	-0.000033
1416	1.4079e+02	5.9141	12.670797	0.000344	3.439954	0.582744	-0.000034
1417	1.4089e+02	5.9073	12.636988	0.000340	3.399002	0.575807	-0.000034
1418	1.4099e+02	5.8944	12.607252	0.000299	2.989484	0.506432	-0.000030
1419	1.4109e+02	5.8843	12.573443	0.000340	3.399002	0.575807	-0.000034
1420	1.4119e+02	5.8768	12.544929	0.000287	2.866628	0.485620	-0.000029
1421	1.4129e+02	5.8654	12.511934	0.000332	3.317098	0.561932	-0.000033
1422	1.4139e+02	5.8586	12.477717	0.000344	3.439954	0.582744	-0.000034
1423	1.4149e+02	5.8445	12.441464	0.000364	3.644713	0.617431	-0.000036
1424	1.4159e+02	5.8376	12.412950	0.000287	2.866628	0.485620	-0.000029
1425	1.4169e+02	5.8264	12.377103	0.000360	3.603761	0.610494	-0.000036
1426	1.4179e+02	5.8166	12.339221	0.000381	3.808520	0.645181	-0.000038
1427	1.4189e+02	5.8024	12.311521	0.000278	2.784724	0.471745	-0.000028
1428	1.4199e+02	5.7963	12.274453	0.000373	3.726617	0.631306	-0.000037
1429	1.4209e+02	5.7861	12.240236	0.000344	3.439954	0.582744	-0.000034
1430	1.4219e+02	5.7774	12.209278	0.000311	3.112339	0.527245	-0.000031
1431	1.4228e+02	5.7653	12.177098	0.000324	3.235195	0.548057	-0.000032
1432	1.4238e+02	5.7554	12.141659	0.000356	3.562809	0.603556	-0.000036
1433	1.4248e+02	5.7500	12.111516	0.000303	3.030435	0.513370	-0.000030
1434	1.4258e+02	5.7325	12.076077	0.000356	3.562809	0.603556	-0.000036
1435	1.4268e+02	5.7268	12.041861	0.000344	3.439954	0.582744	-0.000034
1436	1.4278e+02	5.7146	12.008866	0.000332	3.317098	0.561932	-0.000033
1437	1.4288e+02	5.7072	11.973020	0.000360	3.603761	0.610494	-0.000036
1438	1.4298e+02	5.6956	11.940432	0.000328	3.276146	0.554994	-0.000033
1439	1.4308e+02	5.6861	11.907845	0.000328	3.276146	0.554994	-0.000033
1440	1.4318e+02	5.6770	11.869555	0.000385	3.849472	0.652118	-0.000038
1441	1.4328e+02	5.6661	11.837375	0.000324	3.235195	0.548057	-0.000032
1442	1.4338e+02	5.6583	11.799899	0.000377	3.767568	0.638243	-0.000038
1443	1.4348e+02	5.6466	11.764868	0.000352	3.521857	0.596619	-0.000035
1444	1.4358e+02	5.6361	11.733502	0.000315	3.153291	0.534182	-0.000032
1445	1.4368e+02	5.6264	11.701729	0.000319	3.194243	0.541119	-0.000032
1446	1.4378e+02	5.6161	11.667920	0.000340	3.399002	0.575807	-0.000034
1447	1.4388e+02	5.6069	11.632074	0.000360	3.603761	0.610494	-0.000036
1448	1.4398e+02	5.5957	11.599894	0.000324	3.235195	0.548057	-0.000032
1449	1.4408e+02	5.5880	11.562826	0.000373	3.726617	0.631306	-0.000037
1450	1.4418e+02	5.5787	11.532275	0.000307	3.071387	0.520307	-0.000031
1451	1.4428e+02	5.5676	11.498058	0.000344	3.439954	0.582744	-0.000034
1452	1.4437e+02	5.5569	11.460583	0.000377	3.767568	0.638243	-0.000038
1453	1.4447e+02	5.5494	11.428810	0.000319	3.194243	0.541119	-0.000032
1454	1.4457e+02	5.5376	11.395001	0.000340	3.399002	0.575807	-0.000034
1455	1.4467e+02	5.5280	11.361598	0.000336	3.358050	0.568869	-0.000034
1456	1.4477e+02	5.5181	11.327382	0.000344	3.439954	0.582744	-0.000034
1457	1.4487e+02	5.5035	11.291536	0.000360	3.603761	0.610494	-0.000036
1458	1.4497e+02	5.4996	11.259763	0.000319	3.194243	0.541119	-0.000032
1459	1.4507e+02	5.4871	11.221473	0.000385	3.849472	0.652118	-0.000038
1460	1.4517e+02	5.4785	11.188885	0.000328	3.276146	0.554994	-0.000033
1461	1.4527e+02	5.4710	11.153854	0.000352	3.521857	0.596619	-0.000035
1462	1.4537e+02	5.4587	11.119230	0.000348	3.480906	0.589681	-0.000035
1463	1.4547e+02	5.4479	11.087050	0.000324	3.235195	0.548057	-0.000032
1464	1.4557e+02	5.4391	11.047537	0.000397	3.972328	0.672930	-0.000040
1465	1.4567e+02	5.4288	11.014135	0.000336	3.358050	0.568869	-0.000034
1466	1.4577e+02	5.4192	10.979511	0.000348	3.480906	0.589681	-0.000035
1467	1.4587e+02	5.4089	10.948146	0.000315	3.153291	0.534182	-0.000032
1468	1.4597e+02	5.3996	10.914744	0.000336	3.358050	0.568869	-0.000034
1469	1.4607e+02	5.3923	10.876046	0.000389	3.890424	0.659056	-0.000039
1470	1.4617e+02	5.3808	10.842237	0.000340	3.399002	0.575807	-0.000034
1471	1.4626e+02	5.3667	10.805983	0.000364	3.644713	0.617431	-0.000036
1472	1.4636e+02	5.3568	10.774210	0.000319	3.194243	0.541119	-0.000032
1473	1.4646e+02	5.3503	10.736735	0.000377	3.767568	0.638243	-0.000038
1474	1.4656e+02	5.3413	10.702926	0.000340	3.399002	0.575807	-0.000034
1475	1.4666e+02	5.3301	10.665450	0.000377	3.767568	0.638243	-0.000038
1476	1.4676e+02	5.3176	10.631641	0.000340	3.399002	0.575807	-0.000034
1477	1.4686e+02	5.3075	10.597016	0.000348	3.480906	0.589681	-0.000035
1478	1.4696e+02	5.2981	10.561170	0.000360	3.603761	0.610494	-0.000036
1479	1.4706e+02	5.2895	10.525732	0.000356	3.562809	0.603556	-0.000036
1480	1.4716e+02	5.2807	10.492329	0.000336	3.358050	0.568869	-0.000034
1481	1.4726e+02	5.2682	10.456483	0.000360	3.603761	0.610494	-0.000036
1482	1.4736e+02	5.2574	10.418600	0.000381	3.808520	0.645181	-0.000038
1483	1.4746e+02	5.2494	10.388864	0.000299	2.989484	0.506432	-0.000030
1484	1.4756e+02	5.2364	10.351389	0.000377	3.767568	0.638243	-0.000038
1485	1.4766e+02	5.2296	10.316765	0.000348	3.480906	0.589681	-0.000035
1486	1.4776e+02	5.2190	10.284992	0.000319	3.194243	0.541119	-0.000032
1487	1.4786e+02	5.2103	10.245480	0.000397	3.972328	0.672930	-0.000040
1488	1.4796e+02	5.2006	10.212485	0.000332	3.317098	0.561932	-0.000033
1489	1.4806e+02	5.1906	10.174195	0.000385	3.849472	0.652118	-0.000038
1490	1.4816e+02	5.1800	10.140793	0.000336	3.358050	0.568869	-0.000034
1491	1.4825e+02	5.1707	10.107798	0.000332	3.317098	0.561932	-0.000033
1492	1.4835e+02	5.1604	10.072359	0.000356	3.562809	0.603556	-0.000036
1493	1.4845e+02	5.1501	10.034884	0.000377	3.767568	0.638243	-0.000038
1494	1.4855e+02	5.1409	10.000667	0.000344	3.439954	0.582744	-0.000034
1495	1.4865e+02	5.1298	9.966450	0.000344	3.439954	0.582744	-0.000034
1496	1.4875e+02	5.1214	9.928975	0.000377	3.767568	0.638243	-0.000038
1497	1.4885e+02	5.1066	9.893129	0.000360	3.603761	0.610494	-0.000036
1498	1.4895e+02	5.0991	9.858097	0.000352	3.521857	0.596619	-0.000035
1499	1.4905e+02	5.0880	9.823473	0.000348	3.480906	0.589681	-0.000035
1500	1.4915e+02	5.0805	9.785590	0.000381	3.808520	0.645181	-0.000038
1501	1.4925e+02	5.0690	9.749744	0.000360	3.603761	0.610494	-0.000036
1502	1.4935e+02	5.0583	9.709824	0.000401	4.013279	0.679868	-0.000040
1503	1.4945e+02	5.0510	9.673164	0.000369	3.685665	0.624369	-0.000037
1504	1.4955e+02	5.0408	9.639761	0.000336	3.358050	0.568869	-0.000034
1505	1.4965e+02	5.0299	9.600657	0.000393	3.931376	0.665993	-0.000039
1506	1.4975e+02	5.0217	9.567662	0.000332	3.317098	0.561932	-0.000033
1507	1.4985e+02	5.0094	9.533852	0.000340	3.399002	0.575807	-0.000034
1508	1.4995e+02	4.9958	9.494340	0.000397	3.972328	0.672930	-0.000040
1509	1.5005e+02	4.9923	9.459716	0.000348	3.480906	0.589681	-0.000035
1510	1.5015e+02	4.9802	9.423870	0.000360	3.603761	0.610494	-0.000036
1511	1.5025e+02	4.9707	9.390875	0.000332	3.317098	0.561932	-0.000033
1512	1.5034e+02	4.9606	9.354622	0.000364	3.644713	0.617431	-0.000036
1513	1.5044e+02	4.9516	9.317961	0.000369	3.685665	0.624369	-0.000037
1514	1.5054e+02	4.9387	9.280485	0.000377	3.767568	0.638243	-0.000038
1515	1.5064e+02	4.9320	9.240566	0.000401	4.013279	0.679868	-0.000040
1516	1.5074e+02	4.9233	9.205942	0.000348	3.480906	0.589681	-0.000035
1517	1.5084e+02	4.9114	9.170096	0.000360	3.603761	0.610494	-0.000036
1518	1.5094e+02	4.9003	9.137101	0.000332	3.317098	0.561932	-0.000033
1519	1.5104e+02	4.8909	9.100440	0.000369	3.685665	0.624369	-0.000037
1520	1.5114e+02	4.8798	9.062964	0.000377	3.767568	0.638243	-0.000038
1521	1.5124e+02	4.8710	9.028340	0.000348	3.480906	0.589681	-0.000035
1522	1.5134e+02	4.8585	8.994531	0.000340	3.399002	0.575807	-0.000034
1523	1.5144e+02	4.8525	8.961536	0.000332	3.317098	0.561932	-0.000033
1524	1.5154e+02	4.8415	8.920802	0.000410	4.095183	0.693743	-0.000041
1525	1.5164e+02	4.8306	8.882512	0.000385	3.849472	0.652118	-0.000038
1526	1.5174e+02	4.8202	8.847073	0.000356	3.562809	0.603556	-0.000036
1527	1.5184e+02	4.8101	8.812856	0.000344	3.439954	0.582744	-0.000034
1528	1.5194e+02	4.8011	8.774973	0.000381	3.808520	0.645181	-0.000038
1529	1.5204e+02	4.7916	8.737905	0.000373	3.726617	0.631306	-0.000037
1530	1.5214e+02	4.7839	8.702466	0.000356	3.562809	0.603556	-0.000036
1531	1.5224e+02	4.7690	8.666213	0.000364	3.644713	0.617431	-0.000036
1532	1.5233e+02	4.7610	8.632403	0.000340	3.399002	0.575807	-0.000034
1533	1.5243e+02	4.7518	8.593706	0.000389	3.890424	0.659056	-0.000039
1534	1.5253e+02	4.7417	8.554601	0.000393	3.931376	0.665993	-0.000039
1535	1.5263e+02	4.7332	8.517940	0.000369	3.685665	0.624369	-0.000037
1536	1.5273e+02	4.7233	8.481687	0.000364	3.644713	0.617431	-0.000036
1537	1.5283e+02	4.7121	8.447062	0.000348	3.480906	0.589681	-0.000035
1538	1.5293e+02	4.7008	8.405921	0.000414	4.136135	0.700680	-0.000041
1539	1.5303e+02	4.6947	8.370075	0.000360	3.603761	0.610494	-0.000036
1540	1.5313e+02	4.6803	8.334636	0.000356	3.562809	0.603556	-0.000036
1541	1.5323e+02	4.6728	8.301234	0.000336	3.358050	0.568869	-0.000034
1542	1.5333e+02	4.6637	8.260092	0.000414	4.136135	0.700680	-0.000041
1543	1.5343e+02	4.6525	8.226283	0.000340	3.399002	0.575807	-0.000034
1544	1.5353e+02	4.6423	8.184734	0.000418	4.177087	0.707618	-0.000042
1545	1.5363e+02	4.6302	8.148888	0.000360	3.603761	0.610494	-0.000036
1546	1.5373e+02	4.6218	8.112634	0.000364	3.644713	0.617431	-0.000036
1547	1.5383e+02	4.6127	8.077195	0.000356	3.562809	0.603556	-0.000036
1548	1.5393e+02	4.6013	8.037276	0.000401	4.013279	0.679868	-0.000040
1549	1.5403e+02	4.5926	7.998578	0.000389	3.890424	0.659056	-0.000039
1550	1.5413e+02	4.5831	7.962325	0.000364	3.644713	0.617431	-0.000036
1551	1.5422e+02	4.5737	7.923220	0.000393	3.931376	0.665993	-0.000039
1552	1.5432e+02	4.5653	7.884115	0.000393	3.931376	0.665993	-0.000039
1553	1.5442e+02	4.5522	7.852750	0.000315	3.153291	0.534182	-0.000032
1554	1.5452e+02	4.5425	7.816496	0.000364	3.644713	0.617431	-0.000036
1555	1.5462e+02	4.5342	7.776169	0.000405	4.054231	0.686805	-0.000041
1556	1.5472e+02	4.5248	7.738286	0.000381	3.808520	0.645181	-0.000038
1557	1.5482e+02	4.5153	7.702848	0.000356	3.562809	0.603556	-0.000036
1558	1.5492e+02	4.5028	7.665372	0.000377	3.767568	0.638243	-0.000038
1559	1.5502e+02	4.4941	7.625860	0.000397	3.972328	0.672930	-0.000040
1560	1.5512e+02	4.4820	7.588384	0.000377	3.767568	0.638243	-0.000038
1561	1.5522e+02	4.4753	7.548057	0.000405	4.054231	0.686805	-0.000041
1562	1.5532e+02	4.4611	7.511804	0.000364	3.644713	0.617431	-0.000036
1563	1.5542e+02	4.4540	7.473514	0.000385	3.849472	0.652118	-0.000038
1564	1.5552e+02	4.4434	7.437668	0.000360	3.603761	0.610494	-0.000036
1565	1.5562e+02	4.4337	7.397341	0.000405	4.054231	0.686805	-0.000041
1566	1.5572e+02	4.4195	7.358643	0.000389	3.890424	0.659056	-0.000039
1567	1.5582e+02	4.4109	7.323612	0.000352	3.521857	0.596619	-0.000035
1568	1.5592e+02	4.4039	7.282877	0.000410	4.095183	0.693743	-0.000041
1569	1.5602e+02	4.3931	7.248661	0.000344	3.439954	0.582744	-0.000034
1570	1.5612e+02	4.3834	7.208334	0.000405	4.054231	0.686805	-0.000041
1571	1.5622e+02	4.3740	7.172488	0.000360	3.603761	0.610494	-0.000036
1572	1.5631e+02	4.3616	7.131346	0.000414	4.136135	0.700680	-0.000041
1573	1.5641e+02	4.3556	7.093463	0.000381	3.808520	0.645181	-0.000038
1574	1.5651e+02	4.3436	7.056395	0.000373	3.726617	0.631306	-0.000037
1575	1.5661e+02	4.3340	7.014031	0.000426	4.258990	0.721492	-0.000043
1576	1.5671e+02	4.3224	6.978593	0.000356	3.562809	0.603556	-0.000036
1577	1.5681e+02	4.3132	6.938673	0.000401	4.013279	0.679868	-0.000040
1578	1.5691e+02	4.3050	6.902012	0.000369	3.685665	0.624369	-0.000037
1579	1.5701e+02	4.2924	6.863722	0.000385	3.849472	0.652118	-0.000038
1580	1.5711e+02	4.2846	6.823395	0.000405	4.054231	0.686805	-0.000041
1581	1.5721e+02	4.2754	6.787549	0.000360	3.603761	0.610494	-0.000036
1582	1.5731e+02	4.2640	6.745185	0.000426	4.258990	0.721492	-0.000043
1583	1.5741e+02	4.2532	6.709747	0.000356	3.562809	0.603556	-0.000036
1584	1.5751e+02	4.2455	6.675530	0.000344	3.439954	0.582744	-0.000034
1585	1.5761e+02	4.2326	6.633573	0.000422	4.218038	0.714555	-0.000042
1586	1.5771e+02	4.2230	6.598135	0.000356	3.562809	0.603556	-0.000036
1587	1.5781e+02	4.2149	6.554549	0.000438	4.381846	0.742305	-0.000044
1588	1.5791e+02	4.2056	6.518703	0.000360	3.603761	0.610494	-0.000036
1589	1.5801e+02	4.1965	6.477154	0.000418	4.177087	0.707618	-0.000042
1590	1.5811e+02	4.1840	6.438456	0.000389	3.890424	0.659056	-0.000039
1591	1.5821e+02	4.1747	6.400166	0.000385	3.849472	0.652118	-0.000038
1592	1.5830e+02	4.1637	6.361061	0.000393	3.931376	0.665993	-0.000039
1593	1.5840e+02	4.1541	6.326030	0.000352	3.521857	0.596619	-0.000035
1594	1.5850e+02	4.1432	6.282037	0.000442	4.422798	0.749242	-0.000044
1595	1.5860e+02	4.1357	6.246191	0.000360	3.603761	0.610494	-0.000036
1596	1.5870e+02	4.1266	6.205049	0.000414	4.136135	0.700680	-0.000041
1597	1.5880e+02	4.1149	6.167981	0.000373	3.726617	0.631306	-0.000037
1598	1.5890e+02	4.1045	6.128469	0.000397	3.972328	0.672930	-0.000040
1599	1.5900e+02	4.0955	6.090178	0.000385	3.849472	0.652118	-0.000038
1600	1.5910e+02	4.0817	6.049444	0.000410	4.095183	0.693743	-0.000041
1601	1.5920e+02	4.0751	6.008710	0.000410	4.095183	0.693743	-0.000041
1602	1.5930e+02	4.0656	5.967976	0.000410	4.095183	0.693743	-0.000041
1603	1.5940e+02	4.0522	5.932130	0.000360	3.603761	0.610494	-0.000036
1604	1.5950e+02	4.0463	5.888951	0.000434	4.340894	0.735367	-0.000043
1605	1.5960e+02	4.0346	5.851068	0.000381	3.808520	0.645181	-0.000038
1606	1.5970e+02	4.0263	5.809927	0.000414	4.136135	0.700680	-0.000041
1607	1.5980e+02	4.0182	5.767971	0.000422	4.218038	0.714555	-0.000042
1608	1.5990e+02	4.0038	5.728051	0.000401	4.013279	0.679868	-0.000040
1609	1.6000e+02	3.9954	5.688131	0.000401	4.013279	0.679868	-0.000040
1610	1.6010e+02	3.9870	5.652285	0.000360	3.603761	0.610494	-0.000036
1611	1.6019e+02	3.9773	5.609514	0.000430	4.299942	0.728430	-0.000043
1612	1.6029e+02	3.9649	5.570817	0.000389	3.890424	0.659056	-0.000039
1613	1.6039e+02	3.9568	5.532119	0.000389	3.890424	0.659056	-0.000039
1614	1.6049e+02	3.9469	5.489756	0.000426	4.258990	0.721492	-0.000043
1615	1.6059e+02	3.9373	5.450651	0.000393	3.931376	0.665993	-0.000039
1616	1.6069e+02	3.9277	5.413583	0.000373	3.726617	0.631306	-0.000037
1617	1.6079e+02	3.9138	5.370812	0.000430	4.299942	0.728430	-0.000043
1618	1.6089e+02	3.9075	5.329670	0.000414	4.136135	0.700680	-0.000041
1619	1.6099e+02	3.8957	5.290972	0.000389	3.890424	0.659056	-0.000039
1620	1.6109e+02	3.8853	5.254719	0.000364	3.644713	0.617431	-0.000036
1621	1.6119e+02	3.8760	5.209097	0.000459	4.586605	0.776992	-0.000046
1622	1.6129e+02	3.8662	5.170806	0.000385	3.849472	0.652118	-0.000038
1623	1.6139e+02	3.8567	5.128850	0.000422	4.218038	0.714555	-0.000042
1624	1.6149e+02	3.8445	5.087301	0.000418	4.177087	0.707618	-0.000042
1625	1.6159e+02	3.8354	5.049011	0.000385	3.849472	0.652118	-0.000038
1626	1.6169e+02	3.8282	5.010313	0.000389	3.890424	0.659056	-0.000039
1627	1.6179e+02	3.8201	4.969986	0.000405	4.054231	0.686805	-0.000041
1628	1.6189e+02	3.8068	4.926401	0.000438	4.381846	0.742305	-0.000044
1629	1.6199e+02	3.7959	4.886481	0.000401	4.013279	0.679868	-0.000040
1630	1.6209e+02	3.7881	4.844932	0.000418	4.177087	0.707618	-0.000042
1631	1.6219e+02	3.7790	4.808271	0.000369	3.685665	0.624369	-0.000037
1632	1.6228e+02	3.7658	4.768352	0.000401	4.013279	0.679868	-0.000040
1633	1.6238e+02	3.7579	4.728025	0.000405	4.054231	0.686805	-0.000041
1634	1.6248e+02	3.7446	4.686476	0.000418	4.177087	0.707618	-0.000042
1635	1.6258e+02	3.7377	4.644927	0.000418	4.177087	0.707618	-0.000042
1636	1.6268e+02	3.7264	4.607859	0.000373	3.726617	0.631306	-0.000037
1637	1.6278e+02	3.7185	4.565903	0.000422	4.218038	0.714555	-0.000042
1638	1.6288e+02	3.7067	4.521502	0.000446	4.463749	0.756180	-0.000045
1639	1.6298e+02	3.6977	4.478324	0.000434	4.340894	0.735367	-0.000043
1640	1.6308e+02	3.6866	4.440848	0.000377	3.767568	0.638243	-0.000038
1641	1.6318e+02	3.6760	4.400522	0.000405	4.054231	0.686805	-0.000041
1642	1.6328e+02	3.6669	4.353677	0.000471	4.709460	0.797804	-0.000047
1643	1.6338e+02	3.6564	4.315387	0.000385	3.849472	0.652118	-0.000038
1644	1.6348e+02	3.6489	4.276689	0.000389	3.890424	0.659056	-0.000039
1645	1.6358e+02	3.6350	4.234733	0.000422	4.218038	0.714555	-0.000042
1646	1.6368e+02	3.6282	4.193184	0.000418	4.177087	0.707618	-0.000042
1647	1.6378e+02	3.6173	4.154894	0.000385	3.849472	0.652118	-0.000038
1648	1.6388e+02	3.6079	4.112123	0.000430	4.299942	0.728430	-0.000043
1649	1.6398e+02	3.5995	4.071389	0.000410	4.095183	0.693743	-0.000041
1650	1.6408e+02	3.5876	4.026988	0.000446	4.463749	0.756180	-0.000045
1651	1.6418e+02	3.5773	3.988698	0.000385	3.849472	0.652118	-0.000038
1652	1.6427e+02	3.5679	3.944705	0.000442	4.422798	0.749242	-0.000044
1653	1.6437e+02	3.5585	3.901934	0.000430	4.299942	0.728430	-0.000043
1654	1.6447e+02	3.5479	3.862829	0.000393	3.931376	0.665993	-0.000039
1655	1.6457e+02	3.5390	3.819651	0.000434	4.340894	0.735367	-0.000043
1656	1.6467e+02	3.5287	3.776880	0.000430	4.299942	0.728430	-0.000043
1657	1.6477e+02	3.5162	3.738183	0.000389	3.890424	0.659056	-0.000039
1658	1.6487e+02	3.5072	3.698263	0.000401	4.013279	0.679868	-0.000040
1659	1.6497e+02	3.4985	3.653863	0.000446	4.463749	0.756180	-0.000045
1660	1.6507e+02	3.4859	3.614350	0.000397	3.972328	0.672930	-0.000040
1661	1.6517e+02	3.4786	3.567099	0.000475	4.750412	0.804742	-0.000047
1662	1.6527e+02	3.4706	3.531253	0.000360	3.603761	0.610494	-0.000036
1663	1.6537e+02	3.4588	3.485630	0.000459	4.586605	0.776992	-0.000046
1664	1.6547e+02	3.4484	3.448562	0.000373	3.726617	0.631306	-0.000037
1665	1.6557e+02	3.4378	3.402125	0.000467	4.668509	0.790867	-0.000047
1666	1.6567e+02	3.4310	3.360576	0.000418	4.177087	0.707618	-0.000042
1667	1.6577e+02	3.4186	3.319027	0.000418	4.177087	0.707618	-0.000042
1668	1.6587e+02	3.4100	3.277886	0.000414	4.136135	0.700680	-0.000041
1669	1.6597e+02	3.4010	3.231041	0.000471	4.709460	0.797804	-0.000047
1670	1.6607e+02	3.3860	3.190307	0.000410	4.095183	0.693743	-0.000041
1671	1.6616e+02	3.3794	3.146721	0.000438	4.381846	0.742305	-0.000044
1672	1.6626e+02	3.3694	3.101914	0.000450	4.504701	0.763117	-0.000045
1673	1.6636e+02	3.3568	3.062809	0.000393	3.931376	0.665993	-0.000039
1674	1.6646e+02	3.3465	3.023296	0.000397	3.972328	0.672930	-0.000040
1675	1.6656e+02	3.3410	2.978896	0.000446	4.463749	0.756180	-0.000045
1676	1.6666e+02	3.3306	2.935718	0.000434	4.340894	0.735367	-0.000043
1677	1.6676e+02	3.3183	2.892947	0.000430	4.299942	0.728430	-0.000043
1678	1.6686e+02	3.3103	2.851398	0.000418	4.177087	0.707618	-0.000042
1679	1.6696e+02	3.2980	2.808220	0.000434	4.340894	0.735367	-0.000043
1680	1.6706e+02	3.2880	2.765041	0.000434	4.340894	0.735367	-0.000043
1681	1.6716e+02	3.2786	2.723900	0.000414	4.136135	0.700680	-0.000041
1682	1.6726e+02	3.2693	2.677870	0.000463	4.627557	0.783929	-0.000046
1683	1.6736e+02	3.2573	2.633062	0.000450	4.504701	0.763117	-0.000045
1684	1.6746e+02	3.2491	2.591513	0.000418	4.177087	0.707618	-0.000042
1685	1.6756e+02	3.2394	2.548742	0.000430	4.299942	0.728430	-0.000043
1686	1.6766e+02	3.2288	2.510859	0.000381	3.808520	0.645181	-0.000038
1687	1.6776e+02	3.2204	2.465644	0.000455	4.545653	0.770054	-0.000045
1688	1.6786e+02	3.2122	2.425318	0.000405	4.054231	0.686805	-0.000041
1689	1.6796e+02	3.1960	2.381325	0.000442	4.422798	0.749242	-0.000044
1690	1.6806e+02	3.1882	2.338961	0.000426	4.258990	0.721492	-0.000043
1691	1.6816e+02	3.1792	2.300671	0.000385	3.849472	0.652118	-0.000038
1692	1.6825e+02	3.1715	2.253012	0.000479	4.791364	0.811679	-0.000048
1693	1.6835e+02	3.1594	2.212277	0.000410	4.095183	0.693743	-0.000041
1694	1.6845e+02	3.1499	2.167062	0.000455	4.545653	0.770054	-0.000045
1695	1.6855e+02	3.1438	2.125513	0.000418	4.177087	0.707618	-0.000042
1696	1.6865e+02	3.1314	2.081113	0.000446	4.463749	0.756180	-0.000045
1697	1.6875e+02	3.1210	2.037120	0.000442	4.422798	0.749242	-0.000044
1698	1.6885e+02	3.1094	1.993127	0.000442	4.422798	0.749242	-0.000044
1699	1.6895e+02	3.0990	1.955244	0.000381	3.808520	0.645181	-0.000038
1700	1.6905e+02	3.0904	1.906363	0.000491	4.914220	0.832491	-0.000049
1701	1.6915e+02	3.0791	1.864407	0.000422	4.218038	0.714555	-0.000042
1702	1.6925e+02	3.0707	1.821229	0.000434	4.340894	0.735367	-0.000043
1703	1.6935e+02	3.0618	1.775606	0.000459	4.586605	0.776992	-0.000046
1704	1.6945e+02	3.0473	1.731613	0.000442	4.422798	0.749242	-0.000044
1705	1.6955e+02	3.0369	1.688028	0.000438	4.381846	0.742305	-0.000044
1706	1.6965e+02	3.0286	1.644035	0.000442	4.422798	0.749242	-0.000044
1707	1.6975e+02	3.0211	1.604522	0.000397	3.972328	0.672930	-0.000040
1708	1.6985e+02	3.0106	1.556863	0.000479	4.791364	0.811679	-0.000048
1709	1.6995e+02	3.0007	1.512056	0.000450	4.504701	0.763117	-0.000045
1710	1.7005e+02	2.9940	1.469692	0.000426	4.258990	0.721492	-0.000043
1711	1.7015e+02	2.9800	1.426514	0.000434	4.340894	0.735367	-0.000043
1712	1.7024e+02	2.9681	1.381706	0.000450	4.504701	0.763117	-0.000045
1713	1.7034e+02	2.9613	1.338120	0.000438	4.381846	0.742305	-0.000044
1714	1.7044e+02	2.9494	1.294127	0.000442	4.422798	0.749242	-0.000044
1715	1.7054e+02	2.9406	1.251764	0.000426	4.258990	0.721492	-0.000043
1716	1.7064e+02	2.9298	1.207771	0.000442	4.422798	0.749242	-0.000044
1717	1.7074e+02	2.9189	1.162963	0.000450	4.504701	0.763117	-0.000045
1718	1.7084e+02	2.9092	1.114897	0.000483	4.832316	0.818616	-0.000048
1719	1.7094e+02	2.9012	1.073348	0.000418	4.177087	0.707618	-0.000042
1720	1.7104e+02	2.8913	1.028133	0.000455	4.545653	0.770054	-0.000045
1721	1.7114e+02	2.8823	0.986991	0.000414	4.136135	0.700680	-0.000041
1722	1.7124e+02	2.8708	0.941776	0.000455	4.545653	0.770054	-0.000045
1723	1.7134e+02	2.8609	0.897376	0.000446	4.463749	0.756180	-0.000045
1724	1.7144e+02	2.8532	0.851753	0.000459	4.586605	0.776992	-0.000046
1725	1.7154e+02	2.8387	0.804094	0.000479	4.791364	0.811679	-0.000048
1726	1.7164e+02	2.8292	0.764175	0.000401	4.013279	0.679868	-0.000040
1727	1.7174e+02	2.8212	0.715294	0.000491	4.914220	0.832491	-0.000049
1728	1.7184e+02	2.8110	0.674152	0.000414	4.136135	0.700680	-0.000041
1729	1.7194e+02	2.8004	0.628530	0.000459	4.586605	0.776992	-0.000046
1730	1.7204e+02	2.7895	0.580870	0.000479	4.791364	0.811679	-0.000048
1731	1.7213e+02	2.7827	0.536470	0.000446	4.463749	0.756180	-0.000045
1732	1.7223e+02	2.7728	0.490033	0.000467	4.668509	0.790867	-0.000047
1733	1.7233e+02	2.7599	0.444411	0.000459	4.586605	0.776992	-0.000046
1734	1.7243e+02	2.7526	0.399603	0.000450	4.504701	0.763117	-0.000045
1735	1.7253e+02	2.7410	0.354388	0.000455	4.545653	0.770054	-0.000045
1736	1.7263e+02	2.7328	0.310802	0.000438	4.381846	0.742305	-0.000044
1737	1.7273e+02	2.7254	0.264773	0.000463	4.627557	0.783929	-0.000046
1738	1.7283e+02	2.7099	0.221594	0.000434	4.340894	0.735367	-0.000043
1739	1.7293e+02	2.7055	0.176379	0.000455	4.545653	0.770054	-0.000045
1740	1.7303e+02	2.6919	0.129942	0.000467	4.668509	0.790867	-0.000047
1741	1.7313e+02	2.6817	0.085949	0.000442	4.422798	0.749242	-0.000044
1742	1.7323e+02	2.6708	0.036661	0.000496	4.955171	0.839429	-0.000050
1743	1.7333e+02	2.6614	-0.010184	0.000471	4.709460	0.797804	-0.000047
1744	1.7343e+02	2.6507	-0.051325	0.000414	4.136135	0.700680	-0.000041
1745	1.7353e+02	2.6414	-0.097762	0.000467	4.668509	0.790867	-0.000047
1746	1.7363e+02	2.6340	-0.142570	0.000450	4.504701	0.763117	-0.000045
1747	1.7373e+02	2.6227	-0.190636	0.000483	4.832316	0.818616	-0.000048
1748	1.7383e+02	2.6155	-0.238703	0.000483	4.832316	0.818616	-0.000048
1749	1.7393e+02	2.6038	-0.281066	0.000426	4.258990	0.721492	-0.000043
1750	1.7403e+02	2.5908	-0.330762	0.000500	4.996123	0.846366	-0.000050
1751	1.7413e+02	2.5816	-0.373533	0.000430	4.299942	0.728430	-0.000043
1752	1.7422e+02	2.5735	-0.417119	0.000438	4.381846	0.742305	-0.000044
1753	1.7432e+02	2.5634	-0.466000	0.000491	4.914220	0.832491	-0.000049
1754	1.7442e+02	2.5558	-0.510400	0.000446	4.463749	0.756180	-0.000045
1755	1.7452e+02	2.5407	-0.556430	0.000463	4.627557	0.783929	-0.000046
1756	1.7462e+02	2.5313	-0.597979	0.000418	4.177087	0.707618	-0.000042
1757	1.7472e+02	2.5222	-0.645638	0.000479	4.791364	0.811679	-0.000048
1758	1.7482e+02	2.5140	-0.692075	0.000467	4.668509	0.790867	-0.000047
1759	1.7492e+02	2.5031	-0.739327	0.000475	4.750412	0.804742	-0.000047
1760	1.7502e+02	2.4932	-0.786578	0.000475	4.750412	0.804742	-0.000047
1761	1.7512e+02	2.4825	-0.830164	0.000438	4.381846	0.742305	-0.000044
1762	1.7522e+02	2.4729	-0.879453	0.000496	4.955171	0.839429	-0.000050
1763	1.7532e+02	2.4632	-0.927519	0.000483	4.832316	0.818616	-0.000048
1764	1.7542e+02	2.4505	-0.967846	0.000405	4.054231	0.686805	-0.000041
1765	1.7552e+02	2.4436	-1.018356	0.000508	5.078027	0.860241	-0.000051
1766	1.7562e+02	2.4326	-1.064793	0.000467	4.668509	0.790867	-0.000047
1767	1.7572e+02	2.4214	-1.110008	0.000455	4.545653	0.770054	-0.000045
1768	1.7582e+02	2.4139	-1.160112	0.000504	5.037075	0.853304	-0.000050
1769	1.7592e+02	2.4041	-1.203697	0.000438	4.381846	0.742305	-0.000044
1770	1.7602e+02	2.3945	-1.254615	0.000512	5.118979	0.867178	-0.000051
1771	1.7612e+02	2.3823	-1.298201	0.000438	4.381846	0.742305	-0.000044
1772	1.7621e+02	2.3715	-1.350341	0.000524	5.241834	0.887991	-0.000052
1773	1.7631e+02	2.3655	-1.396778	0.000467	4.668509	0.790867	-0.000047
1774	1.7641e+02	2.3573	-1.441993	0.000455	4.545653	0.770054	-0.000045
1775	1.7651e+02	2.3431	-1.491281	0.000496	4.955171	0.839429	-0.000050
1776	1.7661e+02	2.3333	-1.539348	0.000483	4.832316	0.818616	-0.000048
1777	1.7671e+02	2.3250	-1.587821	0.000487	4.873268	0.825554	-0.000049
1778	1.7681e+02	2.3132	-1.634258	0.000467	4.668509	0.790867	-0.000047
1779	1.7691e+02	2.3025	-1.679473	0.000455	4.545653	0.770054	-0.000045
1780	1.7701e+02	2.2942	-1.731206	0.000520	5.200882	0.881053	-0.000052
1781	1.7711e+02	2.2852	-1.777236	0.000463	4.627557	0.783929	-0.000046
1782	1.7721e+02	2.2733	-1.825302	0.000483	4.832316	0.818616	-0.000048
1783	1.7731e+02	2.2636	-1.872146	0.000471	4.709460	0.797804	-0.000047
1784	1.7741e+02	2.2553	-1.920213	0.000483	4.832316	0.818616	-0.000048
1785	1.7751e+02	2.2443	-1.969501	0.000496	4.955171	0.839429	-0.000050
1786	1.7761e+02	2.2324	-2.015124	0.000459	4.586605	0.776992	-0.000046
1787	1.7771e+02	2.2236	-2.064005	0.000491	4.914220	0.832491	-0.000049
1788	1.7781e+02	2.2154	-2.112886	0.000491	4.914220	0.832491	-0.000049
1789	1.7791e+02	2.2063	-2.158101	0.000455	4.545653	0.770054	-0.000045
1790	1.7801e+02	2.1951	-2.211055	0.000532	5.323738	0.901866	-0.000053
1791	1.7810e+02	2.1865	-2.254234	0.000434	4.340894	0.735367	-0.000043
1792	1.7820e+02	2.1745	-2.303115	0.000491	4.914220	0.832491	-0.000049
1793	1.7830e+02	2.1682	-2.351589	0.000487	4.873268	0.825554	-0.000049
1794	1.7840e+02	2.1558	-2.402099	0.000508	5.078027	0.860241	-0.000051
1795	1.7850e+02	2.1474	-2.450165	0.000483	4.832316	0.818616	-0.000048
1796	1.7860e+02	2.1374	-2.502305	0.000524	5.241834	0.887991	-0.000052
1797	1.7870e+02	2.1251	-2.546706	0.000446	4.463749	0.756180	-0.000045
1798	1.7880e+02	2.1151	-2.596401	0.000500	4.996123	0.846366	-0.000050
1799	1.7890e+02	2.1059	-2.641209	0.000450	4.504701	0.763117	-0.000045
1800	1.7900e+02	2.0934	-2.692534	0.000516	5.159931	0.874116	-0.000052
1801	1.7910e+02	2.0860	-2.739786	0.000475	4.750412	0.804742	-0.000047
1802	1.7920e+02	2.0756	-2.788260	0.000487	4.873268	0.825554	-0.000049
1803	1.7930e+02	2.0637	-2.838770	0.000508	5.078027	0.860241	-0.000051
1804	1.7940e+02	2.0585	-2.889688	0.000512	5.118979	0.867178	-0.000051
1805	1.7950e+02	2.0435	-2.936532	0.000471	4.709460	0.797804	-0.000047
1806	1.7960e+02	2.0350	-2.982562	0.000463	4.627557	0.783929	-0.000046
1807	1.7970e+02	2.0260	-3.036331	0.000541	5.405642	0.915740	-0.000054
1808	1.7980e+02	2.0139	-3.088471	0.000524	5.241834	0.887991	-0.000052
1809	1.7990e+02	2.0039	-3.130835	0.000426	4.258990	0.721492	-0.000043
1810	1.8000e+02	1.9953	-3.184604	0.000541	5.405642	0.915740	-0.000054
1811	1.8009e+02	1.9863	-3.231856	0.000475	4.750412	0.804742	-0.000047
1812	1.8019e+02	1.9756	-3.279108	0.000475	4.750412	0.804742	-0.000047
1813	1.8029e+02	1.9659	-3.328396	0.000496	4.955171	0.839429	-0.000050
1814	1.8039e+02	1.9573	-3.377277	0.000491	4.914220	0.832491	-0.000049
1815	1.8049e+02	1.9466	-3.424529	0.000475	4.750412	0.804742	-0.000047
1816	1.8059e+02	1.9362	-3.475854	0.000516	5.159931	0.874116	-0.000052
1817	1.8069e+02	1.9241	-3.527994	0.000524	5.241834	0.887991	-0.000052
1818	1.8079e+02	1.9122	-3.577282	0.000496	4.955171	0.839429	-0.000050
1819	1.8089e+02	1.9057	-3.623312	0.000463	4.627557	0.783929	-0.000046
1820	1.8099e+02	1.8950	-3.674637	0.000516	5.159931	0.874116	-0.000052
1821	1.8109e+02	1.8835	-3.724333	0.000500	4.996123	0.846366	-0.000050
1822	1.8119e+02	1.8782	-3.775658	0.000516	5.159931	0.874116	-0.000052
1823	1.8129e+02	1.8668	-3.824539	0.000491	4.914220	0.832491	-0.000049
1824	1.8139e+02	1.8575	-3.873013	0.000487	4.873268	0.825554	-0.000049
1825	1.8149e+02	1.8447	-3.925560	0.000528	5.282786	0.894928	-0.000053
1826	1.8159e+02	1.8359	-3.976885	0.000516	5.159931	0.874116	-0.000052
1827	1.8169e+02	1.8334	-4.025766	0.000491	4.914220	0.832491	-0.000049
1828	1.8179e+02	1.8169	-4.077092	0.000516	5.159931	0.874116	-0.000052
1829	1.8189e+02	1.8060	-4.122307	0.000455	4.545653	0.770054	-0.000045
1830	1.8199e+02	1.7995	-4.174039	0.000520	5.200882	0.881053	-0.000052
1831	1.8209e+02	1.7872	-4.224142	0.000504	5.037075	0.853304	-0.000050
1832	1.8218e+02	1.7785	-4.273838	0.000500	4.996123	0.846366	-0.000050
1833	1.8228e+02	1.7663	-4.326385	0.000528	5.282786	0.894928	-0.000053
1834	1.8238e+02	1.7573	-4.376896	0.000508	5.078027	0.860241	-0.000051
1835	1.8248e+02	1.7432	-4.430258	0.000536	5.364690	0.908803	-0.000054
1836	1.8258e+02	1.7381	-4.475880	0.000459	4.586605	0.776992	-0.000046
1837	1.8268e+02	1.7254	-4.529649	0.000541	5.405642	0.915740	-0.000054
1838	1.8278e+02	1.7179	-4.586677	0.000573	5.733256	0.971240	-0.000057
1839	1.8288e+02	1.7051	-4.636373	0.000500	4.996123	0.846366	-0.000050
1840	1.8298e+02	1.6961	-4.682403	0.000463	4.627557	0.783929	-0.000046
1841	1.8308e+02	1.6863	-4.733320	0.000512	5.118979	0.867178	-0.000051
1842	1.8318e+02	1.6764	-4.785053	0.000520	5.200882	0.881053	-0.000052
1843	1.8328e+02	1.6656	-4.838415	0.000536	5.364690	0.908803	-0.000054
1844	1.8338e+02	1.6563	-4.887296	0.000491	4.914220	0.832491	-0.000049
1845	1.8348e+02	1.6476	-4.936992	0.000500	4.996123	0.846366	-0.000050
1846	1.8358e+02	1.6365	-4.983429	0.000467	4.668509	0.790867	-0.000047
1847	1.8368e+02	1.6261	-5.039235	0.000561	5.610401	0.950428	-0.000056
1848	1.8378e+02	1.6183	-5.091375	0.000524	5.241834	0.887991	-0.000052
1849	1.8388e+02	1.6059	-5.144736	0.000536	5.364690	0.908803	-0.000054
1850	1.8398e+02	1.5981	-5.195247	0.000508	5.078027	0.860241	-0.000051
1851	1.8407e+02	1.5903	-5.244943	0.000500	4.996123	0.846366	-0.000050
1852	1.8417e+02	1.5763	-5.298712	0.000541	5.405642	0.915740	-0.000054
1853	1.8427e+02	1.5675	-5.348815	0.000504	5.037075	0.853304	-0.000050
1854	1.8437e+02	1.5575	-5.400548	0.000520	5.200882	0.881053	-0.000052
1855	1.8447e+02	1.5465	-5.452687	0.000524	5.241834	0.887991	-0.000052
1856	1.8457e+02	1.5393	-5.502791	0.000504	5.037075	0.853304	-0.000050
1857	1.8467e+02	1.5270	-5.555338	0.000528	5.282786	0.894928	-0.000053
1858	1.8477e+02	1.5156	-5.598923	0.000438	4.381846	0.742305	-0.000044
1859	1.8487e+02	1.5085	-5.654322	0.000557	5.569449	0.943490	-0.000056
1860	1.8497e+02	1.4983	-5.707276	0.000532	5.323738	0.901866	-0.000053
1861	1.8507e+02	1.4911	-5.754528	0.000475	4.750412	0.804742	-0.000047
1862	1.8517e+02	1.4781	-5.812371	0.000582	5.815160	0.985115	-0.000058
1863	1.8527e+02	1.4698	-5.859623	0.000475	4.750412	0.804742	-0.000047
1864	1.8537e+02	1.4561	-5.913392	0.000541	5.405642	0.915740	-0.000054
1865	1.8547e+02	1.4484	-5.964717	0.000516	5.159931	0.874116	-0.000052
1866	1.8557e+02	1.4364	-6.018894	0.000545	5.446593	0.922678	-0.000054
1867	1.8567e+02	1.4275	-6.071033	0.000524	5.241834	0.887991	-0.000052
1868	1.8577e+02	1.4176	-6.123581	0.000528	5.282786	0.894928	-0.000053
1869	1.8587e+02	1.4083	-6.180201	0.000569	5.692304	0.964302	-0.000057
1870	1.8597e+02	1.3996	-6.227453	0.000475	4.750412	0.804742	-0.000047
1871	1.8606e+02	1.3882	-6.277149	0.000500	4.996123	0.846366	-0.000050
1872	1.8616e+02	1.3775	-6.333769	0.000569	5.692304	0.964302	-0.000057
1873	1.8626e+02	1.3685	-6.385502	0.000520	5.200882	0.881053	-0.000052
1874	1.8636e+02	1.3599	-6.436420	0.000512	5.118979	0.867178	-0.000051
1875	1.8646e+02	1.3512	-6.491411	0.000553	5.528497	0.936553	-0.000055
1876	1.8656e+02	1.3382	-6.541921	0.000508	5.078027	0.860241	-0.000051
1877	1.8666e+02	1.3289	-6.594061	0.000524	5.241834	0.887991	-0.000052
1878	1.8676e+02	1.3199	-6.647423	0.000536	5.364690	0.908803	-0.000054
1879	1.8686e+02	1.3113	-6.702822	0.000557	5.569449	0.943490	-0.000056
1880	1.8696e+02	1.2963	-6.752110	0.000496	4.955171	0.839429	-0.000050
1881	1.8706e+02	1.2894	-6.805879	0.000541	5.405642	0.915740	-0.000054
1882	1.8716e+02	1.2794	-6.858427	0.000528	5.282786	0.894928	-0.000053
1883	1.8726e+02	1.2675	-6.915862	0.000577	5.774208	0.978177	-0.000058
1884	1.8736e+02	1.2608	-6.967594	0.000520	5.200882	0.881053	-0.000052
1885	1.8746e+02	1.2492	-7.015661	0.000483	4.832316	0.818616	-0.000048
1886	1.8756e+02	1.2370	-7.071059	0.000557	5.569449	0.943490	-0.000056
1887	1.8766e+02	1.2305	-7.128087	0.000573	5.733256	0.971240	-0.000057
1888	1.8776e+02	1.2208	-7.176154	0.000483	4.832316	0.818616	-0.000048
1889	1.8786e+02	1.2109	-7.226664	0.000508	5.078027	0.860241	-0.000051
1890	1.8796e+02	1.2019	-7.283285	0.000569	5.692304	0.964302	-0.000057
1891	1.8806e+02	1.1899	-7.337869	0.000549	5.487545	0.929615	-0.000055
1892	1.8815e+02	1.1787	-7.392453	0.000549	5.487545	0.929615	-0.000055
1893	1.8825e+02	1.1703	-7.441334	0.000491	4.914220	0.832491	-0.000049
1894	1.8835e+02	1.1601	-7.495510	0.000545	5.446593	0.922678	-0.000054
1895	1.8845e+02	1.1488	-7.547650	0.000524	5.241834	0.887991	-0.000052
1896	1.8855e+02	1.1419	-7.603049	0.000557	5.569449	0.943490	-0.000056
1897	1.8865e+02	1.1299	-7.656818	0.000541	5.405642	0.915740	-0.000054
1898	1.8875e+02	1.1195	-7.713846	0.000573	5.733256	0.971240	-0.000057
1899	1.8885e+02	1.1122	-7.765986	0.000524	5.241834	0.887991	-0.000052
1900	1.8895e+02	1.1001	-7.822199	0.000565	5.651353	0.957365	-0.000056
1901	1.8905e+02	1.0910	-7.876783	0.000549	5.487545	0.929615	-0.000055
1902	1.8915e+02	1.0817	-7.927701	0.000512	5.118979	0.867178	-0.000051
1903	1.8925e+02	1.0693	-7.986358	0.000590	5.897064	0.998990	-0.000059
1904	1.8935e+02	1.0583	-8.035239	0.000491	4.914220	0.832491	-0.000049
1905	1.8945e+02	1.0507	-8.093896	0.000590	5.897064	0.998990	-0.000059
1906	1.8955e+02	1.0410	-8.147666	0.000541	5.405642	0.915740	-0.000054
1907	1.8965e+02	1.0341	-8.200213	0.000528	5.282786	0.894928	-0.000053
1908	1.8975e+02	1.0217	-8.254389	0.000545	5.446593	0.922678	-0.000054
1909	1.8985e+02	1.0134	-8.308566	0.000545	5.446593	0.922678	-0.000054
1910	1.8995e+02	1.0017	-8.364779	0.000565	5.651353	0.957365	-0.000056
1911	1.9004e+02	0.9924	-8.418956	0.000545	5.446593	0.922678	-0.000054
1912	1.9014e+02	0.9801	-8.474762	0.000561	5.610401	0.950428	-0.000056
1913	1.9024e+02	0.9706	-8.528938	0.000545	5.446593	0.922678	-0.000054
1914	1.9034e+02	0.9619	-8.585966	0.000573	5.733256	0.971240	-0.000057
1915	1.9044e+02	0.9521	-8.640143	0.000545	5.446593	0.922678	-0.000054
1916	1.9054e+02	0.9402	-8.693097	0.000532	5.323738	0.901866	-0.000053
1917	1.9064e+02	0.9286	-8.752162	0.000594	5.938015	1.005927	-0.000059
1918	1.9074e+02	0.9210	-8.804709	0.000528	5.282786	0.894928	-0.000053
1919	1.9084e+02	0.9101	-8.856034	0.000516	5.159931	0.874116	-0.000052
1920	1.9094e+02	0.9012	-8.913470	0.000577	5.774208	0.978177	-0.000058
1921	1.9104e+02	0.8890	-8.970905	0.000577	5.774208	0.978177	-0.000058
1922	1.9114e+02	0.8814	-9.020601	0.000500	4.996123	0.846366	-0.000050
1923	1.9124e+02	0.8696	-9.076407	0.000561	5.610401	0.950428	-0.000056
1924	1.9134e+02	0.8583	-9.130176	0.000541	5.405642	0.915740	-0.000054
1925	1.9144e+02	0.8535	-9.185982	0.000561	5.610401	0.950428	-0.000056
1926	1.9154e+02	0.8423	-9.243010	0.000573	5.733256	0.971240	-0.000057
1927	1.9164e+02	0.8310	-9.299223	0.000565	5.651353	0.957365	-0.000056
1928	1.9174e+02	0.8212	-9.357066	0.000582	5.815160	0.985115	-0.000058
1929	1.9184e+02	0.8121	-9.411242	0.000545	5.446593	0.922678	-0.000054
1930	1.9194e+02	0.8014	-9.466234	0.000553	5.528497	0.936553	-0.000055
1931	1.9203e+02	0.7909	-9.522854	0.000569	5.692304	0.964302	-0.000057
1932	1.9213e+02	0.7817	-9.580697	0.000582	5.815160	0.985115	-0.000058
1933	1.9223e+02	0.7722	-9.635688	0.000553	5.528497	0.936553	-0.000055
1934	1.9233e+02	0.7612	-9.688235	0.000528	5.282786	0.894928	-0.000053
1935	1.9243e+02	0.7503	-9.745263	0.000573	5.733256	0.971240	-0.000057
1936	1.9253e+02	0.7408	-9.802291	0.000573	5.733256	0.971240	-0.000057
1937	1.9263e+02	0.7336	-9.857282	0.000553	5.528497	0.936553	-0.000055
1938	1.9273e+02	0.7201	-9.917569	0.000606	6.060871	1.026739	-0.000061
1939	1.9283e+02	0.7130	-9.973782	0.000565	5.651353	0.957365	-0.000056
1940	1.9293e+02	0.7018	-10.032440	0.000590	5.897064	0.998990	-0.000059
1941	1.9303e+02	0.6904	-10.088653	0.000565	5.651353	0.957365	-0.000056
1942	1.9313e+02	0.6818	-10.144459	0.000561	5.610401	0.950428	-0.000056
1943	1.9323e+02	0.6710	-10.200265	0.000561	5.610401	0.950428	-0.000056
1944	1.9333e+02	0.6620	-10.258515	0.000586	5.856112	0.992052	-0.000059
1945	1.9343e+02	0.6525	-10.312691	0.000545	5.446593	0.922678	-0.000054
1946	1.9353e+02	0.6422	-10.369719	0.000573	5.733256	0.971240	-0.000057
1947	1.9363e+02	0.6361	-10.425933	0.000565	5.651353	0.957365	-0.000056
1948	1.9373e+02	0.6250	-10.484997	0.000594	5.938015	1.005927	-0.000059
1949	1.9383e+02	0.6143	-10.542840	0.000582	5.815160	0.985115	-0.000058
1950	1.9393e+02	0.6011	-10.601090	0.000586	5.856112	0.992052	-0.000059
1951	1.9403e+02	0.5925	-10.656488	0.000557	5.569449	0.943490	-0.000056
1952	1.9412e+02	0.5826	-10.711480	0.000553	5.528497	0.936553	-0.000055
1953	1.9422e+02	0.5704	-10.767693	0.000565	5.651353	0.957365	-0.000056
1954	1.9432e+02	0.5625	-10.823906	0.000565	5.651353	0.957365	-0.000056
1955	1.9442e+02	0.5540	-10.882971	0.000594	5.938015	1.005927	-0.000059
1956	1.9452e+02	0.5434	-10.937148	0.000545	5.446593	0.922678	-0.000054
1957	1.9462e+02	0.5333	-10.998249	0.000614	6.142774	1.040614	-0.000061
1958	1.9472e+02	0.5242	-11.054055	0.000561	5.610401	0.950428	-0.000056
1959	1.9482e+02	0.5153	-11.109046	0.000553	5.528497	0.936553	-0.000055
1960	1.9492e+02	0.5029	-11.167296	0.000586	5.856112	0.992052	-0.000059
1961	1.9502e+02	0.4925	-11.227583	0.000606	6.060871	1.026739	-0.000061
1962	1.9512e+02	0.4813	-11.279315	0.000520	5.200882	0.881053	-0.000052
1963	1.9522e+02	0.4726	-11.340417	0.000614	6.142774	1.040614	-0.000061
1964	1.9532e+02	0.4654	-11.398667	0.000586	5.856112	0.992052	-0.000059
1965	1.9542e+02	0.4534	-11.459768	0.000614	6.142774	1.040614	-0.000061
1966	1.9552e+02	0.4429	-11.516389	0.000569	5.692304	0.964302	-0.000057
1967	1.9562e+02	0.4330	-11.572195	0.000561	5.610401	0.950428	-0.000056
1968	1.9572e+02	0.4222	-11.630852	0.000590	5.897064	0.998990	-0.000059
1969	1.9582e+02	0.4126	-11.683806	0.000532	5.323738	0.901866	-0.000053
1970	1.9592e+02	0.4058	-11.746537	0.000631	6.306582	1.068364	-0.000063
1971	1.9601e+02	0.3921	-11.804380	0.000582	5.815160	0.985115	-0.000058
1972	1.9611e+02	0.3862	-11.861815	0.000577	5.774208	0.978177	-0.000058
1973	1.9621e+02	0.3719	-11.920880	0.000594	5.938015	1.005927	-0.000059
1974	1.9631e+02	0.3641	-11.978722	0.000582	5.815160	0.985115	-0.000058
1975	1.9641e+02	0.3527	-12.038194	0.000598	5.978967	1.012864	-0.000060
1976	1.9651e+02	0.3432	-12.098481	0.000606	6.060871	1.026739	-0.000061
1977	1.9661e+02	0.3343	-12.155102	0.000569	5.692304	0.964302	-0.000057
1978	1.9671e+02	0.3226	-12.213759	0.000590	5.897064	0.998990	-0.000059
1979	1.9681e+02	0.3119	-12.270787	0.000573	5.733256	0.971240	-0.000057
1980	1.9691e+02	0.3019	-12.327000	0.000565	5.651353	0.957365	-0.000056
1981	1.9701e+02	0.2946	-12.386472	0.000598	5.978967	1.012864	-0.000060
1982	1.9711e+02	0.2812	-12.445130	0.000590	5.897064	0.998990	-0.000059
1983	1.9721e+02	0.2750	-12.503787	0.000590	5.897064	0.998990	-0.000059
1984	1.9731e+02	0.2647	-12.558778	0.000553	5.528497	0.936553	-0.000055
1985	1.9741e+02	0.2552	-12.617843	0.000594	5.938015	1.005927	-0.000059
1986	1.9751e+02	0.2439	-12.678944	0.000614	6.142774	1.040614	-0.000061
1987	1.9761e+02	0.2362	-12.735565	0.000569	5.692304	0.964302	-0.000057
1988	1.9771e+02	0.2247	-12.794222	0.000590	5.897064	0.998990	-0.000059
1989	1.9781e+02	0.2142	-12.854102	0.000602	6.019919	1.019802	-0.000060
1990	1.9791e+02	0.2033	-12.914796	0.000610	6.101823	1.033677	-0.000061
1991	1.9800e+02	0.1935	-12.972231	0.000577	5.774208	0.978177	-0.000058
1992	1.9810e+02	0.1862	-13.032518	0.000606	6.060871	1.026739	-0.000061
1993	1.9820e+02	0.1728	-13.090360	0.000582	5.815160	0.985115	-0.000058
1994	1.9830e+02	0.1643	-13.145759	0.000557	5.569449	0.943490	-0.000056
1995	1.9840e+02	0.1553	-13.209712	0.000643	6.429437	1.089176	-0.000064
1996	1.9850e+02	0.1464	-13.265925	0.000565	5.651353	0.957365	-0.000056
1997	1.9860e+02	0.1333	-13.323768	0.000582	5.815160	0.985115	-0.000058
1998	1.9870e+02	0.1231	-13.384054	0.000606	6.060871	1.026739	-0.000061
1999	1.9880e+02	0.1119	-13.443934	0.000602	6.019919	1.019802	-0.000060
2000	1.9890e+02	0.1063	-13.504220	0.000606	6.060871	1.026739	-0.000061
2001	1.9900e+02	0.0952	-13.563692	0.000598	5.978967	1.012864	-0.000060
2002	1.9910e+02	0.0866	-13.623572	0.000602	6.019919	1.019802	-0.000060
2003	1.9920e+02	0.0739	-13.683858	0.000606	6.060871	1.026739	-0.000061
2004	1.9930e+02	0.0674	-13.742923	0.000594	5.938015	1.005927	-0.000059
2005	1.9940e+02	0.0549	-13.801988	0.000594	5.938015	1.005927	-0.000059
2006	1.9950e+02	0.0455	-13.867977	0.000663	6.634196	1.123863	-0.000066
2007	1.9960e+02	0.0349	-13.927042	0.000594	5.938015	1.005927	-0.000059
2008	1.9970e+02	0.0238	-13.984070	0.000573	5.733256	0.971240	-0.000057
2009	1.9980e+02	0.0128	-14.040690	0.000569	5.692304	0.964302	-0.000057
2010	1.9990e+02	0.0066	-14.101384	0.000610	6.101823	1.033677	-0.000061
2011	2.0000e+02	-0.0047	-14.157190	0.000610	6.101823	1.033677	-0.000056

PMax (uC/cm2):	4.40e+01
Pr (uC/cm2):	7.90e+00
-Pr (uC/cm2):	0.00e+00
PLoss (uC/cm2):	0.00e+00
C (Max-Eff) (nF):	4.40e-01
K (Eff):	7.46e+02
Vert. (+/-Pr) Shift (uC/cm2):	3.95e+00
Offset (uC/cm2):	2.21e+01

A (Loop Area - uC/cm2·Volts):	-7.60e-02



Hysteresis Version: 5.48.1 - Radiant Technologies, Inc., 1999 - 9/12/24

