»»»»»»»»»»»»»»»»»»»»»»»»»»»»»»»»»»»» Hysteresis ««««««««««««««««««««««««««««««««««««
»»»  Executed Version:	5.48.1
»»»  Vision Version:	5.48.4 (R)
»»»  Vision Compiled:	9/18/24
»»»  Driver Version:	5.47.0
»»»  Windows Version:	Windows 8 or 8.1
»»»  Processor Information:	x86 (AMD or Intel) - 32 Processors
»»»  Tester Name:	PMF21124-494 (100V)
»»»  Tester S/N:	PMF21124-494
»»»  Internal Amp Type:	100V RevK 270k
»»»  Internal Amp S/N:	iAB2-596/K     
»»»  Execution Count:	1
»»»»»»»»»»»»»»»»»»»»»»»»»»»»»»»»»»»»»»»»»»««««««««««««««««««««««««««««««««««««««««««

Stored:	6/30/2025 - 15:0:52
Configured:	06/30/25 10:19:58 AM
Executed:	06/30/25 03:00:12 PM

»»»»»»»»»»»»»»»»»»»»»»»»»»»»»»»»»»» Sample Info ««««««««««««««««««««««««««««««««««««
Sample Name:	
Lot Name:	
Wafer Name:	
Die Row/Column:	0/0
Capacitor Number:	0
Sample Area (cm2):	1.00e-04
Sample Thickness (microns):	1.50e-01

Amplifier:	Internal

»»»»»»»»»»»»»»»»»»»»»»»»»»»»»»»»»»» Tester Info «««««««««««««««««««««««««««««««««««
Tester Name:	PMF21124-494 (100V)
Tester Serial Number:	PMF21124-494
Return Signal Amp. Level:	0.19 [Index: 3]

»»»»»»»»»»»»»»»»»»»»»»»»»»»»»»»» Hysteresis Info ««««««««««««««««««««««««««««««««««
Task Name:	Hyst-1804
Volts:	10.00
Field:	666.67 (kV/cm)
DCBias:	0.00
DCField:	0.00 (kV/cm)
Hysteresis Period (ms):	2.00e+02
Preset:	Enabled
Preset Delay (ms):	1.00e+03
Profile:	Standard Monopolar

»»»»»»»»»»»»»»»»»»»»»»»»»»»»»»»»»»»»»» Data «««««««««««««««««««««««««««««««««««««««
Points:	2011

Valid Data

Point	Time (ms)	Drive Voltage	Measured Polarization (uC/cm2)	Capacitance (uF)	Normalized Capacitance (uF/cm2)	Dielectric Constant	Instantaneous Current (mA)
   1	0.0000e+00	-0.0006	-25.036297	0.000203	2.028901	0.343705	0.000020
   2	9.9500e-02	0.0097	-25.016112	0.000203	2.028901	0.343705	0.000020
   3	1.9900e-01	0.0194	-24.923257	0.000933	9.332943	1.581043	0.000093
   4	2.9850e-01	0.0291	-24.894998	0.000284	2.840461	0.481187	0.000028
   5	3.9800e-01	0.0388	-24.854626	0.000406	4.057801	0.687410	0.000041
   6	4.9750e-01	0.0480	-24.781958	0.000730	7.304042	1.237338	0.000073
   7	5.9700e-01	0.0591	-24.737549	0.000446	4.463581	0.756151	0.000045
   8	6.9650e-01	0.0683	-24.685066	0.000528	5.275142	0.893633	0.000053
   9	7.9600e-01	0.0782	-24.584138	0.001014	10.144503	1.718525	0.000101
  10	8.9550e-01	0.0882	-24.535692	0.000487	4.869362	0.824892	0.000049
  11	9.9500e-01	0.0986	-24.547804	-0.000122	-1.217340	-0.206223	-0.000012
  12	1.0945e+00	0.1087	-24.434764	0.001136	11.361844	1.924748	0.000114
  13	1.1940e+00	0.1189	-24.378244	0.000568	5.680922	0.962374	0.000057
  14	1.2935e+00	0.1277	-24.321724	0.000568	5.680922	0.962374	0.000057
  15	1.3930e+00	0.1385	-24.273279	0.000487	4.869362	0.824892	0.000049
  16	1.4925e+00	0.1492	-24.228870	0.000446	4.463581	0.756151	0.000045
  17	1.5920e+00	0.1585	-24.164276	0.000649	6.492482	1.099856	0.000065
  18	1.6915e+00	0.1687	-24.119867	0.000446	4.463581	0.756151	0.000045
  19	1.7910e+00	0.1783	-24.051236	0.000690	6.898262	1.168597	0.000069
  20	1.8905e+00	0.1884	-24.018939	0.000325	3.246241	0.549928	0.000032
  21	1.9900e+00	0.1987	-23.962419	0.000568	5.680922	0.962374	0.000057
  22	2.0895e+00	0.2074	-23.913974	0.000487	4.869362	0.824892	0.000049
  23	2.1890e+00	0.2182	-23.841305	0.000730	7.304042	1.237338	0.000073
  24	2.2885e+00	0.2290	-23.772674	0.000690	6.898262	1.168597	0.000069
  25	2.3880e+00	0.2390	-23.716154	0.000568	5.680922	0.962374	0.000057
  26	2.4875e+00	0.2486	-23.675783	0.000406	4.057801	0.687410	0.000041
  27	2.5870e+00	0.2580	-23.643485	0.000325	3.246241	0.549928	0.000032
  28	2.6865e+00	0.2682	-23.582928	0.000609	6.086702	1.031115	0.000061
  29	2.7860e+00	0.2773	-23.530446	0.000528	5.275142	0.893633	0.000053
  30	2.8855e+00	0.2883	-23.429517	0.001014	10.144503	1.718525	0.000101
  31	2.9850e+00	0.2979	-23.372997	0.000568	5.680922	0.962374	0.000057
  32	3.0845e+00	0.3082	-23.360886	0.000122	1.217340	0.206223	0.000012
  33	3.1840e+00	0.3179	-23.268032	0.000933	9.332943	1.581043	0.000093
  34	3.2835e+00	0.3276	-23.231698	0.000365	3.652021	0.618669	0.000037
  35	3.3830e+00	0.3381	-23.154992	0.000771	7.709822	1.306079	0.000077
  36	3.4825e+00	0.3474	-23.098472	0.000568	5.680922	0.962374	0.000057
  37	3.5820e+00	0.3576	-23.062138	0.000365	3.652021	0.618669	0.000037
  38	3.6815e+00	0.3670	-23.017729	0.000446	4.463581	0.756151	0.000045
  39	3.7810e+00	0.3777	-22.953135	0.000649	6.492482	1.099856	0.000065
  40	3.8805e+00	0.3865	-22.888541	0.000649	6.492482	1.099856	0.000065
  41	3.9800e+00	0.3963	-22.848170	0.000406	4.057801	0.687410	0.000041
  42	4.0795e+00	0.4074	-22.743204	0.001055	10.550283	1.787266	0.000105
  43	4.1790e+00	0.4168	-22.763390	-0.000203	-2.028901	-0.343705	-0.000020
  44	4.2785e+00	0.4259	-22.678610	0.000852	8.521383	1.443561	0.000085
  45	4.3780e+00	0.4374	-22.605942	0.000730	7.304042	1.237338	0.000073
  46	4.4775e+00	0.4469	-22.557496	0.000487	4.869362	0.824892	0.000049
  47	4.5770e+00	0.4566	-22.492902	0.000649	6.492482	1.099856	0.000065
  48	4.6765e+00	0.4676	-22.400048	0.000933	9.332943	1.581043	0.000093
  49	4.7760e+00	0.4776	-22.375825	0.000243	2.434681	0.412446	0.000024
  50	4.8755e+00	0.4867	-22.347565	0.000284	2.840461	0.481187	0.000028
  51	4.9750e+00	0.4983	-22.278934	0.000690	6.898262	1.168597	0.000069
  52	5.0745e+00	0.5070	-22.218377	0.000609	6.086702	1.031115	0.000061
  53	5.1740e+00	0.5172	-22.137634	0.000812	8.115603	1.374820	0.000081
  54	5.2735e+00	0.5264	-22.101300	0.000365	3.652021	0.618669	0.000037
  55	5.3730e+00	0.5370	-22.056891	0.000446	4.463581	0.756151	0.000045
  56	5.4725e+00	0.5472	-22.000371	0.000568	5.680922	0.962374	0.000057
  57	5.5720e+00	0.5570	-21.960000	0.000406	4.057801	0.687410	0.000041
  58	5.6715e+00	0.5672	-21.927703	0.000325	3.246241	0.549928	0.000032
  59	5.7710e+00	0.5761	-21.818700	0.001096	10.956063	1.856007	0.000110
  60	5.8705e+00	0.5866	-21.778329	0.000406	4.057801	0.687410	0.000041
  61	5.9700e+00	0.5965	-21.754106	0.000243	2.434681	0.412446	0.000024
  62	6.0695e+00	0.6061	-21.673363	0.000812	8.115603	1.374820	0.000081
  63	6.1690e+00	0.6159	-21.580509	0.000933	9.332943	1.581043	0.000093
  64	6.2685e+00	0.6255	-21.540138	0.000406	4.057801	0.687410	0.000041
  65	6.3680e+00	0.6369	-21.487655	0.000528	5.275142	0.893633	0.000053
  66	6.4675e+00	0.6467	-21.419024	0.000690	6.898262	1.168597	0.000069
  67	6.5670e+00	0.6566	-21.354429	0.000649	6.492482	1.099856	0.000065
  68	6.6665e+00	0.6654	-21.305984	0.000487	4.869362	0.824892	0.000049
  69	6.7660e+00	0.6767	-21.277724	0.000284	2.840461	0.481187	0.000028
  70	6.8655e+00	0.6860	-21.249464	0.000284	2.840461	0.481187	0.000028
  71	6.9650e+00	0.6966	-21.164684	0.000852	8.521383	1.443561	0.000085
  72	7.0645e+00	0.7059	-21.087979	0.000771	7.709822	1.306079	0.000077
  73	7.1640e+00	0.7156	-21.047607	0.000406	4.057801	0.687410	0.000041
  74	7.2635e+00	0.7262	-20.970902	0.000771	7.709822	1.306079	0.000077
  75	7.3630e+00	0.7361	-20.922456	0.000487	4.869362	0.824892	0.000049
  76	7.4625e+00	0.7455	-20.886122	0.000365	3.652021	0.618669	0.000037
  77	7.5620e+00	0.7554	-20.813453	0.000730	7.304042	1.237338	0.000073
  78	7.6615e+00	0.7658	-20.740785	0.000730	7.304042	1.237338	0.000073
  79	7.7610e+00	0.7758	-20.676191	0.000649	6.492482	1.099856	0.000065
  80	7.8605e+00	0.7851	-20.647931	0.000284	2.840461	0.481187	0.000028
  81	7.9600e+00	0.7953	-20.599485	0.000487	4.869362	0.824892	0.000049
  82	8.0595e+00	0.8045	-20.555077	0.000446	4.463581	0.756151	0.000045
  83	8.1590e+00	0.8160	-20.506631	0.000487	4.869362	0.824892	0.000049
  84	8.2585e+00	0.8253	-20.454148	0.000528	5.275142	0.893633	0.000053
  85	8.3580e+00	0.8348	-20.397628	0.000568	5.680922	0.962374	0.000057
  86	8.4575e+00	0.8453	-20.345146	0.000528	5.275142	0.893633	0.000053
  87	8.5570e+00	0.8565	-20.256329	0.000893	8.927163	1.512302	0.000089
  88	8.6565e+00	0.8654	-20.224031	0.000325	3.246241	0.549928	0.000032
  89	8.7560e+00	0.8746	-20.179623	0.000446	4.463581	0.756151	0.000045
  90	8.8555e+00	0.8855	-20.147326	0.000325	3.246241	0.549928	0.000032
  91	8.9550e+00	0.8949	-20.066583	0.000812	8.115603	1.374820	0.000081
  92	9.0545e+00	0.9042	-20.026212	0.000406	4.057801	0.687410	0.000041
  93	9.1540e+00	0.9153	-19.993915	0.000325	3.246241	0.549928	0.000032
  94	9.2535e+00	0.9253	-19.905098	0.000893	8.927163	1.512302	0.000089
  95	9.3530e+00	0.9347	-19.832429	0.000730	7.304042	1.237338	0.000073
  96	9.4525e+00	0.9449	-19.804169	0.000284	2.840461	0.481187	0.000028
  97	9.5520e+00	0.9551	-19.763798	0.000406	4.057801	0.687410	0.000041
  98	9.6515e+00	0.9648	-19.707278	0.000568	5.680922	0.962374	0.000057
  99	9.7510e+00	0.9746	-19.642684	0.000649	6.492482	1.099856	0.000065
 100	9.8505e+00	0.9844	-19.578090	0.000649	6.492482	1.099856	0.000065
 101	9.9500e+00	0.9944	-19.513496	0.000649	6.492482	1.099856	0.000065
 102	1.0050e+01	1.0033	-19.497347	0.000162	1.623121	0.274964	0.000016
 103	1.0149e+01	1.0148	-19.452939	0.000446	4.463581	0.756151	0.000045
 104	1.0248e+01	1.0246	-19.327787	0.001258	12.579184	2.130971	0.000126
 105	1.0348e+01	1.0348	-19.307602	0.000203	2.028901	0.343705	0.000020
 106	1.0447e+01	1.0439	-19.295490	0.000122	1.217340	0.206223	0.000012
 107	1.0547e+01	1.0539	-19.198599	0.000974	9.738723	1.649784	0.000097
 108	1.0646e+01	1.0635	-19.190525	0.000081	0.811560	0.137482	0.000008
 109	1.0746e+01	1.0741	-19.101708	0.000893	8.927163	1.512302	0.000089
 110	1.0845e+01	1.0842	-19.049225	0.000528	5.275142	0.893633	0.000053
 111	1.0945e+01	1.0938	-19.000779	0.000487	4.869362	0.824892	0.000049
 112	1.1044e+01	1.1045	-18.940222	0.000609	6.086702	1.031115	0.000061
 113	1.1144e+01	1.1140	-18.863517	0.000771	7.709822	1.306079	0.000077
 114	1.1243e+01	1.1246	-18.786811	0.000771	7.709822	1.306079	0.000077
 115	1.1343e+01	1.1337	-18.778737	0.000081	0.811560	0.137482	0.000008
 116	1.1443e+01	1.1444	-18.714143	0.000649	6.492482	1.099856	0.000065
 117	1.1542e+01	1.1538	-18.641474	0.000730	7.304042	1.237338	0.000073
 118	1.1642e+01	1.1645	-18.609177	0.000325	3.246241	0.549928	0.000032
 119	1.1741e+01	1.1742	-18.556694	0.000528	5.275142	0.893633	0.000053
 120	1.1841e+01	1.1835	-18.496137	0.000609	6.086702	1.031115	0.000061
 121	1.1940e+01	1.1942	-18.423469	0.000730	7.304042	1.237338	0.000073
 122	1.2040e+01	1.2035	-18.354838	0.000690	6.898262	1.168597	0.000069
 123	1.2139e+01	1.2140	-18.354838	0.000000	0.000000	0.000000	0.000000
 124	1.2239e+01	1.2241	-18.278132	0.000771	7.709822	1.306079	0.000077
 125	1.2338e+01	1.2337	-18.201426	0.000771	7.709822	1.306079	0.000077
 126	1.2438e+01	1.2440	-18.152981	0.000487	4.869362	0.824892	0.000049
 127	1.2537e+01	1.2537	-18.112609	0.000406	4.057801	0.687410	0.000041
 128	1.2636e+01	1.2623	-18.031867	0.000812	8.115603	1.374820	0.000081
 129	1.2736e+01	1.2724	-17.991495	0.000406	4.057801	0.687410	0.000041
 130	1.2835e+01	1.2823	-17.910753	0.000812	8.115603	1.374820	0.000081
 131	1.2935e+01	1.2933	-17.882493	0.000284	2.840461	0.481187	0.000028
 132	1.3034e+01	1.3018	-17.825973	0.000568	5.680922	0.962374	0.000057
 133	1.3134e+01	1.3122	-17.777527	0.000487	4.869362	0.824892	0.000049
 134	1.3233e+01	1.3213	-17.704859	0.000730	7.304042	1.237338	0.000073
 135	1.3333e+01	1.3334	-17.664487	0.000406	4.057801	0.687410	0.000041
 136	1.3432e+01	1.3425	-17.620079	0.000446	4.463581	0.756151	0.000045
 137	1.3532e+01	1.3515	-17.559522	0.000609	6.086702	1.031115	0.000061
 138	1.3632e+01	1.3623	-17.555485	0.000041	0.405780	0.068741	0.000004
 139	1.3731e+01	1.3728	-17.466668	0.000893	8.927163	1.512302	0.000089
 140	1.3831e+01	1.3818	-17.422259	0.000446	4.463581	0.756151	0.000045
 141	1.3930e+01	1.3914	-17.373814	0.000487	4.869362	0.824892	0.000049
 142	1.4030e+01	1.4022	-17.264811	0.001096	10.956063	1.856007	0.000110
 143	1.4129e+01	1.4121	-17.216365	0.000487	4.869362	0.824892	0.000049
 144	1.4229e+01	1.4213	-17.220402	-0.000041	-0.405780	-0.068741	-0.000004
 145	1.4328e+01	1.4321	-17.135623	0.000852	8.521383	1.443561	0.000085
 146	1.4428e+01	1.4414	-17.103326	0.000325	3.246241	0.549928	0.000032
 147	1.4527e+01	1.4520	-17.030657	0.000730	7.304042	1.237338	0.000073
 148	1.4627e+01	1.4615	-17.002397	0.000284	2.840461	0.481187	0.000028
 149	1.4726e+01	1.4713	-16.937803	0.000649	6.492482	1.099856	0.000065
 150	1.4825e+01	1.4809	-16.885320	0.000528	5.275142	0.893633	0.000053
 151	1.4925e+01	1.4914	-16.832837	0.000528	5.275142	0.893633	0.000053
 152	1.5024e+01	1.5012	-16.780355	0.000528	5.275142	0.893633	0.000053
 153	1.5124e+01	1.5110	-16.679426	0.001014	10.144503	1.718525	0.000101
 154	1.5223e+01	1.5219	-16.643092	0.000365	3.652021	0.618669	0.000037
 155	1.5323e+01	1.5309	-16.610795	0.000325	3.246241	0.549928	0.000032
 156	1.5422e+01	1.5413	-16.550238	0.000609	6.086702	1.031115	0.000061
 157	1.5522e+01	1.5511	-16.489681	0.000609	6.086702	1.031115	0.000061
 158	1.5621e+01	1.5617	-16.417012	0.000730	7.304042	1.237338	0.000073
 159	1.5721e+01	1.5706	-16.360493	0.000568	5.680922	0.962374	0.000057
 160	1.5820e+01	1.5807	-16.332233	0.000284	2.840461	0.481187	0.000028
 161	1.5920e+01	1.5916	-16.271676	0.000609	6.086702	1.031115	0.000061
 162	1.6020e+01	1.6008	-16.215156	0.000568	5.680922	0.962374	0.000057
 163	1.6119e+01	1.6111	-16.166710	0.000487	4.869362	0.824892	0.000049
 164	1.6218e+01	1.6210	-16.134413	0.000325	3.246241	0.549928	0.000032
 165	1.6318e+01	1.6306	-16.025410	0.001096	10.956063	1.856007	0.000110
 166	1.6418e+01	1.6401	-15.981002	0.000446	4.463581	0.756151	0.000045
 167	1.6517e+01	1.6508	-15.948705	0.000325	3.246241	0.549928	0.000032
 168	1.6616e+01	1.6608	-15.863925	0.000852	8.521383	1.443561	0.000085
 169	1.6716e+01	1.6708	-15.827591	0.000365	3.652021	0.618669	0.000037
 170	1.6816e+01	1.6810	-15.767034	0.000609	6.086702	1.031115	0.000061
 171	1.6915e+01	1.6910	-15.694365	0.000730	7.304042	1.237338	0.000073
 172	1.7015e+01	1.7014	-15.629771	0.000649	6.492482	1.099856	0.000065
 173	1.7114e+01	1.7105	-15.605548	0.000243	2.434681	0.412446	0.000024
 174	1.7213e+01	1.7201	-15.544991	0.000609	6.086702	1.031115	0.000061
 175	1.7313e+01	1.7307	-15.464248	0.000812	8.115603	1.374820	0.000081
 176	1.7413e+01	1.7406	-15.419840	0.000446	4.463581	0.756151	0.000045
 177	1.7512e+01	1.7499	-15.367357	0.000528	5.275142	0.893633	0.000053
 178	1.7611e+01	1.7609	-15.343134	0.000243	2.434681	0.412446	0.000024
 179	1.7711e+01	1.7704	-15.262392	0.000812	8.115603	1.374820	0.000081
 180	1.7811e+01	1.7804	-15.177612	0.000852	8.521383	1.443561	0.000085
 181	1.7910e+01	1.7900	-15.129166	0.000487	4.869362	0.824892	0.000049
 182	1.8009e+01	1.7996	-15.100906	0.000284	2.840461	0.481187	0.000028
 183	1.8109e+01	1.8105	-15.024201	0.000771	7.709822	1.306079	0.000077
 184	1.8209e+01	1.8196	-14.971718	0.000528	5.275142	0.893633	0.000053
 185	1.8308e+01	1.8298	-14.919235	0.000528	5.275142	0.893633	0.000053
 186	1.8407e+01	1.8409	-14.870789	0.000487	4.869362	0.824892	0.000049
 187	1.8507e+01	1.8494	-14.818307	0.000528	5.275142	0.893633	0.000053
 188	1.8607e+01	1.8597	-14.777935	0.000406	4.057801	0.687410	0.000041
 189	1.8706e+01	1.8700	-14.721415	0.000568	5.680922	0.962374	0.000057
 190	1.8805e+01	1.8797	-14.632598	0.000893	8.927163	1.512302	0.000089
 191	1.8905e+01	1.8901	-14.588190	0.000446	4.463581	0.756151	0.000045
 192	1.9005e+01	1.8996	-14.531670	0.000568	5.680922	0.962374	0.000057
 193	1.9104e+01	1.9096	-14.507447	0.000243	2.434681	0.412446	0.000024
 194	1.9203e+01	1.9193	-14.438816	0.000690	6.898262	1.168597	0.000069
 195	1.9303e+01	1.9302	-14.386333	0.000528	5.275142	0.893633	0.000053
 196	1.9402e+01	1.9389	-14.305590	0.000812	8.115603	1.374820	0.000081
 197	1.9502e+01	1.9505	-14.293479	0.000122	1.217340	0.206223	0.000012
 198	1.9602e+01	1.9592	-14.196588	0.000974	9.738723	1.649784	0.000097
 199	1.9701e+01	1.9690	-14.212736	-0.000162	-1.623121	-0.274964	-0.000016
 200	1.9800e+01	1.9796	-14.115845	0.000974	9.738723	1.649784	0.000097
 201	1.9900e+01	1.9897	-14.051251	0.000649	6.492482	1.099856	0.000065
 202	2.0000e+01	1.9994	-13.986657	0.000649	6.492482	1.099856	0.000065
 203	2.0099e+01	2.0087	-13.962434	0.000243	2.434681	0.412446	0.000024
 204	2.0198e+01	2.0193	-13.905914	0.000568	5.680922	0.962374	0.000057
 205	2.0298e+01	2.0289	-13.833246	0.000730	7.304042	1.237338	0.000073
 206	2.0398e+01	2.0394	-13.796911	0.000365	3.652021	0.618669	0.000037
 207	2.0497e+01	2.0500	-13.768651	0.000284	2.840461	0.481187	0.000028
 208	2.0596e+01	2.0584	-13.683872	0.000852	8.521383	1.443561	0.000085
 209	2.0696e+01	2.0693	-13.639463	0.000446	4.463581	0.756151	0.000045
 210	2.0796e+01	2.0794	-13.550646	0.000893	8.927163	1.512302	0.000089
 211	2.0895e+01	2.0898	-13.486052	0.000649	6.492482	1.099856	0.000065
 212	2.0994e+01	2.0979	-13.482015	0.000041	0.405780	0.068741	0.000004
 213	2.1094e+01	2.1088	-13.413383	0.000690	6.898262	1.168597	0.000069
 214	2.1194e+01	2.1185	-13.352826	0.000609	6.086702	1.031115	0.000061
 215	2.1293e+01	2.1285	-13.316492	0.000365	3.652021	0.618669	0.000037
 216	2.1392e+01	2.1390	-13.239787	0.000771	7.709822	1.306079	0.000077
 217	2.1492e+01	2.1488	-13.227675	0.000122	1.217340	0.206223	0.000012
 218	2.1591e+01	2.1583	-13.155007	0.000730	7.304042	1.237338	0.000073
 219	2.1691e+01	2.1692	-13.086375	0.000690	6.898262	1.168597	0.000069
 220	2.1791e+01	2.1787	-13.082338	0.000041	0.405780	0.068741	0.000004
 221	2.1890e+01	2.1896	-12.985447	0.000974	9.738723	1.649784	0.000097
 222	2.1989e+01	2.1967	-12.961224	0.000243	2.434681	0.412446	0.000024
 223	2.2089e+01	2.2084	-12.892593	0.000690	6.898262	1.168597	0.000069
 224	2.2189e+01	2.2175	-12.807813	0.000852	8.521383	1.443561	0.000085
 225	2.2288e+01	2.2282	-12.787627	0.000203	2.028901	0.343705	0.000020
 226	2.2387e+01	2.2380	-12.710922	0.000771	7.709822	1.306079	0.000077
 227	2.2487e+01	2.2488	-12.682662	0.000284	2.840461	0.481187	0.000028
 228	2.2587e+01	2.2574	-12.605956	0.000771	7.709822	1.306079	0.000077
 229	2.2686e+01	2.2670	-12.597882	0.000081	0.811560	0.137482	0.000008
 230	2.2785e+01	2.2780	-12.492917	0.001055	10.550283	1.787266	0.000105
 231	2.2885e+01	2.2881	-12.452545	0.000406	4.057801	0.687410	0.000041
 232	2.2985e+01	2.2974	-12.391988	0.000609	6.086702	1.031115	0.000061
 233	2.3084e+01	2.3083	-12.323357	0.000690	6.898262	1.168597	0.000069
 234	2.3183e+01	2.3170	-12.250688	0.000730	7.304042	1.237338	0.000073
 235	2.3283e+01	2.3274	-12.246651	0.000041	0.405780	0.068741	0.000004
 236	2.3383e+01	2.3375	-12.178020	0.000690	6.898262	1.168597	0.000069
 237	2.3482e+01	2.3476	-12.133611	0.000446	4.463581	0.756151	0.000045
 238	2.3581e+01	2.3571	-12.048832	0.000852	8.521383	1.443561	0.000085
 239	2.3681e+01	2.3680	-12.040757	0.000081	0.811560	0.137482	0.000008
 240	2.3780e+01	2.3774	-11.988275	0.000528	5.275142	0.893633	0.000053
 241	2.3880e+01	2.3878	-11.915606	0.000730	7.304042	1.237338	0.000073
 242	2.3980e+01	2.3969	-11.867161	0.000487	4.869362	0.824892	0.000049
 243	2.4079e+01	2.4079	-11.855049	0.000122	1.217340	0.206223	0.000012
 244	2.4178e+01	2.4168	-11.770269	0.000852	8.521383	1.443561	0.000085
 245	2.4278e+01	2.4282	-11.725861	0.000446	4.463581	0.756151	0.000045
 246	2.4378e+01	2.4372	-11.649155	0.000771	7.709822	1.306079	0.000077
 247	2.4477e+01	2.4471	-11.661267	-0.000122	-1.217340	-0.206223	-0.000012
 248	2.4576e+01	2.4574	-11.568412	0.000933	9.332943	1.581043	0.000093
 249	2.4676e+01	2.4659	-11.528041	0.000406	4.057801	0.687410	0.000041
 250	2.4776e+01	2.4766	-11.503818	0.000243	2.434681	0.412446	0.000024
 251	2.4875e+01	2.4863	-11.435187	0.000690	6.898262	1.168597	0.000069
 252	2.4974e+01	2.4966	-11.386741	0.000487	4.869362	0.824892	0.000049
 253	2.5074e+01	2.5066	-11.334259	0.000528	5.275142	0.893633	0.000053
 254	2.5174e+01	2.5160	-11.326184	0.000081	0.811560	0.137482	0.000008
 255	2.5273e+01	2.5262	-11.249479	0.000771	7.709822	1.306079	0.000077
 256	2.5372e+01	2.5359	-11.160662	0.000893	8.927163	1.512302	0.000089
 257	2.5472e+01	2.5462	-11.172773	-0.000122	-1.217340	-0.206223	-0.000012
 258	2.5572e+01	2.5555	-11.075882	0.000974	9.738723	1.649784	0.000097
 259	2.5671e+01	2.5661	-11.063770	0.000122	1.217340	0.206223	0.000012
 260	2.5770e+01	2.5765	-10.995139	0.000690	6.898262	1.168597	0.000069
 261	2.5870e+01	2.5865	-10.950731	0.000446	4.463581	0.756151	0.000045
 262	2.5970e+01	2.5956	-10.882099	0.000690	6.898262	1.168597	0.000069
 263	2.6069e+01	2.6058	-10.841728	0.000406	4.057801	0.687410	0.000041
 264	2.6169e+01	2.6156	-10.817505	0.000243	2.434681	0.412446	0.000024
 265	2.6268e+01	2.6257	-10.765022	0.000528	5.275142	0.893633	0.000053
 266	2.6367e+01	2.6358	-10.668131	0.000974	9.738723	1.649784	0.000097
 267	2.6467e+01	2.6458	-10.607574	0.000609	6.086702	1.031115	0.000061
 268	2.6567e+01	2.6563	-10.619686	-0.000122	-1.217340	-0.206223	-0.000012
 269	2.6666e+01	2.6671	-10.551054	0.000690	6.898262	1.168597	0.000069
 270	2.6765e+01	2.6756	-10.482423	0.000690	6.898262	1.168597	0.000069
 271	2.6865e+01	2.6865	-10.413792	0.000690	6.898262	1.168597	0.000069
 272	2.6965e+01	2.6960	-10.389569	0.000243	2.434681	0.412446	0.000024
 273	2.7064e+01	2.7055	-10.320938	0.000690	6.898262	1.168597	0.000069
 274	2.7163e+01	2.7155	-10.320938	0.000000	0.000000	0.000000	0.000000
 275	2.7263e+01	2.7256	-10.220009	0.001014	10.144503	1.718525	0.000101
 276	2.7363e+01	2.7356	-10.211935	0.000081	0.811560	0.137482	0.000008
 277	2.7462e+01	2.7458	-10.183675	0.000284	2.840461	0.481187	0.000028
 278	2.7561e+01	2.7550	-10.094858	0.000893	8.927163	1.512302	0.000089
 279	2.7661e+01	2.7654	-10.030264	0.000649	6.492482	1.099856	0.000065
 280	2.7761e+01	2.7752	-10.034301	-0.000041	-0.405780	-0.068741	-0.000004
 281	2.7860e+01	2.7857	-9.973744	0.000609	6.086702	1.031115	0.000061
 282	2.7959e+01	2.7950	-9.905113	0.000690	6.898262	1.168597	0.000069
 283	2.8059e+01	2.8059	-9.872815	0.000325	3.246241	0.549928	0.000032
 284	2.8159e+01	2.8146	-9.808221	0.000649	6.492482	1.099856	0.000065
 285	2.8258e+01	2.8243	-9.792073	0.000162	1.623121	0.274964	0.000016
 286	2.8358e+01	2.8352	-9.711330	0.000812	8.115603	1.374820	0.000081
 287	2.8457e+01	2.8446	-9.650773	0.000609	6.086702	1.031115	0.000061
 288	2.8556e+01	2.8550	-9.606364	0.000446	4.463581	0.756151	0.000045
 289	2.8656e+01	2.8651	-9.561956	0.000446	4.463581	0.756151	0.000045
 290	2.8756e+01	2.8756	-9.533696	0.000284	2.840461	0.481187	0.000028
 291	2.8855e+01	2.8844	-9.440842	0.000933	9.332943	1.581043	0.000093
 292	2.8954e+01	2.8939	-9.376248	0.000649	6.492482	1.099856	0.000065
 293	2.9054e+01	2.9042	-9.376248	0.000000	0.000000	0.000000	0.000000
 294	2.9154e+01	2.9149	-9.311654	0.000649	6.492482	1.099856	0.000065
 295	2.9253e+01	2.9247	-9.226874	0.000852	8.521383	1.443561	0.000085
 296	2.9352e+01	2.9357	-9.182465	0.000446	4.463581	0.756151	0.000045
 297	2.9452e+01	2.9440	-9.154205	0.000284	2.840461	0.481187	0.000028
 298	2.9552e+01	2.9545	-9.142094	0.000122	1.217340	0.206223	0.000012
 299	2.9651e+01	2.9652	-9.061351	0.000812	8.115603	1.374820	0.000081
 300	2.9750e+01	2.9739	-9.041165	0.000203	2.028901	0.343705	0.000020
 301	2.9850e+01	2.9839	-8.968497	0.000730	7.304042	1.237338	0.000073
 302	2.9950e+01	2.9935	-8.916014	0.000528	5.275142	0.893633	0.000053
 303	3.0049e+01	3.0047	-8.855457	0.000609	6.086702	1.031115	0.000061
 304	3.0148e+01	3.0144	-8.855457	0.000000	0.000000	0.000000	0.000000
 305	3.0248e+01	3.0247	-8.762603	0.000933	9.332943	1.581043	0.000093
 306	3.0348e+01	3.0343	-8.734343	0.000284	2.840461	0.481187	0.000028
 307	3.0447e+01	3.0435	-8.702046	0.000325	3.246241	0.549928	0.000032
 308	3.0547e+01	3.0534	-8.649563	0.000528	5.275142	0.893633	0.000053
 309	3.0646e+01	3.0645	-8.605155	0.000446	4.463581	0.756151	0.000045
 310	3.0745e+01	3.0740	-8.544598	0.000609	6.086702	1.031115	0.000061
 311	3.0845e+01	3.0832	-8.447707	0.000974	9.738723	1.649784	0.000097
 312	3.0945e+01	3.0939	-8.447707	0.000000	0.000000	0.000000	0.000000
 313	3.1044e+01	3.1040	-8.411372	0.000365	3.652021	0.618669	0.000037
 314	3.1143e+01	3.1141	-8.358890	0.000528	5.275142	0.893633	0.000053
 315	3.1243e+01	3.1240	-8.338704	0.000203	2.028901	0.343705	0.000020
 316	3.1343e+01	3.1338	-8.253924	0.000852	8.521383	1.443561	0.000085
 317	3.1442e+01	3.1434	-8.173181	0.000812	8.115603	1.374820	0.000081
 318	3.1541e+01	3.1530	-8.197404	-0.000243	-2.434681	-0.412446	-0.000024
 319	3.1641e+01	3.1641	-8.120699	0.000771	7.709822	1.306079	0.000077
 320	3.1741e+01	3.1728	-8.035919	0.000852	8.521383	1.443561	0.000085
 321	3.1840e+01	3.1835	-8.015733	0.000203	2.028901	0.343705	0.000020
 322	3.1939e+01	3.1934	-7.999584	0.000162	1.623121	0.274964	0.000016
 323	3.2039e+01	3.2042	-7.934990	0.000649	6.492482	1.099856	0.000065
 324	3.2139e+01	3.2136	-7.874433	0.000609	6.086702	1.031115	0.000061
 325	3.2238e+01	3.2232	-7.850210	0.000243	2.434681	0.412446	0.000024
 326	3.2337e+01	3.2332	-7.749282	0.001014	10.144503	1.718525	0.000101
 327	3.2437e+01	3.2439	-7.745245	0.000041	0.405780	0.068741	0.000004
 328	3.2536e+01	3.2535	-7.696799	0.000487	4.869362	0.824892	0.000049
 329	3.2636e+01	3.2631	-7.616057	0.000812	8.115603	1.374820	0.000081
 330	3.2736e+01	3.2733	-7.587797	0.000284	2.840461	0.481187	0.000028
 331	3.2835e+01	3.2827	-7.515128	0.000730	7.304042	1.237338	0.000073
 332	3.2934e+01	3.2926	-7.478794	0.000365	3.652021	0.618669	0.000037
 333	3.3034e+01	3.3022	-7.418237	0.000609	6.086702	1.031115	0.000061
 334	3.3133e+01	3.3126	-7.402088	0.000162	1.623121	0.274964	0.000016
 335	3.3233e+01	3.3234	-7.349606	0.000528	5.275142	0.893633	0.000053
 336	3.3333e+01	3.3321	-7.285011	0.000649	6.492482	1.099856	0.000065
 337	3.3432e+01	3.3421	-7.256751	0.000284	2.840461	0.481187	0.000028
 338	3.3532e+01	3.3530	-7.192157	0.000649	6.492482	1.099856	0.000065
 339	3.3631e+01	3.3631	-7.135637	0.000568	5.680922	0.962374	0.000057
 340	3.3730e+01	3.3727	-7.111415	0.000243	2.434681	0.412446	0.000024
 341	3.3830e+01	3.3828	-7.018560	0.000933	9.332943	1.581043	0.000093
 342	3.3929e+01	3.3927	-7.006449	0.000122	1.217340	0.206223	0.000012
 343	3.4029e+01	3.4023	-6.917632	0.000893	8.927163	1.512302	0.000089
 344	3.4129e+01	3.4118	-6.865149	0.000528	5.275142	0.893633	0.000053
 345	3.4228e+01	3.4228	-6.869186	-0.000041	-0.405780	-0.068741	-0.000004
 346	3.4328e+01	3.4319	-6.788444	0.000812	8.115603	1.374820	0.000081
 347	3.4427e+01	3.4417	-6.699627	0.000893	8.927163	1.512302	0.000089
 348	3.4526e+01	3.4509	-6.651181	0.000487	4.869362	0.824892	0.000049
 349	3.4626e+01	3.4622	-6.610810	0.000406	4.057801	0.687410	0.000041
 350	3.4725e+01	3.4723	-6.610810	0.000000	0.000000	0.000000	0.000000
 351	3.4825e+01	3.4820	-6.538141	0.000730	7.304042	1.237338	0.000073
 352	3.4925e+01	3.4921	-6.477584	0.000609	6.086702	1.031115	0.000061
 353	3.5024e+01	3.5014	-6.477584	0.000000	0.000000	0.000000	0.000000
 354	3.5123e+01	3.5111	-6.412990	0.000649	6.492482	1.099856	0.000065
 355	3.5223e+01	3.5225	-6.352433	0.000609	6.086702	1.031115	0.000061
 356	3.5322e+01	3.5317	-6.303987	0.000487	4.869362	0.824892	0.000049
 357	3.5422e+01	3.5417	-6.239393	0.000649	6.492482	1.099856	0.000065
 358	3.5522e+01	3.5511	-6.203059	0.000365	3.652021	0.618669	0.000037
 359	3.5621e+01	3.5616	-6.174799	0.000284	2.840461	0.481187	0.000028
 360	3.5721e+01	3.5709	-6.110205	0.000649	6.492482	1.099856	0.000065
 361	3.5820e+01	3.5815	-6.077908	0.000325	3.246241	0.549928	0.000032
 362	3.5919e+01	3.5922	-5.993128	0.000852	8.521383	1.443561	0.000085
 363	3.6019e+01	3.6016	-5.989091	0.000041	0.405780	0.068741	0.000004
 364	3.6118e+01	3.6115	-5.940645	0.000487	4.869362	0.824892	0.000049
 365	3.6218e+01	3.6204	-5.859903	0.000812	8.115603	1.374820	0.000081
 366	3.6318e+01	3.6318	-5.823568	0.000365	3.652021	0.618669	0.000037
 367	3.6417e+01	3.6415	-5.795308	0.000284	2.840461	0.481187	0.000028
 368	3.6517e+01	3.6508	-5.750900	0.000446	4.463581	0.756151	0.000045
 369	3.6616e+01	3.6613	-5.726677	0.000243	2.434681	0.412446	0.000024
 370	3.6715e+01	3.6712	-5.609600	0.001177	11.767624	1.993489	0.000118
 371	3.6815e+01	3.6800	-5.601526	0.000081	0.811560	0.137482	0.000008
 372	3.6914e+01	3.6912	-5.536932	0.000649	6.492482	1.099856	0.000065
 373	3.7014e+01	3.7013	-5.504635	0.000325	3.246241	0.549928	0.000032
 374	3.7114e+01	3.7109	-5.444078	0.000609	6.086702	1.031115	0.000061
 375	3.7213e+01	3.7212	-5.415818	0.000284	2.840461	0.481187	0.000028
 376	3.7313e+01	3.7314	-5.351223	0.000649	6.492482	1.099856	0.000065
 377	3.7412e+01	3.7399	-5.359298	-0.000081	-0.811560	-0.137482	-0.000008
 378	3.7511e+01	3.7504	-5.250295	0.001096	10.956063	1.856007	0.000110
 379	3.7611e+01	3.7603	-5.234146	0.000162	1.623121	0.274964	0.000016
 380	3.7711e+01	3.7710	-5.149367	0.000852	8.521383	1.443561	0.000085
 381	3.7810e+01	3.7803	-5.104958	0.000446	4.463581	0.756151	0.000045
 382	3.7910e+01	3.7901	-5.068624	0.000365	3.652021	0.618669	0.000037
 383	3.8009e+01	3.8005	-5.040364	0.000284	2.840461	0.481187	0.000028
 384	3.8108e+01	3.8091	-5.016141	0.000243	2.434681	0.412446	0.000024
 385	3.8208e+01	3.8205	-4.915213	0.001014	10.144503	1.718525	0.000101
 386	3.8307e+01	3.8294	-4.903101	0.000122	1.217340	0.206223	0.000012
 387	3.8407e+01	3.8404	-4.846581	0.000568	5.680922	0.962374	0.000057
 388	3.8507e+01	3.8492	-4.810247	0.000365	3.652021	0.618669	0.000037
 389	3.8606e+01	3.8602	-4.753727	0.000568	5.680922	0.962374	0.000057
 390	3.8706e+01	3.8703	-4.693170	0.000609	6.086702	1.031115	0.000061
 391	3.8805e+01	3.8803	-4.689133	0.000041	0.405780	0.068741	0.000004
 392	3.8904e+01	3.8889	-4.584168	0.001055	10.550283	1.787266	0.000105
 393	3.9004e+01	3.8994	-4.576093	0.000081	0.811560	0.137482	0.000008
 394	3.9103e+01	3.9098	-4.527648	0.000487	4.869362	0.824892	0.000049
 395	3.9203e+01	3.9201	-4.479202	0.000487	4.869362	0.824892	0.000049
 396	3.9303e+01	3.9305	-4.398459	0.000812	8.115603	1.374820	0.000081
 397	3.9402e+01	3.9388	-4.390385	0.000081	0.811560	0.137482	0.000008
 398	3.9502e+01	3.9491	-4.305605	0.000852	8.521383	1.443561	0.000085
 399	3.9601e+01	3.9595	-4.269271	0.000365	3.652021	0.618669	0.000037
 400	3.9700e+01	3.9691	-4.216788	0.000528	5.275142	0.893633	0.000053
 401	3.9800e+01	3.9796	-4.208714	0.000081	0.811560	0.137482	0.000008
 402	3.9900e+01	3.9883	-4.148157	0.000609	6.086702	1.031115	0.000061
 403	3.9999e+01	4.0000	-4.103748	0.000446	4.463581	0.756151	0.000045
 404	4.0099e+01	4.0090	-4.071451	0.000325	3.246241	0.549928	0.000032
 405	4.0198e+01	4.0189	-3.998783	0.000730	7.304042	1.237338	0.000073
 406	4.0297e+01	4.0287	-3.954374	0.000446	4.463581	0.756151	0.000045
 407	4.0397e+01	4.0395	-3.889780	0.000649	6.492482	1.099856	0.000065
 408	4.0496e+01	4.0491	-3.881706	0.000081	0.811560	0.137482	0.000008
 409	4.0596e+01	4.0594	-3.841335	0.000406	4.057801	0.687410	0.000041
 410	4.0696e+01	4.0692	-3.796926	0.000446	4.463581	0.756151	0.000045
 411	4.0795e+01	4.0783	-3.768666	0.000284	2.840461	0.481187	0.000028
 412	4.0895e+01	4.0893	-3.704072	0.000649	6.492482	1.099856	0.000065
 413	4.0994e+01	4.0990	-3.651589	0.000528	5.275142	0.893633	0.000053
 414	4.1093e+01	4.1091	-3.603144	0.000487	4.869362	0.824892	0.000049
 415	4.1193e+01	4.1183	-3.599107	0.000041	0.405780	0.068741	0.000004
 416	4.1292e+01	4.1285	-3.538549	0.000609	6.086702	1.031115	0.000061
 417	4.1392e+01	4.1382	-3.494141	0.000446	4.463581	0.756151	0.000045
 418	4.1492e+01	4.1485	-3.486067	0.000081	0.811560	0.137482	0.000008
 419	4.1591e+01	4.1582	-3.401287	0.000852	8.521383	1.443561	0.000085
 420	4.1691e+01	4.1685	-3.364953	0.000365	3.652021	0.618669	0.000037
 421	4.1790e+01	4.1778	-3.288247	0.000771	7.709822	1.306079	0.000077
 422	4.1889e+01	4.1888	-3.300358	-0.000122	-1.217340	-0.206223	-0.000012
 423	4.1989e+01	4.1974	-3.251913	0.000487	4.869362	0.824892	0.000049
 424	4.2089e+01	4.2086	-3.203467	0.000487	4.869362	0.824892	0.000049
 425	4.2188e+01	4.2178	-3.150984	0.000528	5.275142	0.893633	0.000053
 426	4.2288e+01	4.2284	-3.150984	0.000000	0.000000	0.000000	0.000000
 427	4.2387e+01	4.2381	-3.078316	0.000730	7.304042	1.237338	0.000073
 428	4.2486e+01	4.2473	-3.046019	0.000325	3.246241	0.549928	0.000032
 429	4.2586e+01	4.2581	-2.977388	0.000690	6.898262	1.168597	0.000069
 430	4.2685e+01	4.2671	-2.949128	0.000284	2.840461	0.481187	0.000028
 431	4.2785e+01	4.2786	-2.896645	0.000528	5.275142	0.893633	0.000053
 432	4.2885e+01	4.2872	-2.888571	0.000081	0.811560	0.137482	0.000008
 433	4.2984e+01	4.2973	-2.787642	0.001014	10.144503	1.718525	0.000101
 434	4.3084e+01	4.3085	-2.807828	-0.000203	-2.028901	-0.343705	-0.000020
 435	4.3183e+01	4.3185	-2.783605	0.000243	2.434681	0.412446	0.000024
 436	4.3282e+01	4.3279	-2.678640	0.001055	10.550283	1.787266	0.000105
 437	4.3382e+01	4.3385	-2.646342	0.000325	3.246241	0.549928	0.000032
 438	4.3481e+01	4.3475	-2.601934	0.000446	4.463581	0.756151	0.000045
 439	4.3581e+01	4.3579	-2.545414	0.000568	5.680922	0.962374	0.000057
 440	4.3681e+01	4.3674	-2.521191	0.000243	2.434681	0.412446	0.000024
 441	4.3780e+01	4.3775	-2.484857	0.000365	3.652021	0.618669	0.000037
 442	4.3880e+01	4.3871	-2.452560	0.000325	3.246241	0.549928	0.000032
 443	4.3979e+01	4.3974	-2.392003	0.000609	6.086702	1.031115	0.000061
 444	4.4078e+01	4.4076	-2.335483	0.000568	5.680922	0.962374	0.000057
 445	4.4178e+01	4.4177	-2.291075	0.000446	4.463581	0.756151	0.000045
 446	4.4278e+01	4.4262	-2.262815	0.000284	2.840461	0.481187	0.000028
 447	4.4377e+01	4.4366	-2.242629	0.000203	2.028901	0.343705	0.000020
 448	4.4477e+01	4.4473	-2.186109	0.000568	5.680922	0.962374	0.000057
 449	4.4576e+01	4.4572	-2.089218	0.000974	9.738723	1.649784	0.000097
 450	4.4675e+01	4.4662	-2.085181	0.000041	0.405780	0.068741	0.000004
 451	4.4775e+01	4.4772	-2.052884	0.000325	3.246241	0.549928	0.000032
 452	4.4874e+01	4.4867	-1.988289	0.000649	6.492482	1.099856	0.000065
 453	4.4974e+01	4.4961	-1.980215	0.000081	0.811560	0.137482	0.000008
 454	4.5074e+01	4.5074	-1.931769	0.000487	4.869362	0.824892	0.000049
 455	4.5173e+01	4.5174	-1.875250	0.000568	5.680922	0.962374	0.000057
 456	4.5273e+01	4.5258	-1.891398	-0.000162	-1.623121	-0.274964	-0.000016
 457	4.5372e+01	4.5366	-1.822767	0.000690	6.898262	1.168597	0.000069
 458	4.5471e+01	4.5464	-1.721838	0.001014	10.144503	1.718525	0.000101
 459	4.5571e+01	4.5565	-1.729913	-0.000081	-0.811560	-0.137482	-0.000008
 460	4.5670e+01	4.5666	-1.685504	0.000446	4.463581	0.756151	0.000045
 461	4.5770e+01	4.5769	-1.637059	0.000487	4.869362	0.824892	0.000049
 462	4.5870e+01	4.5858	-1.584576	0.000528	5.275142	0.893633	0.000053
 463	4.5969e+01	4.5959	-1.519982	0.000649	6.492482	1.099856	0.000065
 464	4.6069e+01	4.6070	-1.491722	0.000284	2.840461	0.481187	0.000028
 465	4.6168e+01	4.6160	-1.419053	0.000730	7.304042	1.237338	0.000073
 466	4.6267e+01	4.6258	-1.419053	0.000000	0.000000	0.000000	0.000000
 467	4.6367e+01	4.6357	-1.382719	0.000365	3.652021	0.618669	0.000037
 468	4.6467e+01	4.6460	-1.334273	0.000487	4.869362	0.824892	0.000049
 469	4.6566e+01	4.6553	-1.285828	0.000487	4.869362	0.824892	0.000049
 470	4.6666e+01	4.6658	-1.265642	0.000203	2.028901	0.343705	0.000020
 471	4.6765e+01	4.6764	-1.205085	0.000609	6.086702	1.031115	0.000061
 472	4.6864e+01	4.6852	-1.156639	0.000487	4.869362	0.824892	0.000049
 473	4.6964e+01	4.6957	-1.120305	0.000365	3.652021	0.618669	0.000037
 474	4.7063e+01	4.7057	-1.096082	0.000243	2.434681	0.412446	0.000024
 475	4.7163e+01	4.7164	-1.051674	0.000446	4.463581	0.756151	0.000045
 476	4.7263e+01	4.7256	-0.999191	0.000528	5.275142	0.893633	0.000053
 477	4.7362e+01	4.7355	-0.966894	0.000325	3.246241	0.549928	0.000032
 478	4.7462e+01	4.7452	-0.914411	0.000528	5.275142	0.893633	0.000053
 479	4.7561e+01	4.7561	-0.833669	0.000812	8.115603	1.374820	0.000081
 480	4.7660e+01	4.7649	-0.849817	-0.000162	-1.623121	-0.274964	-0.000016
 481	4.7760e+01	4.7754	-0.777149	0.000730	7.304042	1.237338	0.000073
 482	4.7859e+01	4.7855	-0.748889	0.000284	2.840461	0.481187	0.000028
 483	4.7959e+01	4.7948	-0.696406	0.000528	5.275142	0.893633	0.000053
 484	4.8059e+01	4.8058	-0.668146	0.000284	2.840461	0.481187	0.000028
 485	4.8158e+01	4.8155	-0.615663	0.000528	5.275142	0.893633	0.000053
 486	4.8258e+01	4.8259	-0.591440	0.000243	2.434681	0.412446	0.000024
 487	4.8357e+01	4.8351	-0.583366	0.000081	0.811560	0.137482	0.000008
 488	4.8456e+01	4.8458	-0.522809	0.000609	6.086702	1.031115	0.000061
 489	4.8556e+01	4.8557	-0.518772	0.000041	0.405780	0.068741	0.000004
 490	4.8656e+01	4.8650	-0.454178	0.000649	6.492482	1.099856	0.000065
 491	4.8755e+01	4.8739	-0.369398	0.000852	8.521383	1.443561	0.000085
 492	4.8855e+01	4.8848	-0.337101	0.000325	3.246241	0.549928	0.000032
 493	4.8954e+01	4.8949	-0.300767	0.000365	3.652021	0.618669	0.000037
 494	4.9053e+01	4.9053	-0.252321	0.000487	4.869362	0.824892	0.000049
 495	4.9153e+01	4.9142	-0.191764	0.000609	6.086702	1.031115	0.000061
 496	4.9252e+01	4.9250	-0.191764	0.000000	0.000000	0.000000	0.000000
 497	4.9352e+01	4.9339	-0.102947	0.000893	8.927163	1.512302	0.000089
 498	4.9452e+01	4.9450	-0.054501	0.000487	4.869362	0.824892	0.000049
 499	4.9551e+01	4.9555	-0.018167	0.000365	3.652021	0.618669	0.000037
 500	4.9651e+01	4.9651	0.050464	0.000690	6.898262	1.168597	0.000069
 501	4.9750e+01	4.9744	0.046427	-0.000041	-0.405780	-0.068741	-0.000004
 502	4.9849e+01	4.9850	0.074687	0.000284	2.840461	0.481187	0.000028
 503	4.9949e+01	4.9953	0.155430	0.000812	8.115603	1.374820	0.000081
 504	5.0048e+01	5.0039	0.147355	-0.000081	-0.811560	-0.137482	-0.000008
 505	5.0148e+01	5.0141	0.256358	0.001096	10.956063	1.856007	0.000110
 506	5.0248e+01	5.0249	0.276544	0.000203	2.028901	0.343705	0.000020
 507	5.0347e+01	5.0342	0.308841	0.000325	3.246241	0.549928	0.000032
 508	5.0447e+01	5.0443	0.357287	0.000487	4.869362	0.824892	0.000049
 509	5.0546e+01	5.0536	0.397658	0.000406	4.057801	0.687410	0.000041
 510	5.0645e+01	5.0636	0.470326	0.000730	7.304042	1.237338	0.000073
 511	5.0745e+01	5.0735	0.518772	0.000487	4.869362	0.824892	0.000049
 512	5.0844e+01	5.0835	0.530883	0.000122	1.217340	0.206223	0.000012
 513	5.0944e+01	5.0933	0.579329	0.000487	4.869362	0.824892	0.000049
 514	5.1044e+01	5.1043	0.591440	0.000122	1.217340	0.206223	0.000012
 515	5.1143e+01	5.1144	0.676220	0.000852	8.521383	1.443561	0.000085
 516	5.1242e+01	5.1235	0.736777	0.000609	6.086702	1.031115	0.000061
 517	5.1342e+01	5.1326	0.773111	0.000365	3.652021	0.618669	0.000037
 518	5.1441e+01	5.1428	0.777149	0.000041	0.405780	0.068741	0.000004
 519	5.1541e+01	5.1530	0.797334	0.000203	2.028901	0.343705	0.000020
 520	5.1641e+01	5.1633	0.870003	0.000730	7.304042	1.237338	0.000073
 521	5.1740e+01	5.1730	0.930560	0.000609	6.086702	1.031115	0.000061
 522	5.1840e+01	5.1835	0.962857	0.000325	3.246241	0.549928	0.000032
 523	5.1939e+01	5.1937	1.007265	0.000446	4.463581	0.756151	0.000045
 524	5.2038e+01	5.2040	0.995154	-0.000122	-1.217340	-0.206223	-0.000012
 525	5.2138e+01	5.2131	1.071860	0.000771	7.709822	1.306079	0.000077
 526	5.2237e+01	5.2233	1.116268	0.000446	4.463581	0.756151	0.000045
 527	5.2337e+01	5.2329	1.144528	0.000284	2.840461	0.481187	0.000028
 528	5.2437e+01	5.2429	1.180862	0.000365	3.652021	0.618669	0.000037
 529	5.2536e+01	5.2532	1.249494	0.000690	6.898262	1.168597	0.000069
 530	5.2636e+01	5.2633	1.273716	0.000243	2.434681	0.412446	0.000024
 531	5.2735e+01	5.2737	1.326199	0.000528	5.275142	0.893633	0.000053
 532	5.2834e+01	5.2828	1.350422	0.000243	2.434681	0.412446	0.000024
 533	5.2934e+01	5.2918	1.402905	0.000528	5.275142	0.893633	0.000053
 534	5.3033e+01	5.3010	1.447313	0.000446	4.463581	0.756151	0.000045
 535	5.3133e+01	5.3121	1.463462	0.000162	1.623121	0.274964	0.000016
 536	5.3233e+01	5.3226	1.511907	0.000487	4.869362	0.824892	0.000049
 537	5.3332e+01	5.3326	1.592650	0.000812	8.115603	1.374820	0.000081
 538	5.3431e+01	5.3430	1.633021	0.000406	4.057801	0.687410	0.000041
 539	5.3531e+01	5.3535	1.628984	-0.000041	-0.405780	-0.068741	-0.000004
 540	5.3630e+01	5.3620	1.665318	0.000365	3.652021	0.618669	0.000037
 541	5.3730e+01	5.3735	1.709727	0.000446	4.463581	0.756151	0.000045
 542	5.3830e+01	5.3819	1.742024	0.000325	3.246241	0.549928	0.000032
 543	5.3929e+01	5.3929	1.810655	0.000690	6.898262	1.168597	0.000069
 544	5.4029e+01	5.4018	1.846990	0.000365	3.652021	0.618669	0.000037
 545	5.4128e+01	5.4128	1.863138	0.000162	1.623121	0.274964	0.000016
 546	5.4227e+01	5.4229	1.943881	0.000812	8.115603	1.374820	0.000081
 547	5.4327e+01	5.4325	1.947918	0.000041	0.405780	0.068741	0.000004
 548	5.4426e+01	5.4420	2.024624	0.000771	7.709822	1.306079	0.000077
 549	5.4526e+01	5.4528	2.064995	0.000406	4.057801	0.687410	0.000041
 550	5.4626e+01	5.4613	2.105366	0.000406	4.057801	0.687410	0.000041
 551	5.4725e+01	5.4727	2.109403	0.000041	0.405780	0.068741	0.000004
 552	5.4825e+01	5.4813	2.178035	0.000690	6.898262	1.168597	0.000069
 553	5.4924e+01	5.4918	2.266852	0.000893	8.927163	1.512302	0.000089
 554	5.5023e+01	5.5021	2.242629	-0.000243	-2.434681	-0.412446	-0.000024
 555	5.5123e+01	5.5116	2.287037	0.000446	4.463581	0.756151	0.000045
 556	5.5222e+01	5.5217	2.359706	0.000730	7.304042	1.237338	0.000073
 557	5.5322e+01	5.5312	2.432374	0.000730	7.304042	1.237338	0.000073
 558	5.5422e+01	5.5413	2.428337	-0.000041	-0.405780	-0.068741	-0.000004
 559	5.5521e+01	5.5521	2.452560	0.000243	2.434681	0.412446	0.000024
 560	5.5620e+01	5.5615	2.537340	0.000852	8.521383	1.443561	0.000085
 561	5.5720e+01	5.5711	2.553488	0.000162	1.623121	0.274964	0.000016
 562	5.5819e+01	5.5822	2.601934	0.000487	4.869362	0.824892	0.000049
 563	5.5919e+01	5.5914	2.622120	0.000203	2.028901	0.343705	0.000020
 564	5.6019e+01	5.6017	2.654417	0.000325	3.246241	0.549928	0.000032
 565	5.6118e+01	5.6120	2.706900	0.000528	5.275142	0.893633	0.000053
 566	5.6218e+01	5.6210	2.739197	0.000325	3.246241	0.549928	0.000032
 567	5.6317e+01	5.6316	2.811865	0.000730	7.304042	1.237338	0.000073
 568	5.6416e+01	5.6408	2.868385	0.000568	5.680922	0.962374	0.000057
 569	5.6516e+01	5.6512	2.860311	-0.000081	-0.811560	-0.137482	-0.000008
 570	5.6615e+01	5.6612	2.912793	0.000528	5.275142	0.893633	0.000053
 571	5.6715e+01	5.6719	2.973350	0.000609	6.086702	1.031115	0.000061
 572	5.6815e+01	5.6808	3.033908	0.000609	6.086702	1.031115	0.000061
 573	5.6914e+01	5.6911	3.041982	0.000081	0.811560	0.137482	0.000008
 574	5.7014e+01	5.7005	3.062167	0.000203	2.028901	0.343705	0.000020
 575	5.7113e+01	5.7113	3.110613	0.000487	4.869362	0.824892	0.000049
 576	5.7212e+01	5.7201	3.183282	0.000730	7.304042	1.237338	0.000073
 577	5.7312e+01	5.7310	3.183282	0.000000	0.000000	0.000000	0.000000
 578	5.7411e+01	5.7404	3.215579	0.000325	3.246241	0.549928	0.000032
 579	5.7511e+01	5.7511	3.272099	0.000568	5.680922	0.962374	0.000057
 580	5.7611e+01	5.7606	3.308433	0.000365	3.652021	0.618669	0.000037
 581	5.7710e+01	5.7708	3.348804	0.000406	4.057801	0.687410	0.000041
 582	5.7809e+01	5.7803	3.385138	0.000365	3.652021	0.618669	0.000037
 583	5.7909e+01	5.7910	3.409361	0.000243	2.434681	0.412446	0.000024
 584	5.8008e+01	5.8002	3.469918	0.000609	6.086702	1.031115	0.000061
 585	5.8108e+01	5.8099	3.502215	0.000325	3.246241	0.549928	0.000032
 586	5.8208e+01	5.8196	3.538549	0.000365	3.652021	0.618669	0.000037
 587	5.8307e+01	5.8300	3.542587	0.000041	0.405780	0.068741	0.000004
 588	5.8407e+01	5.8401	3.599107	0.000568	5.680922	0.962374	0.000057
 589	5.8506e+01	5.8512	3.639478	0.000406	4.057801	0.687410	0.000041
 590	5.8605e+01	5.8601	3.671775	0.000325	3.246241	0.549928	0.000032
 591	5.8705e+01	5.8707	3.712146	0.000406	4.057801	0.687410	0.000041
 592	5.8804e+01	5.8807	3.716183	0.000041	0.405780	0.068741	0.000004
 593	5.8904e+01	5.8907	3.776740	0.000609	6.086702	1.031115	0.000061
 594	5.9004e+01	5.9002	3.809038	0.000325	3.246241	0.549928	0.000032
 595	5.9103e+01	5.9099	3.869595	0.000609	6.086702	1.031115	0.000061
 596	5.9203e+01	5.9191	3.893817	0.000243	2.434681	0.412446	0.000024
 597	5.9302e+01	5.9301	3.934189	0.000406	4.057801	0.687410	0.000041
 598	5.9401e+01	5.9388	3.998783	0.000649	6.492482	1.099856	0.000065
 599	5.9501e+01	5.9500	4.014931	0.000162	1.623121	0.274964	0.000016
 600	5.9600e+01	5.9594	4.035117	0.000203	2.028901	0.343705	0.000020
 601	5.9700e+01	5.9705	4.063377	0.000284	2.840461	0.481187	0.000028
 602	5.9800e+01	5.9795	4.160268	0.000974	9.738723	1.649784	0.000097
 603	5.9899e+01	5.9895	4.168343	0.000081	0.811560	0.137482	0.000008
 604	5.9998e+01	5.9994	4.184491	0.000162	1.623121	0.274964	0.000016
 605	6.0098e+01	6.0086	4.273308	0.000893	8.927163	1.512302	0.000089
 606	6.0197e+01	6.0195	4.285420	0.000122	1.217340	0.206223	0.000012
 607	6.0297e+01	6.0305	4.313680	0.000284	2.840461	0.481187	0.000028
 608	6.0397e+01	6.0389	4.370199	0.000568	5.680922	0.962374	0.000057
 609	6.0496e+01	6.0493	4.378274	0.000081	0.811560	0.137482	0.000008
 610	6.0596e+01	6.0596	4.422682	0.000446	4.463581	0.756151	0.000045
 611	6.0695e+01	6.0684	4.446905	0.000243	2.434681	0.412446	0.000024
 612	6.0794e+01	6.0787	4.519573	0.000730	7.304042	1.237338	0.000073
 613	6.0894e+01	6.0896	4.547833	0.000284	2.840461	0.481187	0.000028
 614	6.0993e+01	6.0992	4.580130	0.000325	3.246241	0.549928	0.000032
 615	6.1093e+01	6.1080	4.640688	0.000609	6.086702	1.031115	0.000061
 616	6.1193e+01	6.1187	4.652799	0.000122	1.217340	0.206223	0.000012
 617	6.1292e+01	6.1298	4.693170	0.000406	4.057801	0.687410	0.000041
 618	6.1392e+01	6.1391	4.745653	0.000528	5.275142	0.893633	0.000053
 619	6.1491e+01	6.1492	4.777950	0.000325	3.246241	0.549928	0.000032
 620	6.1590e+01	6.1581	4.814284	0.000365	3.652021	0.618669	0.000037
 621	6.1690e+01	6.1682	4.842544	0.000284	2.840461	0.481187	0.000028
 622	6.1789e+01	6.1793	4.882916	0.000406	4.057801	0.687410	0.000041
 623	6.1889e+01	6.1884	4.931361	0.000487	4.869362	0.824892	0.000049
 624	6.1989e+01	6.1993	4.951547	0.000203	2.028901	0.343705	0.000020
 625	6.2088e+01	6.2074	5.004030	0.000528	5.275142	0.893633	0.000053
 626	6.2188e+01	6.2179	5.044401	0.000406	4.057801	0.687410	0.000041
 627	6.2287e+01	6.2286	5.080735	0.000365	3.652021	0.618669	0.000037
 628	6.2386e+01	6.2383	5.108995	0.000284	2.840461	0.481187	0.000028
 629	6.2486e+01	6.2490	5.177627	0.000690	6.898262	1.168597	0.000069
 630	6.2586e+01	6.2585	5.217998	0.000406	4.057801	0.687410	0.000041
 631	6.2685e+01	6.2685	5.270481	0.000528	5.275142	0.893633	0.000053
 632	6.2785e+01	6.2782	5.238184	-0.000325	-3.246241	-0.549928	-0.000032
 633	6.2884e+01	6.2891	5.355261	0.001177	11.767624	1.993489	0.000118
 634	6.2983e+01	6.2978	5.351223	-0.000041	-0.405780	-0.068741	-0.000004
 635	6.3083e+01	6.3070	5.423892	0.000730	7.304042	1.237338	0.000073
 636	6.3182e+01	6.3170	5.444078	0.000203	2.028901	0.343705	0.000020
 637	6.3282e+01	6.3277	5.456189	0.000122	1.217340	0.206223	0.000012
 638	6.3382e+01	6.3371	5.524820	0.000690	6.898262	1.168597	0.000069
 639	6.3481e+01	6.3472	5.496560	-0.000284	-2.840461	-0.481187	-0.000028
 640	6.3581e+01	6.3575	5.569229	0.000730	7.304042	1.237338	0.000073
 641	6.3680e+01	6.3673	5.577303	0.000081	0.811560	0.137482	0.000008
 642	6.3779e+01	6.3766	5.654009	0.000771	7.709822	1.306079	0.000077
 643	6.3879e+01	6.3859	5.670157	0.000162	1.623121	0.274964	0.000016
 644	6.3978e+01	6.3968	5.734751	0.000649	6.492482	1.099856	0.000065
 645	6.4078e+01	6.4060	5.742826	0.000081	0.811560	0.137482	0.000008
 646	6.4177e+01	6.4162	5.763011	0.000203	2.028901	0.343705	0.000020
 647	6.4277e+01	6.4275	5.847791	0.000852	8.521383	1.443561	0.000085
 648	6.4376e+01	6.4365	5.859903	0.000122	1.217340	0.206223	0.000012
 649	6.4476e+01	6.4472	5.896237	0.000365	3.652021	0.618669	0.000037
 650	6.4576e+01	6.4565	5.940645	0.000446	4.463581	0.756151	0.000045
 651	6.4675e+01	6.4663	5.972942	0.000325	3.246241	0.549928	0.000032
 652	6.4775e+01	6.4764	6.001202	0.000284	2.840461	0.481187	0.000028
 653	6.4874e+01	6.4866	6.065796	0.000649	6.492482	1.099856	0.000065
 654	6.4974e+01	6.4960	6.065796	0.000000	0.000000	0.000000	0.000000
 655	6.5073e+01	6.5062	6.126353	0.000609	6.086702	1.031115	0.000061
 656	6.5172e+01	6.5159	6.158651	0.000325	3.246241	0.549928	0.000032
 657	6.5272e+01	6.5264	6.203059	0.000446	4.463581	0.756151	0.000045
 658	6.5371e+01	6.5362	6.231319	0.000284	2.840461	0.481187	0.000028
 659	6.5471e+01	6.5469	6.291876	0.000609	6.086702	1.031115	0.000061
 660	6.5570e+01	6.5557	6.324173	0.000325	3.246241	0.549928	0.000032
 661	6.5670e+01	6.5676	6.364544	0.000406	4.057801	0.687410	0.000041
 662	6.5769e+01	6.5770	6.372619	0.000081	0.811560	0.137482	0.000008
 663	6.5869e+01	6.5862	6.433176	0.000609	6.086702	1.031115	0.000061
 664	6.5969e+01	6.5967	6.465473	0.000325	3.246241	0.549928	0.000032
 665	6.6068e+01	6.6064	6.517956	0.000528	5.275142	0.893633	0.000053
 666	6.6168e+01	6.6163	6.594661	0.000771	7.709822	1.306079	0.000077
 667	6.6267e+01	6.6257	6.602735	0.000081	0.811560	0.137482	0.000008
 668	6.6367e+01	6.6350	6.667330	0.000649	6.492482	1.099856	0.000065
 669	6.6466e+01	6.6455	6.671367	0.000041	0.405780	0.068741	0.000004
 670	6.6566e+01	6.6553	6.699627	0.000284	2.840461	0.481187	0.000028
 671	6.6665e+01	6.6651	6.768258	0.000690	6.898262	1.168597	0.000069
 672	6.6764e+01	6.6762	6.804592	0.000365	3.652021	0.618669	0.000037
 673	6.6864e+01	6.6860	6.836889	0.000325	3.246241	0.549928	0.000032
 674	6.6963e+01	6.6956	6.881298	0.000446	4.463581	0.756151	0.000045
 675	6.7063e+01	6.7060	6.929743	0.000487	4.869362	0.824892	0.000049
 676	6.7162e+01	6.7147	6.990301	0.000609	6.086702	1.031115	0.000061
 677	6.7262e+01	6.7254	7.006449	0.000162	1.623121	0.274964	0.000016
 678	6.7362e+01	6.7352	7.026635	0.000203	2.028901	0.343705	0.000020
 679	6.7461e+01	6.7464	7.111415	0.000852	8.521383	1.443561	0.000085
 680	6.7561e+01	6.7554	7.135637	0.000243	2.434681	0.412446	0.000024
 681	6.7660e+01	6.7652	7.180046	0.000446	4.463581	0.756151	0.000045
 682	6.7760e+01	6.7751	7.232529	0.000528	5.275142	0.893633	0.000053
 683	6.7859e+01	6.7845	7.220417	-0.000122	-1.217340	-0.206223	-0.000012
 684	6.7959e+01	6.7943	7.289049	0.000690	6.898262	1.168597	0.000069
 685	6.8058e+01	6.8047	7.333457	0.000446	4.463581	0.756151	0.000045
 686	6.8157e+01	6.8156	7.329420	-0.000041	-0.405780	-0.068741	-0.000004
 687	6.8257e+01	6.8245	7.402088	0.000730	7.304042	1.237338	0.000073
 688	6.8356e+01	6.8339	7.482831	0.000812	8.115603	1.374820	0.000081
 689	6.8456e+01	6.8453	7.466683	-0.000162	-1.623121	-0.274964	-0.000016
 690	6.8555e+01	6.8546	7.519165	0.000528	5.275142	0.893633	0.000053
 691	6.8655e+01	6.8652	7.559537	0.000406	4.057801	0.687410	0.000041
 692	6.8754e+01	6.8743	7.595871	0.000365	3.652021	0.618669	0.000037
 693	6.8854e+01	6.8839	7.632205	0.000365	3.652021	0.618669	0.000037
 694	6.8954e+01	6.8940	7.696799	0.000649	6.492482	1.099856	0.000065
 695	6.9053e+01	6.9045	7.721022	0.000243	2.434681	0.412446	0.000024
 696	6.9153e+01	6.9154	7.773505	0.000528	5.275142	0.893633	0.000053
 697	6.9252e+01	6.9253	7.765431	-0.000081	-0.811560	-0.137482	-0.000008
 698	6.9352e+01	6.9347	7.834062	0.000690	6.898262	1.168597	0.000069
 699	6.9451e+01	6.9451	7.878470	0.000446	4.463581	0.756151	0.000045
 700	6.9550e+01	6.9533	7.914805	0.000365	3.652021	0.618669	0.000037
 701	6.9650e+01	6.9642	7.955176	0.000406	4.057801	0.687410	0.000041
 702	6.9749e+01	6.9741	7.979399	0.000243	2.434681	0.412446	0.000024
 703	6.9849e+01	6.9839	8.003622	0.000243	2.434681	0.412446	0.000024
 704	6.9948e+01	6.9936	8.080327	0.000771	7.709822	1.306079	0.000077
 705	7.0048e+01	7.0029	8.132810	0.000528	5.275142	0.893633	0.000053
 706	7.0147e+01	7.0142	8.148958	0.000162	1.623121	0.274964	0.000016
 707	7.0247e+01	7.0235	8.177218	0.000284	2.840461	0.481187	0.000028
 708	7.0347e+01	7.0338	8.221627	0.000446	4.463581	0.756151	0.000045
 709	7.0446e+01	7.0440	8.253924	0.000325	3.246241	0.549928	0.000032
 710	7.0546e+01	7.0533	8.282184	0.000284	2.840461	0.481187	0.000028
 711	7.0645e+01	7.0630	8.338704	0.000568	5.680922	0.962374	0.000057
 712	7.0745e+01	7.0730	8.423484	0.000852	8.521383	1.443561	0.000085
 713	7.0844e+01	7.0831	8.451744	0.000284	2.840461	0.481187	0.000028
 714	7.0944e+01	7.0937	8.415409	-0.000365	-3.652021	-0.618669	-0.000037
 715	7.1043e+01	7.1037	8.516338	0.001014	10.144503	1.718525	0.000101
 716	7.1142e+01	7.1130	8.524412	0.000081	0.811560	0.137482	0.000008
 717	7.1242e+01	7.1236	8.536524	0.000122	1.217340	0.206223	0.000012
 718	7.1341e+01	7.1334	8.641489	0.001055	10.550283	1.787266	0.000105
 719	7.1441e+01	7.1429	8.693972	0.000528	5.275142	0.893633	0.000053
 720	7.1540e+01	7.1522	8.677823	-0.000162	-1.623121	-0.274964	-0.000016
 721	7.1640e+01	7.1624	8.742417	0.000649	6.492482	1.099856	0.000065
 722	7.1740e+01	7.1735	8.782789	0.000406	4.057801	0.687410	0.000041
 723	7.1839e+01	7.1828	8.794900	0.000122	1.217340	0.206223	0.000012
 724	7.1939e+01	7.1932	8.887754	0.000933	9.332943	1.581043	0.000093
 725	7.2038e+01	7.2028	8.879680	-0.000081	-0.811560	-0.137482	-0.000008
 726	7.2138e+01	7.2134	8.940237	0.000609	6.086702	1.031115	0.000061
 727	7.2237e+01	7.2234	8.976571	0.000365	3.652021	0.618669	0.000037
 728	7.2337e+01	7.2322	9.049240	0.000730	7.304042	1.237338	0.000073
 729	7.2436e+01	7.2427	9.045203	-0.000041	-0.405780	-0.068741	-0.000004
 730	7.2535e+01	7.2530	9.121908	0.000771	7.709822	1.306079	0.000077
 731	7.2635e+01	7.2633	9.150168	0.000284	2.840461	0.481187	0.000028
 732	7.2734e+01	7.2715	9.186502	0.000365	3.652021	0.618669	0.000037
 733	7.2834e+01	7.2827	9.198614	0.000122	1.217340	0.206223	0.000012
 734	7.2933e+01	7.2929	9.243022	0.000446	4.463581	0.756151	0.000045
 735	7.3033e+01	7.3029	9.339914	0.000974	9.738723	1.649784	0.000097
 736	7.3132e+01	7.3124	9.368173	0.000284	2.840461	0.481187	0.000028
 737	7.3232e+01	7.3226	9.356062	-0.000122	-1.217340	-0.206223	-0.000012
 738	7.3332e+01	7.3316	9.452953	0.000974	9.738723	1.649784	0.000097
 739	7.3431e+01	7.3423	9.428731	-0.000243	-2.434681	-0.412446	-0.000024
 740	7.3531e+01	7.3522	9.545807	0.001177	11.767624	1.993489	0.000118
 741	7.3630e+01	7.3624	9.545807	0.000000	0.000000	0.000000	0.000000
 742	7.3730e+01	7.3719	9.590216	0.000446	4.463581	0.756151	0.000045
 743	7.3829e+01	7.3825	9.618476	0.000284	2.840461	0.481187	0.000028
 744	7.3928e+01	7.3912	9.683070	0.000649	6.492482	1.099856	0.000065
 745	7.4028e+01	7.4016	9.691144	0.000081	0.811560	0.137482	0.000008
 746	7.4127e+01	7.4111	9.731516	0.000406	4.057801	0.687410	0.000041
 747	7.4227e+01	7.4220	9.767850	0.000365	3.652021	0.618669	0.000037
 748	7.4326e+01	7.4329	9.808221	0.000406	4.057801	0.687410	0.000041
 749	7.4426e+01	7.4422	9.844555	0.000365	3.652021	0.618669	0.000037
 750	7.4525e+01	7.4516	9.880890	0.000365	3.652021	0.618669	0.000037
 751	7.4625e+01	7.4625	9.921261	0.000406	4.057801	0.687410	0.000041
 752	7.4725e+01	7.4711	9.973744	0.000528	5.275142	0.893633	0.000053
 753	7.4824e+01	7.4813	10.002004	0.000284	2.840461	0.481187	0.000028
 754	7.4924e+01	7.4914	10.046412	0.000446	4.463581	0.756151	0.000045
 755	7.5023e+01	7.5011	10.090821	0.000446	4.463581	0.756151	0.000045
 756	7.5123e+01	7.5126	10.119081	0.000284	2.840461	0.481187	0.000028
 757	7.5222e+01	7.5208	10.159452	0.000406	4.057801	0.687410	0.000041
 758	7.5322e+01	7.5311	10.224046	0.000649	6.492482	1.099856	0.000065
 759	7.5421e+01	7.5415	10.228083	0.000041	0.405780	0.068741	0.000004
 760	7.5520e+01	7.5514	10.252306	0.000243	2.434681	0.412446	0.000024
 761	7.5620e+01	7.5613	10.320938	0.000690	6.898262	1.168597	0.000069
 762	7.5719e+01	7.5720	10.365346	0.000446	4.463581	0.756151	0.000045
 763	7.5819e+01	7.5800	10.361309	-0.000041	-0.405780	-0.068741	-0.000004
 764	7.5918e+01	7.5905	10.429940	0.000690	6.898262	1.168597	0.000069
 765	7.6018e+01	7.6003	10.442052	0.000122	1.217340	0.206223	0.000012
 766	7.6118e+01	7.6109	10.526831	0.000852	8.521383	1.443561	0.000085
 767	7.6217e+01	7.6211	10.547017	0.000203	2.028901	0.343705	0.000020
 768	7.6317e+01	7.6297	10.591426	0.000446	4.463581	0.756151	0.000045
 769	7.6416e+01	7.6402	10.639871	0.000487	4.869362	0.824892	0.000049
 770	7.6516e+01	7.6495	10.635834	-0.000041	-0.405780	-0.068741	-0.000004
 771	7.6615e+01	7.6604	10.724651	0.000893	8.927163	1.512302	0.000089
 772	7.6715e+01	7.6701	10.740800	0.000162	1.623121	0.274964	0.000016
 773	7.6814e+01	7.6803	10.773097	0.000325	3.246241	0.549928	0.000032
 774	7.6913e+01	7.6915	10.833654	0.000609	6.086702	1.031115	0.000061
 775	7.7013e+01	7.7003	10.837691	0.000041	0.405780	0.068741	0.000004
 776	7.7112e+01	7.7100	10.890174	0.000528	5.275142	0.893633	0.000053
 777	7.7212e+01	7.7204	10.946694	0.000568	5.680922	0.962374	0.000057
 778	7.7311e+01	7.7309	11.003213	0.000568	5.680922	0.962374	0.000057
 779	7.7411e+01	7.7417	11.023399	0.000203	2.028901	0.343705	0.000020
 780	7.7510e+01	7.7495	11.071845	0.000487	4.869362	0.824892	0.000049
 781	7.7610e+01	7.7602	11.087993	0.000162	1.623121	0.274964	0.000016
 782	7.7710e+01	7.7696	11.136439	0.000487	4.869362	0.824892	0.000049
 783	7.7809e+01	7.7794	11.225256	0.000893	8.927163	1.512302	0.000089
 784	7.7909e+01	7.7905	11.217182	-0.000081	-0.811560	-0.137482	-0.000008
 785	7.8008e+01	7.8005	11.273702	0.000568	5.680922	0.962374	0.000057
 786	7.8108e+01	7.8085	11.281776	0.000081	0.811560	0.137482	0.000008
 787	7.8207e+01	7.8204	11.354444	0.000730	7.304042	1.237338	0.000073
 788	7.8306e+01	7.8291	11.402890	0.000487	4.869362	0.824892	0.000049
 789	7.8406e+01	7.8396	11.459410	0.000568	5.680922	0.962374	0.000057
 790	7.8505e+01	7.8494	11.483633	0.000243	2.434681	0.412446	0.000024
 791	7.8605e+01	7.8602	11.556301	0.000730	7.304042	1.237338	0.000073
 792	7.8704e+01	7.8693	11.616858	0.000609	6.086702	1.031115	0.000061
 793	7.8804e+01	7.8800	11.580524	-0.000365	-3.652021	-0.618669	-0.000037
 794	7.8903e+01	7.8890	11.616858	0.000365	3.652021	0.618669	0.000037
 795	7.9003e+01	7.8997	11.697601	0.000812	8.115603	1.374820	0.000081
 796	7.9103e+01	7.9099	11.725861	0.000284	2.840461	0.481187	0.000028
 797	7.9202e+01	7.9196	11.782381	0.000568	5.680922	0.962374	0.000057
 798	7.9302e+01	7.9282	11.855049	0.000730	7.304042	1.237338	0.000073
 799	7.9401e+01	7.9389	11.859086	0.000041	0.405780	0.068741	0.000004
 800	7.9501e+01	7.9482	11.903495	0.000446	4.463581	0.756151	0.000045
 801	7.9600e+01	7.9583	11.996349	0.000933	9.332943	1.581043	0.000093
 802	7.9700e+01	7.9681	11.996349	0.000000	0.000000	0.000000	0.000000
 803	7.9799e+01	7.9790	12.040757	0.000446	4.463581	0.756151	0.000045
 804	7.9898e+01	7.9884	12.077092	0.000365	3.652021	0.618669	0.000037
 805	7.9998e+01	7.9977	12.097277	0.000203	2.028901	0.343705	0.000020
 806	8.0097e+01	8.0091	12.149760	0.000528	5.275142	0.893633	0.000053
 807	8.0197e+01	8.0183	12.230503	0.000812	8.115603	1.374820	0.000081
 808	8.0296e+01	8.0287	12.266837	0.000365	3.652021	0.618669	0.000037
 809	8.0396e+01	8.0385	12.311245	0.000446	4.463581	0.756151	0.000045
 810	8.0496e+01	8.0485	12.315283	0.000041	0.405780	0.068741	0.000004
 811	8.0595e+01	8.0586	12.363728	0.000487	4.869362	0.824892	0.000049
 812	8.0695e+01	8.0692	12.440434	0.000771	7.709822	1.306079	0.000077
 813	8.0794e+01	8.0788	12.436397	-0.000041	-0.405780	-0.068741	-0.000004
 814	8.0894e+01	8.0884	12.484842	0.000487	4.869362	0.824892	0.000049
 815	8.0993e+01	8.0976	12.525214	0.000406	4.057801	0.687410	0.000041
 816	8.1093e+01	8.1089	12.577696	0.000528	5.275142	0.893633	0.000053
 817	8.1192e+01	8.1187	12.654402	0.000771	7.709822	1.306079	0.000077
 818	8.1291e+01	8.1283	12.654402	0.000000	0.000000	0.000000	0.000000
 819	8.1391e+01	8.1389	12.731108	0.000771	7.709822	1.306079	0.000077
 820	8.1490e+01	8.1480	12.763405	0.000325	3.246241	0.549928	0.000032
 821	8.1590e+01	8.1580	12.791665	0.000284	2.840461	0.481187	0.000028
 822	8.1689e+01	8.1677	12.848184	0.000568	5.680922	0.962374	0.000057
 823	8.1789e+01	8.1779	12.872407	0.000243	2.434681	0.412446	0.000024
 824	8.1888e+01	8.1878	12.941039	0.000690	6.898262	1.168597	0.000069
 825	8.1988e+01	8.1972	13.013707	0.000730	7.304042	1.237338	0.000073
 826	8.2088e+01	8.2071	13.058116	0.000446	4.463581	0.756151	0.000045
 827	8.2187e+01	8.2181	13.058116	0.000000	0.000000	0.000000	0.000000
 828	8.2287e+01	8.2278	13.102524	0.000446	4.463581	0.756151	0.000045
 829	8.2386e+01	8.2378	13.191341	0.000893	8.927163	1.512302	0.000089
 830	8.2486e+01	8.2472	13.207490	0.000162	1.623121	0.274964	0.000016
 831	8.2585e+01	8.2566	13.251898	0.000446	4.463581	0.756151	0.000045
 832	8.2684e+01	8.2674	13.320529	0.000690	6.898262	1.168597	0.000069
 833	8.2784e+01	8.2774	13.413383	0.000933	9.332943	1.581043	0.000093
 834	8.2883e+01	8.2877	13.421458	0.000081	0.811560	0.137482	0.000008
 835	8.2983e+01	8.2978	13.490089	0.000690	6.898262	1.168597	0.000069
 836	8.3082e+01	8.3079	13.514312	0.000243	2.434681	0.412446	0.000024
 837	8.3182e+01	8.3174	13.562758	0.000487	4.869362	0.824892	0.000049
 838	8.3281e+01	8.3271	13.607166	0.000446	4.463581	0.756151	0.000045
 839	8.3381e+01	8.3366	13.679834	0.000730	7.304042	1.237338	0.000073
 840	8.3481e+01	8.3469	13.720206	0.000406	4.057801	0.687410	0.000041
 841	8.3580e+01	8.3575	13.760577	0.000406	4.057801	0.687410	0.000041
 842	8.3680e+01	8.3674	13.817097	0.000568	5.680922	0.962374	0.000057
 843	8.3779e+01	8.3762	13.861506	0.000446	4.463581	0.756151	0.000045
 844	8.3879e+01	8.3868	13.942248	0.000812	8.115603	1.374820	0.000081
 845	8.3978e+01	8.3969	13.994731	0.000528	5.275142	0.893633	0.000053
 846	8.4078e+01	8.4072	14.031065	0.000365	3.652021	0.618669	0.000037
 847	8.4177e+01	8.4180	14.047214	0.000162	1.623121	0.274964	0.000016
 848	8.4276e+01	8.4259	14.131994	0.000852	8.521383	1.443561	0.000085
 849	8.4376e+01	8.4366	14.172365	0.000406	4.057801	0.687410	0.000041
 850	8.4475e+01	8.4461	14.204662	0.000325	3.246241	0.549928	0.000032
 851	8.4575e+01	8.4560	14.289442	0.000852	8.521383	1.443561	0.000085
 852	8.4674e+01	8.4660	14.321739	0.000325	3.246241	0.549928	0.000032
 853	8.4774e+01	8.4757	14.394407	0.000730	7.304042	1.237338	0.000073
 854	8.4874e+01	8.4866	14.398445	0.000041	0.405780	0.068741	0.000004
 855	8.4973e+01	8.4964	14.491299	0.000933	9.332943	1.581043	0.000093
 856	8.5073e+01	8.5065	14.515522	0.000243	2.434681	0.412446	0.000024
 857	8.5172e+01	8.5159	14.563967	0.000487	4.869362	0.824892	0.000049
 858	8.5272e+01	8.5254	14.616450	0.000528	5.275142	0.893633	0.000053
 859	8.5371e+01	8.5359	14.677007	0.000609	6.086702	1.031115	0.000061
 860	8.5471e+01	8.5465	14.725453	0.000487	4.869362	0.824892	0.000049
 861	8.5570e+01	8.5563	14.769861	0.000446	4.463581	0.756151	0.000045
 862	8.5669e+01	8.5661	14.834455	0.000649	6.492482	1.099856	0.000065
 863	8.5769e+01	8.5764	14.838492	0.000041	0.405780	0.068741	0.000004
 864	8.5868e+01	8.5864	14.931347	0.000933	9.332943	1.581043	0.000093
 865	8.5968e+01	8.5962	15.004015	0.000730	7.304042	1.237338	0.000073
 866	8.6067e+01	8.6057	15.048423	0.000446	4.463581	0.756151	0.000045
 867	8.6167e+01	8.6159	15.076683	0.000284	2.840461	0.481187	0.000028
 868	8.6266e+01	8.6264	15.129166	0.000528	5.275142	0.893633	0.000053
 869	8.6366e+01	8.6355	15.189723	0.000609	6.086702	1.031115	0.000061
 870	8.6466e+01	8.6462	15.242206	0.000528	5.275142	0.893633	0.000053
 871	8.6565e+01	8.6569	15.282577	0.000406	4.057801	0.687410	0.000041
 872	8.6665e+01	8.6664	15.335060	0.000528	5.275142	0.893633	0.000053
 873	8.6764e+01	8.6739	15.387543	0.000528	5.275142	0.893633	0.000053
 874	8.6864e+01	8.6853	15.468286	0.000812	8.115603	1.374820	0.000081
 875	8.6963e+01	8.6953	15.472323	0.000041	0.405780	0.068741	0.000004
 876	8.7063e+01	8.7046	15.553065	0.000812	8.115603	1.374820	0.000081
 877	8.7162e+01	8.7158	15.593437	0.000406	4.057801	0.687410	0.000041
 878	8.7261e+01	8.7240	15.653994	0.000609	6.086702	1.031115	0.000061
 879	8.7361e+01	8.7354	15.722625	0.000690	6.898262	1.168597	0.000069
 880	8.7460e+01	8.7451	15.775108	0.000528	5.275142	0.893633	0.000053
 881	8.7560e+01	8.7555	15.819516	0.000446	4.463581	0.756151	0.000045
 882	8.7659e+01	8.7650	15.859888	0.000406	4.057801	0.687410	0.000041
 883	8.7759e+01	8.7749	15.920445	0.000609	6.086702	1.031115	0.000061
 884	8.7859e+01	8.7846	15.964853	0.000446	4.463581	0.756151	0.000045
 885	8.7958e+01	8.7939	16.057707	0.000933	9.332943	1.581043	0.000093
 886	8.8058e+01	8.8043	16.073856	0.000162	1.623121	0.274964	0.000016
 887	8.8157e+01	8.8156	16.114227	0.000406	4.057801	0.687410	0.000041
 888	8.8257e+01	8.8235	16.199007	0.000852	8.521383	1.443561	0.000085
 889	8.8356e+01	8.8345	16.263601	0.000649	6.492482	1.099856	0.000065
 890	8.8456e+01	8.8445	16.295898	0.000325	3.246241	0.549928	0.000032
 891	8.8555e+01	8.8532	16.392790	0.000974	9.738723	1.649784	0.000097
 892	8.8654e+01	8.8642	16.457384	0.000649	6.492482	1.099856	0.000065
 893	8.8754e+01	8.8740	16.473532	0.000162	1.623121	0.274964	0.000016
 894	8.8853e+01	8.8840	16.558312	0.000852	8.521383	1.443561	0.000085
 895	8.8953e+01	8.8937	16.610795	0.000528	5.275142	0.893633	0.000053
 896	8.9052e+01	8.9037	16.695575	0.000852	8.521383	1.443561	0.000085
 897	8.9152e+01	8.9133	16.711723	0.000162	1.623121	0.274964	0.000016
 898	8.9251e+01	8.9240	16.760169	0.000487	4.869362	0.824892	0.000049
 899	8.9351e+01	8.9337	16.848986	0.000893	8.927163	1.512302	0.000089
 900	8.9451e+01	8.9429	16.869172	0.000203	2.028901	0.343705	0.000020
 901	8.9550e+01	8.9529	16.941840	0.000730	7.304042	1.237338	0.000073
 902	8.9650e+01	8.9632	17.006434	0.000649	6.492482	1.099856	0.000065
 903	8.9749e+01	8.9730	17.062954	0.000568	5.680922	0.962374	0.000057
 904	8.9849e+01	8.9825	17.147734	0.000852	8.521383	1.443561	0.000085
 905	8.9948e+01	8.9929	17.200217	0.000528	5.275142	0.893633	0.000053
 906	9.0047e+01	9.0029	17.260774	0.000609	6.086702	1.031115	0.000061
 907	9.0147e+01	9.0137	17.325368	0.000649	6.492482	1.099856	0.000065
 908	9.0246e+01	9.0223	17.333442	0.000081	0.811560	0.137482	0.000008
 909	9.0346e+01	9.0326	17.438408	0.001055	10.550283	1.787266	0.000105
 910	9.0445e+01	9.0424	17.470705	0.000325	3.246241	0.549928	0.000032
 911	9.0545e+01	9.0527	17.539336	0.000690	6.898262	1.168597	0.000069
 912	9.0644e+01	9.0627	17.551448	0.000122	1.217340	0.206223	0.000012
 913	9.0744e+01	9.0736	17.680636	0.001298	12.984964	2.199712	0.000130
 914	9.0844e+01	9.0827	17.692747	0.000122	1.217340	0.206223	0.000012
 915	9.0943e+01	9.0925	17.777527	0.000852	8.521383	1.443561	0.000085
 916	9.1043e+01	9.1018	17.825973	0.000487	4.869362	0.824892	0.000049
 917	9.1142e+01	9.1125	17.910753	0.000852	8.521383	1.443561	0.000085
 918	9.1242e+01	9.1222	17.959198	0.000487	4.869362	0.824892	0.000049
 919	9.1341e+01	9.1325	17.983421	0.000243	2.434681	0.412446	0.000024
 920	9.1441e+01	9.1431	18.039941	0.000568	5.680922	0.962374	0.000057
 921	9.1540e+01	9.1517	18.116647	0.000771	7.709822	1.306079	0.000077
 922	9.1639e+01	9.1621	18.185278	0.000690	6.898262	1.168597	0.000069
 923	9.1739e+01	9.1718	18.245835	0.000609	6.086702	1.031115	0.000061
 924	9.1838e+01	9.1824	18.298318	0.000528	5.275142	0.893633	0.000053
 925	9.1938e+01	9.1924	18.370986	0.000730	7.304042	1.237338	0.000073
 926	9.2037e+01	9.2029	18.435580	0.000649	6.492482	1.099856	0.000065
 927	9.2137e+01	9.2114	18.479989	0.000446	4.463581	0.756151	0.000045
 928	9.2237e+01	9.2218	18.544583	0.000649	6.492482	1.099856	0.000065
 929	9.2336e+01	9.2317	18.621289	0.000771	7.709822	1.306079	0.000077
 930	9.2436e+01	9.2417	18.669734	0.000487	4.869362	0.824892	0.000049
 931	9.2535e+01	9.2529	18.726254	0.000568	5.680922	0.962374	0.000057
 932	9.2635e+01	9.2612	18.798923	0.000730	7.304042	1.237338	0.000073
 933	9.2734e+01	9.2712	18.867554	0.000690	6.898262	1.168597	0.000069
 934	9.2834e+01	9.2818	18.916000	0.000487	4.869362	0.824892	0.000049
 935	9.2933e+01	9.2920	19.004816	0.000893	8.927163	1.512302	0.000089
 936	9.3032e+01	9.3018	19.041151	0.000365	3.652021	0.618669	0.000037
 937	9.3132e+01	9.3119	19.093633	0.000528	5.275142	0.893633	0.000053
 938	9.3231e+01	9.3213	19.162265	0.000690	6.898262	1.168597	0.000069
 939	9.3331e+01	9.3316	19.275305	0.001136	11.361844	1.924748	0.000114
 940	9.3430e+01	9.3408	19.307602	0.000325	3.246241	0.549928	0.000032
 941	9.3530e+01	9.3515	19.408530	0.001014	10.144503	1.718525	0.000101
 942	9.3629e+01	9.3620	19.440827	0.000325	3.246241	0.549928	0.000032
 943	9.3729e+01	9.3710	19.505421	0.000649	6.492482	1.099856	0.000065
 944	9.3829e+01	9.3810	19.590201	0.000852	8.521383	1.443561	0.000085
 945	9.3928e+01	9.3914	19.654795	0.000649	6.492482	1.099856	0.000065
 946	9.4028e+01	9.4001	19.715352	0.000609	6.086702	1.031115	0.000061
 947	9.4127e+01	9.4106	19.763798	0.000487	4.869362	0.824892	0.000049
 948	9.4227e+01	9.4209	19.856652	0.000933	9.332943	1.581043	0.000093
 949	9.4326e+01	9.4302	19.864726	0.000081	0.811560	0.137482	0.000008
 950	9.4425e+01	9.4418	19.977766	0.001136	11.361844	1.924748	0.000114
 951	9.4525e+01	9.4514	20.074657	0.000974	9.738723	1.649784	0.000097
 952	9.4624e+01	9.4604	20.135214	0.000609	6.086702	1.031115	0.000061
 953	9.4724e+01	9.4702	20.171549	0.000365	3.652021	0.618669	0.000037
 954	9.4823e+01	9.4807	20.260366	0.000893	8.927163	1.512302	0.000089
 955	9.4923e+01	9.4897	20.337071	0.000771	7.709822	1.306079	0.000077
 956	9.5022e+01	9.4998	20.405703	0.000690	6.898262	1.168597	0.000069
 957	9.5122e+01	9.5093	20.462222	0.000568	5.680922	0.962374	0.000057
 958	9.5222e+01	9.5198	20.514705	0.000528	5.275142	0.893633	0.000053
 959	9.5321e+01	9.5298	20.623708	0.001096	10.956063	1.856007	0.000110
 960	9.5421e+01	9.5393	20.676191	0.000528	5.275142	0.893633	0.000053
 961	9.5520e+01	9.5486	20.781156	0.001055	10.550283	1.787266	0.000105
 962	9.5620e+01	9.5596	20.809416	0.000284	2.840461	0.481187	0.000028
 963	9.5719e+01	9.5703	20.922456	0.001136	11.361844	1.924748	0.000114
 964	9.5819e+01	9.5806	20.958790	0.000365	3.652021	0.618669	0.000037
 965	9.5918e+01	9.5890	21.019347	0.000609	6.086702	1.031115	0.000061
 966	9.6017e+01	9.5996	21.108164	0.000893	8.927163	1.512302	0.000089
 967	9.6117e+01	9.6090	21.180833	0.000730	7.304042	1.237338	0.000073
 968	9.6216e+01	9.6207	21.257538	0.000771	7.709822	1.306079	0.000077
 969	9.6316e+01	9.6295	21.342318	0.000852	8.521383	1.443561	0.000085
 970	9.6415e+01	9.6399	21.398838	0.000568	5.680922	0.962374	0.000057
 971	9.6515e+01	9.6497	21.471506	0.000730	7.304042	1.237338	0.000073
 972	9.6615e+01	9.6594	21.556286	0.000852	8.521383	1.443561	0.000085
 973	9.6714e+01	9.6692	21.645103	0.000893	8.927163	1.512302	0.000089
 974	9.6814e+01	9.6792	21.701623	0.000568	5.680922	0.962374	0.000057
 975	9.6913e+01	9.6896	21.782366	0.000812	8.115603	1.374820	0.000081
 976	9.7013e+01	9.6997	21.830812	0.000487	4.869362	0.824892	0.000049
 977	9.7112e+01	9.7107	21.907517	0.000771	7.709822	1.306079	0.000077
 978	9.7212e+01	9.7202	22.004408	0.000974	9.738723	1.649784	0.000097
 979	9.7311e+01	9.7296	22.077077	0.000730	7.304042	1.237338	0.000073
 980	9.7410e+01	9.7388	22.105337	0.000284	2.840461	0.481187	0.000028
 981	9.7510e+01	9.7478	22.226451	0.001217	12.173404	2.062230	0.000122
 982	9.7609e+01	9.7593	22.315268	0.000893	8.927163	1.512302	0.000089
 983	9.7709e+01	9.7684	22.456568	0.001420	14.202304	2.405936	0.000142
 984	9.7808e+01	9.7794	22.432345	-0.000243	-2.434681	-0.412446	-0.000024
 985	9.7908e+01	9.7892	22.517125	0.000852	8.521383	1.443561	0.000085
 986	9.8007e+01	9.7982	22.634202	0.001177	11.767624	1.993489	0.000118
 987	9.8107e+01	9.8084	22.674573	0.000406	4.057801	0.687410	0.000041
 988	9.8207e+01	9.8182	22.787613	0.001136	11.361844	1.924748	0.000114
 989	9.8306e+01	9.8291	22.819910	0.000325	3.246241	0.549928	0.000032
 990	9.8406e+01	9.8383	22.936987	0.001177	11.767624	1.993489	0.000118
 991	9.8505e+01	9.8487	23.017729	0.000812	8.115603	1.374820	0.000081
 992	9.8605e+01	9.8584	23.086361	0.000690	6.898262	1.168597	0.000069
 993	9.8704e+01	9.8682	23.163066	0.000771	7.709822	1.306079	0.000077
 994	9.8803e+01	9.8786	23.292255	0.001298	12.984964	2.199712	0.000130
 995	9.8903e+01	9.8879	23.360886	0.000690	6.898262	1.168597	0.000069
 996	9.9002e+01	9.8975	23.437592	0.000771	7.709822	1.306079	0.000077
 997	9.9102e+01	9.9081	23.514297	0.000771	7.709822	1.306079	0.000077
 998	9.9201e+01	9.9188	23.570817	0.000568	5.680922	0.962374	0.000057
 999	9.9301e+01	9.9281	23.695968	0.001258	12.579184	2.130971	0.000126
1000	9.9400e+01	9.9374	23.772674	0.000771	7.709822	1.306079	0.000077
1001	9.9500e+01	9.9488	23.849379	0.000771	7.709822	1.306079	0.000077
1002	9.9600e+01	9.9573	23.934159	0.000852	8.521383	1.443561	0.000085
1003	9.9699e+01	9.9680	24.027013	0.000933	9.332943	1.581043	0.000093
1004	9.9799e+01	9.9786	24.099682	0.000730	7.304042	1.237338	0.000073
1005	9.9898e+01	9.9885	24.192536	0.000933	9.332943	1.581043	0.000093
1006	9.9998e+01	9.9982	24.285390	0.000933	9.332943	1.581043	0.000093
1007	1.0010e+02	9.9881	24.366133	-0.000812	-8.115603	-1.374820	0.000081
1008	1.0020e+02	9.9785	24.378244	-0.000122	-1.217340	-0.206223	0.000012
1009	1.0030e+02	9.9677	24.394393	-0.000162	-1.623121	-0.274964	0.000016
1010	1.0040e+02	9.9579	24.418616	-0.000243	-2.434681	-0.412446	0.000024
1011	1.0050e+02	9.9477	24.430727	-0.000122	-1.217340	-0.206223	0.000012
1012	1.0059e+02	9.9378	24.483210	-0.000528	-5.275142	-0.893633	0.000053
1013	1.0069e+02	9.9280	24.511470	-0.000284	-2.840461	-0.481187	0.000028
1014	1.0079e+02	9.9180	24.523581	-0.000122	-1.217340	-0.206223	0.000012
1015	1.0089e+02	9.9079	24.588175	-0.000649	-6.492482	-1.099856	0.000065
1016	1.0099e+02	9.8977	24.572027	0.000162	1.623121	0.274964	-0.000016
1017	1.0109e+02	9.8877	24.660844	-0.000893	-8.927163	-1.512302	0.000089
1018	1.0119e+02	9.8779	24.640658	0.000203	2.028901	0.343705	-0.000020
1019	1.0129e+02	9.8682	24.652769	-0.000122	-1.217340	-0.206223	0.000012
1020	1.0139e+02	9.8584	24.693141	-0.000406	-4.057801	-0.687410	0.000041
1021	1.0149e+02	9.8486	24.705252	-0.000122	-1.217340	-0.206223	0.000012
1022	1.0159e+02	9.8383	24.705252	-0.000000	-0.000000	-0.000000	0.000000
1023	1.0169e+02	9.8283	24.757735	-0.000528	-5.275142	-0.893633	0.000053
1024	1.0179e+02	9.8187	24.745624	0.000122	1.217340	0.206223	-0.000012
1025	1.0189e+02	9.8096	24.785995	-0.000406	-4.057801	-0.687410	0.000041
1026	1.0199e+02	9.7998	24.769846	0.000162	1.623121	0.274964	-0.000016
1027	1.0209e+02	9.7892	24.790032	-0.000203	-2.028901	-0.343705	0.000020
1028	1.0219e+02	9.7791	24.810218	-0.000203	-2.028901	-0.343705	0.000020
1029	1.0229e+02	9.7684	24.854626	-0.000446	-4.463581	-0.756151	0.000045
1030	1.0239e+02	9.7584	24.862700	-0.000081	-0.811560	-0.137482	0.000008
1031	1.0248e+02	9.7488	24.886923	-0.000243	-2.434681	-0.412446	0.000024
1032	1.0258e+02	9.7388	24.858663	0.000284	2.840461	0.481187	-0.000028
1033	1.0268e+02	9.7291	24.903072	-0.000446	-4.463581	-0.756151	0.000045
1034	1.0278e+02	9.7182	24.903072	-0.000000	-0.000000	-0.000000	0.000000
1035	1.0288e+02	9.7095	24.903072	-0.000000	-0.000000	-0.000000	0.000000
1036	1.0298e+02	9.6993	24.919220	-0.000162	-1.623121	-0.274964	0.000016
1037	1.0308e+02	9.6899	24.935369	-0.000162	-1.623121	-0.274964	0.000016
1038	1.0318e+02	9.6792	24.919220	0.000162	1.623121	0.274964	-0.000016
1039	1.0328e+02	9.6704	24.963629	-0.000446	-4.463581	-0.756151	0.000045
1040	1.0338e+02	9.6589	24.931332	0.000325	3.246241	0.549928	-0.000032
1041	1.0348e+02	9.6500	24.935369	-0.000041	-0.405780	-0.068741	0.000004
1042	1.0358e+02	9.6395	24.971703	-0.000365	-3.652021	-0.618669	0.000037
1043	1.0368e+02	9.6304	24.987852	-0.000162	-1.623121	-0.274964	0.000016
1044	1.0378e+02	9.6204	24.983815	0.000041	0.405780	0.068741	-0.000004
1045	1.0388e+02	9.6094	24.987852	-0.000041	-0.405780	-0.068741	0.000004
1046	1.0398e+02	9.5996	24.991889	-0.000041	-0.405780	-0.068741	0.000004
1047	1.0408e+02	9.5893	24.999963	-0.000081	-0.811560	-0.137482	0.000008
1048	1.0418e+02	9.5801	25.004000	-0.000041	-0.405780	-0.068741	0.000004
1049	1.0428e+02	9.5686	25.004000	-0.000000	-0.000000	-0.000000	0.000000
1050	1.0438e+02	9.5593	24.947480	0.000568	5.680922	0.962374	-0.000057
1051	1.0447e+02	9.5509	25.024186	-0.000771	-7.709822	-1.306079	0.000077
1052	1.0457e+02	9.5410	24.979777	0.000446	4.463581	0.756151	-0.000045
1053	1.0467e+02	9.5313	24.991889	-0.000122	-1.217340	-0.206223	0.000012
1054	1.0477e+02	9.5194	24.991889	-0.000000	-0.000000	-0.000000	0.000000
1055	1.0487e+02	9.5099	24.991889	-0.000000	-0.000000	-0.000000	0.000000
1056	1.0497e+02	9.4990	25.012074	-0.000203	-2.028901	-0.343705	0.000020
1057	1.0507e+02	9.4901	25.028223	-0.000162	-1.623121	-0.274964	0.000016
1058	1.0517e+02	9.4804	24.999963	0.000284	2.840461	0.481187	-0.000028
1059	1.0527e+02	9.4714	25.036297	-0.000365	-3.652021	-0.618669	0.000037
1060	1.0537e+02	9.4617	25.032260	0.000041	0.405780	0.068741	-0.000004
1061	1.0547e+02	9.4517	24.999963	0.000325	3.246241	0.549928	-0.000032
1062	1.0557e+02	9.4411	25.012074	-0.000122	-1.217340	-0.206223	0.000012
1063	1.0567e+02	9.4298	24.959592	0.000528	5.275142	0.893633	-0.000053
1064	1.0577e+02	9.4202	24.991889	-0.000325	-3.246241	-0.549928	0.000032
1065	1.0587e+02	9.4100	25.012074	-0.000203	-2.028901	-0.343705	0.000020
1066	1.0597e+02	9.4009	25.012074	-0.000000	-0.000000	-0.000000	0.000000
1067	1.0607e+02	9.3916	24.959592	0.000528	5.275142	0.893633	-0.000053
1068	1.0617e+02	9.3812	24.991889	-0.000325	-3.246241	-0.549928	0.000032
1069	1.0627e+02	9.3707	25.004000	-0.000122	-1.217340	-0.206223	0.000012
1070	1.0637e+02	9.3607	24.995926	0.000081	0.811560	0.137482	-0.000008
1071	1.0647e+02	9.3516	24.971703	0.000243	2.434681	0.412446	-0.000024
1072	1.0656e+02	9.3400	24.999963	-0.000284	-2.840461	-0.481187	0.000028
1073	1.0666e+02	9.3311	25.004000	-0.000041	-0.405780	-0.068741	0.000004
1074	1.0676e+02	9.3214	24.963629	0.000406	4.057801	0.687410	-0.000041
1075	1.0686e+02	9.3115	24.947480	0.000162	1.623121	0.274964	-0.000016
1076	1.0696e+02	9.3008	24.951517	-0.000041	-0.405780	-0.068741	0.000004
1077	1.0706e+02	9.2908	24.931332	0.000203	2.028901	0.343705	-0.000020
1078	1.0716e+02	9.2816	24.935369	-0.000041	-0.405780	-0.068741	0.000004
1079	1.0726e+02	9.2709	24.919220	0.000162	1.623121	0.274964	-0.000016
1080	1.0736e+02	9.2627	24.931332	-0.000122	-1.217340	-0.206223	0.000012
1081	1.0746e+02	9.2505	24.923257	0.000081	0.811560	0.137482	-0.000008
1082	1.0756e+02	9.2408	24.903072	0.000203	2.028901	0.343705	-0.000020
1083	1.0766e+02	9.2334	24.886923	0.000162	1.623121	0.274964	-0.000016
1084	1.0776e+02	9.2207	24.854626	0.000325	3.246241	0.549928	-0.000032
1085	1.0786e+02	9.2117	24.878849	-0.000243	-2.434681	-0.412446	0.000024
1086	1.0796e+02	9.2021	24.903072	-0.000243	-2.434681	-0.412446	0.000024
1087	1.0806e+02	9.1924	24.842515	0.000609	6.086702	1.031115	-0.000061
1088	1.0816e+02	9.1821	24.858663	-0.000162	-1.623121	-0.274964	0.000016
1089	1.0826e+02	9.1724	24.830403	0.000284	2.840461	0.481187	-0.000028
1090	1.0836e+02	9.1626	24.854626	-0.000243	-2.434681	-0.412446	0.000024
1091	1.0845e+02	9.1530	24.794069	0.000609	6.086702	1.031115	-0.000061
1092	1.0855e+02	9.1422	24.842515	-0.000487	-4.869362	-0.824892	0.000049
1093	1.0865e+02	9.1311	24.769846	0.000730	7.304042	1.237338	-0.000073
1094	1.0875e+02	9.1218	24.753698	0.000162	1.623121	0.274964	-0.000016
1095	1.0885e+02	9.1122	24.745624	0.000081	0.811560	0.137482	-0.000008
1096	1.0895e+02	9.1018	24.745624	-0.000000	-0.000000	-0.000000	0.000000
1097	1.0905e+02	9.0918	24.745624	-0.000000	-0.000000	-0.000000	0.000000
1098	1.0915e+02	9.0826	24.721401	0.000243	2.434681	0.412446	-0.000024
1099	1.0925e+02	9.0728	24.685066	0.000365	3.652021	0.618669	-0.000037
1100	1.0935e+02	9.0626	24.737549	-0.000528	-5.275142	-0.893633	0.000053
1101	1.0945e+02	9.0527	24.713326	0.000243	2.434681	0.412446	-0.000024
1102	1.0955e+02	9.0430	24.672955	0.000406	4.057801	0.687410	-0.000041
1103	1.0965e+02	9.0332	24.624509	0.000487	4.869362	0.824892	-0.000049
1104	1.0975e+02	9.0234	24.640658	-0.000162	-1.623121	-0.274964	0.000016
1105	1.0985e+02	9.0121	24.624509	0.000162	1.623121	0.274964	-0.000016
1106	1.0995e+02	9.0030	24.632584	-0.000081	-0.811560	-0.137482	0.000008
1107	1.1005e+02	8.9935	24.600287	0.000325	3.246241	0.549928	-0.000032
1108	1.1015e+02	8.9826	24.596249	0.000041	0.405780	0.068741	-0.000004
1109	1.1025e+02	8.9731	24.592212	0.000041	0.405780	0.068741	-0.000004
1110	1.1035e+02	8.9633	24.547804	0.000446	4.463581	0.756151	-0.000045
1111	1.1044e+02	8.9535	24.547804	-0.000000	-0.000000	-0.000000	0.000000
1112	1.1054e+02	8.9429	24.543767	0.000041	0.405780	0.068741	-0.000004
1113	1.1064e+02	8.9327	24.487247	0.000568	5.680922	0.962374	-0.000057
1114	1.1074e+02	8.9233	24.487247	-0.000000	-0.000000	-0.000000	0.000000
1115	1.1084e+02	8.9130	24.499358	-0.000122	-1.217340	-0.206223	0.000012
1116	1.1094e+02	8.9029	24.463024	0.000365	3.652021	0.618669	-0.000037
1117	1.1104e+02	8.8937	24.430727	0.000325	3.246241	0.549928	-0.000032
1118	1.1114e+02	8.8828	24.406504	0.000243	2.434681	0.412446	-0.000024
1119	1.1124e+02	8.8737	24.418616	-0.000122	-1.217340	-0.206223	0.000012
1120	1.1134e+02	8.8642	24.382281	0.000365	3.652021	0.618669	-0.000037
1121	1.1144e+02	8.8535	24.394393	-0.000122	-1.217340	-0.206223	0.000012
1122	1.1154e+02	8.8446	24.345947	0.000487	4.869362	0.824892	-0.000049
1123	1.1164e+02	8.8345	24.329799	0.000162	1.623121	0.274964	-0.000016
1124	1.1174e+02	8.8245	24.325761	0.000041	0.405780	0.068741	-0.000004
1125	1.1184e+02	8.8144	24.301539	0.000243	2.434681	0.412446	-0.000024
1126	1.1194e+02	8.8049	24.265204	0.000365	3.652021	0.618669	-0.000037
1127	1.1204e+02	8.7948	24.285390	-0.000203	-2.028901	-0.343705	0.000020
1128	1.1214e+02	8.7855	24.228870	0.000568	5.680922	0.962374	-0.000057
1129	1.1224e+02	8.7745	24.265204	-0.000365	-3.652021	-0.618669	0.000037
1130	1.1234e+02	8.7646	24.240982	0.000243	2.434681	0.412446	-0.000024
1131	1.1244e+02	8.7553	24.249056	-0.000081	-0.811560	-0.137482	0.000008
1132	1.1253e+02	8.7453	24.216759	0.000325	3.246241	0.549928	-0.000032
1133	1.1263e+02	8.7354	24.216759	-0.000000	-0.000000	-0.000000	0.000000
1134	1.1273e+02	8.7244	24.200610	0.000162	1.623121	0.274964	-0.000016
1135	1.1283e+02	8.7150	24.127942	0.000730	7.304042	1.237338	-0.000073
1136	1.1293e+02	8.7052	24.119867	0.000081	0.811560	0.137482	-0.000008
1137	1.1303e+02	8.6954	24.099682	0.000203	2.028901	0.343705	-0.000020
1138	1.1313e+02	8.6838	24.071422	0.000284	2.840461	0.481187	-0.000028
1139	1.1323e+02	8.6743	24.063348	0.000081	0.811560	0.137482	-0.000008
1140	1.1333e+02	8.6658	24.055273	0.000081	0.811560	0.137482	-0.000008
1141	1.1343e+02	8.6554	24.031050	0.000243	2.434681	0.412446	-0.000024
1142	1.1353e+02	8.6462	24.018939	0.000122	1.217340	0.206223	-0.000012
1143	1.1363e+02	8.6353	23.962419	0.000568	5.680922	0.962374	-0.000057
1144	1.1373e+02	8.6252	23.970493	-0.000081	-0.811560	-0.137482	0.000008
1145	1.1383e+02	8.6157	23.938196	0.000325	3.246241	0.549928	-0.000032
1146	1.1393e+02	8.6053	23.934159	0.000041	0.405780	0.068741	-0.000004
1147	1.1403e+02	8.5957	23.913974	0.000203	2.028901	0.343705	-0.000020
1148	1.1413e+02	8.5860	23.893788	0.000203	2.028901	0.343705	-0.000020
1149	1.1423e+02	8.5755	23.873602	0.000203	2.028901	0.343705	-0.000020
1150	1.1433e+02	8.5669	23.849379	0.000243	2.434681	0.412446	-0.000024
1151	1.1442e+02	8.5567	23.800934	0.000487	4.869362	0.824892	-0.000049
1152	1.1452e+02	8.5455	23.788822	0.000122	1.217340	0.206223	-0.000012
1153	1.1462e+02	8.5370	23.768637	0.000203	2.028901	0.343705	-0.000020
1154	1.1472e+02	8.5260	23.748451	0.000203	2.028901	0.343705	-0.000020
1155	1.1482e+02	8.5175	23.708080	0.000406	4.057801	0.687410	-0.000041
1156	1.1492e+02	8.5062	23.708080	-0.000000	-0.000000	-0.000000	0.000000
1157	1.1502e+02	8.4967	23.716154	-0.000081	-0.811560	-0.137482	0.000008
1158	1.1512e+02	8.4866	23.647523	0.000690	6.898262	1.168597	-0.000069
1159	1.1522e+02	8.4766	23.683857	-0.000365	-3.652021	-0.618669	0.000037
1160	1.1532e+02	8.4650	23.607151	0.000771	7.709822	1.306079	-0.000077
1161	1.1542e+02	8.4570	23.582928	0.000243	2.434681	0.412446	-0.000024
1162	1.1552e+02	8.4454	23.582928	-0.000000	-0.000000	-0.000000	0.000000
1163	1.1562e+02	8.4367	23.522371	0.000609	6.086702	1.031115	-0.000061
1164	1.1572e+02	8.4277	23.562743	-0.000406	-4.057801	-0.687410	0.000041
1165	1.1582e+02	8.4171	23.506223	0.000568	5.680922	0.962374	-0.000057
1166	1.1592e+02	8.4064	23.502186	0.000041	0.405780	0.068741	-0.000004
1167	1.1602e+02	8.3969	23.498149	0.000041	0.405780	0.068741	-0.000004
1168	1.1612e+02	8.3866	23.477963	0.000203	2.028901	0.343705	-0.000020
1169	1.1622e+02	8.3762	23.482000	-0.000041	-0.405780	-0.068741	0.000004
1170	1.1632e+02	8.3669	23.421443	0.000609	6.086702	1.031115	-0.000061
1171	1.1642e+02	8.3572	23.389146	0.000325	3.246241	0.549928	-0.000032
1172	1.1651e+02	8.3467	23.413369	-0.000243	-2.434681	-0.412446	0.000024
1173	1.1661e+02	8.3368	23.364923	0.000487	4.869362	0.824892	-0.000049
1174	1.1671e+02	8.3257	23.340700	0.000243	2.434681	0.412446	-0.000024
1175	1.1681e+02	8.3178	23.332626	0.000081	0.811560	0.137482	-0.000008
1176	1.1691e+02	8.3063	23.332626	-0.000000	-0.000000	-0.000000	0.000000
1177	1.1701e+02	8.2975	23.251883	0.000812	8.115603	1.374820	-0.000081
1178	1.1711e+02	8.2870	23.263995	-0.000122	-1.217340	-0.206223	0.000012
1179	1.1721e+02	8.2773	23.268032	-0.000041	-0.405780	-0.068741	0.000004
1180	1.1731e+02	8.2668	23.239772	0.000284	2.840461	0.481187	-0.000028
1181	1.1741e+02	8.2568	23.199401	0.000406	4.057801	0.687410	-0.000041
1182	1.1751e+02	8.2471	23.195363	0.000041	0.405780	0.068741	-0.000004
1183	1.1761e+02	8.2380	23.154992	0.000406	4.057801	0.687410	-0.000041
1184	1.1771e+02	8.2265	23.142881	0.000122	1.217340	0.206223	-0.000012
1185	1.1781e+02	8.2180	23.130769	0.000122	1.217340	0.206223	-0.000012
1186	1.1791e+02	8.2080	23.082324	0.000487	4.869362	0.824892	-0.000049
1187	1.1801e+02	8.1982	23.094435	-0.000122	-1.217340	-0.206223	0.000012
1188	1.1811e+02	8.1875	23.050026	0.000446	4.463581	0.756151	-0.000045
1189	1.1821e+02	8.1778	23.013692	0.000365	3.652021	0.618669	-0.000037
1190	1.1831e+02	8.1689	22.985432	0.000284	2.840461	0.481187	-0.000028
1191	1.1841e+02	8.1588	22.973321	0.000122	1.217340	0.206223	-0.000012
1192	1.1850e+02	8.1485	22.936987	0.000365	3.652021	0.618669	-0.000037
1193	1.1860e+02	8.1383	22.969284	-0.000325	-3.246241	-0.549928	0.000032
1194	1.1870e+02	8.1290	22.924875	0.000446	4.463581	0.756151	-0.000045
1195	1.1880e+02	8.1189	22.936987	-0.000122	-1.217340	-0.206223	0.000012
1196	1.1890e+02	8.1092	22.864318	0.000730	7.304042	1.237338	-0.000073
1197	1.1900e+02	8.0987	22.840095	0.000243	2.434681	0.412446	-0.000024
1198	1.1910e+02	8.0887	22.811835	0.000284	2.840461	0.481187	-0.000028
1199	1.1920e+02	8.0784	22.771464	0.000406	4.057801	0.687410	-0.000041
1200	1.1930e+02	8.0682	22.771464	-0.000000	-0.000000	-0.000000	0.000000
1201	1.1940e+02	8.0582	22.731093	0.000406	4.057801	0.687410	-0.000041
1202	1.1950e+02	8.0482	22.723019	0.000081	0.811560	0.137482	-0.000008
1203	1.1960e+02	8.0392	22.723019	-0.000000	-0.000000	-0.000000	0.000000
1204	1.1970e+02	8.0294	22.666499	0.000568	5.680922	0.962374	-0.000057
1205	1.1980e+02	8.0184	22.650350	0.000162	1.623121	0.274964	-0.000016
1206	1.1990e+02	8.0085	22.626127	0.000243	2.434681	0.412446	-0.000024
1207	1.2000e+02	7.9987	22.601904	0.000243	2.434681	0.412446	-0.000024
1208	1.2010e+02	7.9885	22.549422	0.000528	5.275142	0.893633	-0.000053
1209	1.2020e+02	7.9795	22.529236	0.000203	2.028901	0.343705	-0.000020
1210	1.2030e+02	7.9688	22.513087	0.000162	1.623121	0.274964	-0.000016
1211	1.2039e+02	7.9591	22.472716	0.000406	4.057801	0.687410	-0.000041
1212	1.2049e+02	7.9485	22.460605	0.000122	1.217340	0.206223	-0.000012
1213	1.2059e+02	7.9398	22.448493	0.000122	1.217340	0.206223	-0.000012
1214	1.2069e+02	7.9305	22.428308	0.000203	2.028901	0.343705	-0.000020
1215	1.2079e+02	7.9203	22.375825	0.000528	5.275142	0.893633	-0.000053
1216	1.2089e+02	7.9092	22.359676	0.000162	1.623121	0.274964	-0.000016
1217	1.2099e+02	7.8995	22.319305	0.000406	4.057801	0.687410	-0.000041
1218	1.2109e+02	7.8902	22.303156	0.000162	1.623121	0.274964	-0.000016
1219	1.2119e+02	7.8798	22.282971	0.000203	2.028901	0.343705	-0.000020
1220	1.2129e+02	7.8698	22.270859	0.000122	1.217340	0.206223	-0.000012
1221	1.2139e+02	7.8593	22.238562	0.000325	3.246241	0.549928	-0.000032
1222	1.2149e+02	7.8497	22.198191	0.000406	4.057801	0.687410	-0.000041
1223	1.2159e+02	7.8405	22.198191	-0.000000	-0.000000	-0.000000	0.000000
1224	1.2169e+02	7.8297	22.133597	0.000649	6.492482	1.099856	-0.000065
1225	1.2179e+02	7.8201	22.137634	-0.000041	-0.405780	-0.068741	0.000004
1226	1.2189e+02	7.8094	22.097262	0.000406	4.057801	0.687410	-0.000041
1227	1.2199e+02	7.7998	22.073040	0.000243	2.434681	0.412446	-0.000024
1228	1.2209e+02	7.7895	22.040743	0.000325	3.246241	0.549928	-0.000032
1229	1.2219e+02	7.7797	22.036705	0.000041	0.405780	0.068741	-0.000004
1230	1.2229e+02	7.7689	22.020557	0.000162	1.623121	0.274964	-0.000016
1231	1.2239e+02	7.7602	21.960000	0.000609	6.086702	1.031115	-0.000061
1232	1.2248e+02	7.7502	21.935777	0.000243	2.434681	0.412446	-0.000024
1233	1.2258e+02	7.7401	21.943851	-0.000081	-0.811560	-0.137482	0.000008
1234	1.2268e+02	7.7296	21.903480	0.000406	4.057801	0.687410	-0.000041
1235	1.2278e+02	7.7210	21.859071	0.000446	4.463581	0.756151	-0.000045
1236	1.2288e+02	7.7102	21.891369	-0.000325	-3.246241	-0.549928	0.000032
1237	1.2298e+02	7.7006	21.842923	0.000487	4.869362	0.824892	-0.000049
1238	1.2308e+02	7.6894	21.790440	0.000528	5.275142	0.893633	-0.000053
1239	1.2318e+02	7.6791	21.786403	0.000041	0.405780	0.068741	-0.000004
1240	1.2328e+02	7.6705	21.750069	0.000365	3.652021	0.618669	-0.000037
1241	1.2338e+02	7.6605	21.697586	0.000528	5.275142	0.893633	-0.000053
1242	1.2348e+02	7.6510	21.701623	-0.000041	-0.405780	-0.068741	0.000004
1243	1.2358e+02	7.6406	21.661252	0.000406	4.057801	0.687410	-0.000041
1244	1.2368e+02	7.6306	21.669326	-0.000081	-0.811560	-0.137482	0.000008
1245	1.2378e+02	7.6203	21.592620	0.000771	7.709822	1.306079	-0.000077
1246	1.2388e+02	7.6108	21.580509	0.000122	1.217340	0.206223	-0.000012
1247	1.2398e+02	7.6006	21.544175	0.000365	3.652021	0.618669	-0.000037
1248	1.2408e+02	7.5908	21.511878	0.000325	3.246241	0.549928	-0.000032
1249	1.2418e+02	7.5814	21.499766	0.000122	1.217340	0.206223	-0.000012
1250	1.2428e+02	7.5716	21.447284	0.000528	5.275142	0.893633	-0.000053
1251	1.2438e+02	7.5617	21.419024	0.000284	2.840461	0.481187	-0.000028
1252	1.2447e+02	7.5507	21.382689	0.000365	3.652021	0.618669	-0.000037
1253	1.2457e+02	7.5413	21.358467	0.000243	2.434681	0.412446	-0.000024
1254	1.2467e+02	7.5314	21.334244	0.000243	2.434681	0.412446	-0.000024
1255	1.2477e+02	7.5211	21.297910	0.000365	3.652021	0.618669	-0.000037
1256	1.2487e+02	7.5109	21.257538	0.000406	4.057801	0.687410	-0.000041
1257	1.2497e+02	7.5013	21.217167	0.000406	4.057801	0.687410	-0.000041
1258	1.2507e+02	7.4914	21.217167	-0.000000	-0.000000	-0.000000	0.000000
1259	1.2517e+02	7.4821	21.205055	0.000122	1.217340	0.206223	-0.000012
1260	1.2527e+02	7.4722	21.140461	0.000649	6.492482	1.099856	-0.000065
1261	1.2537e+02	7.4622	21.124313	0.000162	1.623121	0.274964	-0.000016
1262	1.2547e+02	7.4529	21.096053	0.000284	2.840461	0.481187	-0.000028
1263	1.2557e+02	7.4423	21.063756	0.000325	3.246241	0.549928	-0.000032
1264	1.2567e+02	7.4318	21.023384	0.000406	4.057801	0.687410	-0.000041
1265	1.2577e+02	7.4219	20.999162	0.000243	2.434681	0.412446	-0.000024
1266	1.2587e+02	7.4121	20.926493	0.000730	7.304042	1.237338	-0.000073
1267	1.2597e+02	7.4014	20.930530	-0.000041	-0.405780	-0.068741	0.000004
1268	1.2607e+02	7.3926	20.894196	0.000365	3.652021	0.618669	-0.000037
1269	1.2617e+02	7.3811	20.865936	0.000284	2.840461	0.481187	-0.000028
1270	1.2627e+02	7.3716	20.841713	0.000243	2.434681	0.412446	-0.000024
1271	1.2636e+02	7.3627	20.805379	0.000365	3.652021	0.618669	-0.000037
1272	1.2646e+02	7.3524	20.781156	0.000243	2.434681	0.412446	-0.000024
1273	1.2656e+02	7.3419	20.736748	0.000446	4.463581	0.756151	-0.000045
1274	1.2666e+02	7.3328	20.724636	0.000122	1.217340	0.206223	-0.000012
1275	1.2676e+02	7.3229	20.684265	0.000406	4.057801	0.687410	-0.000041
1276	1.2686e+02	7.3123	20.704451	-0.000203	-2.028901	-0.343705	0.000020
1277	1.2696e+02	7.3029	20.623708	0.000812	8.115603	1.374820	-0.000081
1278	1.2706e+02	7.2916	20.647931	-0.000243	-2.434681	-0.412446	0.000024
1279	1.2716e+02	7.2831	20.555077	0.000933	9.332943	1.581043	-0.000093
1280	1.2726e+02	7.2724	20.534891	0.000203	2.028901	0.343705	-0.000020
1281	1.2736e+02	7.2620	20.530854	0.000041	0.405780	0.068741	-0.000004
1282	1.2746e+02	7.2518	20.478371	0.000528	5.275142	0.893633	-0.000053
1283	1.2756e+02	7.2433	20.446074	0.000325	3.246241	0.549928	-0.000032
1284	1.2766e+02	7.2331	20.438000	0.000081	0.811560	0.137482	-0.000008
1285	1.2776e+02	7.2231	20.377443	0.000609	6.086702	1.031115	-0.000061
1286	1.2786e+02	7.2124	20.365331	0.000122	1.217340	0.206223	-0.000012
1287	1.2796e+02	7.2022	20.341108	0.000243	2.434681	0.412446	-0.000024
1288	1.2806e+02	7.1941	20.276514	0.000649	6.492482	1.099856	-0.000065
1289	1.2816e+02	7.1826	20.292663	-0.000162	-1.623121	-0.274964	0.000016
1290	1.2826e+02	7.1741	20.211920	0.000812	8.115603	1.374820	-0.000081
1291	1.2835e+02	7.1635	20.219994	-0.000081	-0.811560	-0.137482	0.000008
1292	1.2845e+02	7.1529	20.179623	0.000406	4.057801	0.687410	-0.000041
1293	1.2855e+02	7.1429	20.143289	0.000365	3.652021	0.618669	-0.000037
1294	1.2865e+02	7.1330	20.135214	0.000081	0.811560	0.137482	-0.000008
1295	1.2875e+02	7.1235	20.090806	0.000446	4.463581	0.756151	-0.000045
1296	1.2885e+02	7.1136	20.058509	0.000325	3.246241	0.549928	-0.000032
1297	1.2895e+02	7.1031	20.010063	0.000487	4.869362	0.824892	-0.000049
1298	1.2905e+02	7.0931	19.973729	0.000365	3.652021	0.618669	-0.000037
1299	1.2915e+02	7.0837	19.957581	0.000162	1.623121	0.274964	-0.000016
1300	1.2925e+02	7.0736	19.949506	0.000081	0.811560	0.137482	-0.000008
1301	1.2935e+02	7.0635	19.901061	0.000487	4.869362	0.824892	-0.000049
1302	1.2945e+02	7.0543	19.864726	0.000365	3.652021	0.618669	-0.000037
1303	1.2955e+02	7.0432	19.824355	0.000406	4.057801	0.687410	-0.000041
1304	1.2965e+02	7.0334	19.800132	0.000243	2.434681	0.412446	-0.000024
1305	1.2975e+02	7.0233	19.747649	0.000528	5.275142	0.893633	-0.000053
1306	1.2985e+02	7.0138	19.751687	-0.000041	-0.405780	-0.068741	0.000004
1307	1.2995e+02	7.0031	19.715352	0.000365	3.652021	0.618669	-0.000037
1308	1.3005e+02	6.9946	19.618461	0.000974	9.738723	1.649784	-0.000097
1309	1.3015e+02	6.9849	19.658832	-0.000406	-4.057801	-0.687410	0.000041
1310	1.3025e+02	6.9741	19.634610	0.000243	2.434681	0.412446	-0.000024
1311	1.3034e+02	6.9638	19.578090	0.000568	5.680922	0.962374	-0.000057
1312	1.3044e+02	6.9547	19.541756	0.000365	3.652021	0.618669	-0.000037
1313	1.3054e+02	6.9429	19.517533	0.000243	2.434681	0.412446	-0.000024
1314	1.3064e+02	6.9346	19.481199	0.000365	3.652021	0.618669	-0.000037
1315	1.3074e+02	6.9244	19.452939	0.000284	2.840461	0.481187	-0.000028
1316	1.3084e+02	6.9146	19.420641	0.000325	3.246241	0.549928	-0.000032
1317	1.3094e+02	6.9045	19.396419	0.000243	2.434681	0.412446	-0.000024
1318	1.3104e+02	6.8953	19.335862	0.000609	6.086702	1.031115	-0.000061
1319	1.3114e+02	6.8845	19.315676	0.000203	2.028901	0.343705	-0.000020
1320	1.3124e+02	6.8747	19.307602	0.000081	0.811560	0.137482	-0.000008
1321	1.3134e+02	6.8642	19.247045	0.000609	6.086702	1.031115	-0.000061
1322	1.3144e+02	6.8543	19.234933	0.000122	1.217340	0.206223	-0.000012
1323	1.3154e+02	6.8448	19.170339	0.000649	6.492482	1.099856	-0.000065
1324	1.3164e+02	6.8340	19.166302	0.000041	0.405780	0.068741	-0.000004
1325	1.3174e+02	6.8249	19.121893	0.000446	4.463581	0.756151	-0.000045
1326	1.3184e+02	6.8154	19.105745	0.000162	1.623121	0.274964	-0.000016
1327	1.3194e+02	6.8044	19.053262	0.000528	5.275142	0.893633	-0.000053
1328	1.3204e+02	6.7949	19.049225	0.000041	0.405780	0.068741	-0.000004
1329	1.3214e+02	6.7855	18.988668	0.000609	6.086702	1.031115	-0.000061
1330	1.3224e+02	6.7757	18.984631	0.000041	0.405780	0.068741	-0.000004
1331	1.3234e+02	6.7648	18.916000	0.000690	6.898262	1.168597	-0.000069
1332	1.3243e+02	6.7548	18.916000	-0.000000	-0.000000	-0.000000	0.000000
1333	1.3253e+02	6.7457	18.916000	-0.000000	-0.000000	-0.000000	0.000000
1334	1.3263e+02	6.7352	18.851405	0.000649	6.492482	1.099856	-0.000065
1335	1.3273e+02	6.7262	18.811034	0.000406	4.057801	0.687410	-0.000041
1336	1.3283e+02	6.7152	18.798923	0.000122	1.217340	0.206223	-0.000012
1337	1.3293e+02	6.7052	18.758551	0.000406	4.057801	0.687410	-0.000041
1338	1.3303e+02	6.6952	18.734328	0.000243	2.434681	0.412446	-0.000024
1339	1.3313e+02	6.6860	18.657623	0.000771	7.709822	1.306079	-0.000077
1340	1.3323e+02	6.6740	18.702031	-0.000446	-4.463581	-0.756151	0.000045
1341	1.3333e+02	6.6665	18.657623	0.000446	4.463581	0.756151	-0.000045
1342	1.3343e+02	6.6540	18.588992	0.000690	6.898262	1.168597	-0.000069
1343	1.3353e+02	6.6448	18.605140	-0.000162	-1.623121	-0.274964	0.000016
1344	1.3363e+02	6.6354	18.572843	0.000325	3.246241	0.549928	-0.000032
1345	1.3373e+02	6.6268	18.524397	0.000487	4.869362	0.824892	-0.000049
1346	1.3383e+02	6.6157	18.479989	0.000446	4.463581	0.756151	-0.000045
1347	1.3393e+02	6.6069	18.459803	0.000203	2.028901	0.343705	-0.000020
1348	1.3403e+02	6.5952	18.415395	0.000446	4.463581	0.756151	-0.000045
1349	1.3413e+02	6.5858	18.395209	0.000203	2.028901	0.343705	-0.000020
1350	1.3423e+02	6.5763	18.370986	0.000243	2.434681	0.412446	-0.000024
1351	1.3432e+02	6.5662	18.322541	0.000487	4.869362	0.824892	-0.000049
1352	1.3442e+02	6.5548	18.286206	0.000365	3.652021	0.618669	-0.000037
1353	1.3452e+02	6.5456	18.282169	0.000041	0.405780	0.068741	-0.000004
1354	1.3462e+02	6.5357	18.245835	0.000365	3.652021	0.618669	-0.000037
1355	1.3472e+02	6.5261	18.185278	0.000609	6.086702	1.031115	-0.000061
1356	1.3482e+02	6.5170	18.173167	0.000122	1.217340	0.206223	-0.000012
1357	1.3492e+02	6.5060	18.144907	0.000284	2.840461	0.481187	-0.000028
1358	1.3502e+02	6.4956	18.128758	0.000162	1.623121	0.274964	-0.000016
1359	1.3512e+02	6.4855	18.084350	0.000446	4.463581	0.756151	-0.000045
1360	1.3522e+02	6.4765	18.027830	0.000568	5.680922	0.962374	-0.000057
1361	1.3532e+02	6.4666	18.015718	0.000122	1.217340	0.206223	-0.000012
1362	1.3542e+02	6.4565	17.955161	0.000609	6.086702	1.031115	-0.000061
1363	1.3552e+02	6.4470	17.947087	0.000081	0.811560	0.137482	-0.000008
1364	1.3562e+02	6.4361	17.922864	0.000243	2.434681	0.412446	-0.000024
1365	1.3572e+02	6.4274	17.874418	0.000487	4.869362	0.824892	-0.000049
1366	1.3582e+02	6.4165	17.858270	0.000162	1.623121	0.274964	-0.000016
1367	1.3592e+02	6.4068	17.834047	0.000243	2.434681	0.412446	-0.000024
1368	1.3602e+02	6.3976	17.785601	0.000487	4.869362	0.824892	-0.000049
1369	1.3612e+02	6.3865	17.737156	0.000487	4.869362	0.824892	-0.000049
1370	1.3622e+02	6.3772	17.737156	-0.000000	-0.000000	-0.000000	0.000000
1371	1.3631e+02	6.3679	17.692747	0.000446	4.463581	0.756151	-0.000045
1372	1.3641e+02	6.3564	17.636227	0.000568	5.680922	0.962374	-0.000057
1373	1.3651e+02	6.3477	17.607968	0.000284	2.840461	0.481187	-0.000028
1374	1.3661e+02	6.3372	17.575670	0.000325	3.246241	0.549928	-0.000032
1375	1.3671e+02	6.3274	17.571633	0.000041	0.405780	0.068741	-0.000004
1376	1.3681e+02	6.3180	17.519151	0.000528	5.275142	0.893633	-0.000053
1377	1.3691e+02	6.3071	17.503002	0.000162	1.623121	0.274964	-0.000016
1378	1.3701e+02	6.2984	17.458593	0.000446	4.463581	0.756151	-0.000045
1379	1.3711e+02	6.2881	17.446482	0.000122	1.217340	0.206223	-0.000012
1380	1.3721e+02	6.2786	17.410148	0.000365	3.652021	0.618669	-0.000037
1381	1.3731e+02	6.2679	17.389962	0.000203	2.028901	0.343705	-0.000020
1382	1.3741e+02	6.2583	17.321331	0.000690	6.898262	1.168597	-0.000069
1383	1.3751e+02	6.2475	17.309219	0.000122	1.217340	0.206223	-0.000012
1384	1.3761e+02	6.2374	17.272885	0.000365	3.652021	0.618669	-0.000037
1385	1.3771e+02	6.2296	17.224440	0.000487	4.869362	0.824892	-0.000049
1386	1.3781e+02	6.2178	17.184068	0.000406	4.057801	0.687410	-0.000041
1387	1.3791e+02	6.2086	17.167920	0.000162	1.623121	0.274964	-0.000016
1388	1.3801e+02	6.1983	17.091214	0.000771	7.709822	1.306079	-0.000077
1389	1.3811e+02	6.1879	17.115437	-0.000243	-2.434681	-0.412446	0.000024
1390	1.3821e+02	6.1790	17.079103	0.000365	3.652021	0.618669	-0.000037
1391	1.3831e+02	6.1678	17.022583	0.000568	5.680922	0.962374	-0.000057
1392	1.3840e+02	6.1584	17.030657	-0.000081	-0.811560	-0.137482	0.000008
1393	1.3850e+02	6.1485	17.014509	0.000162	1.623121	0.274964	-0.000016
1394	1.3860e+02	6.1379	16.917617	0.000974	9.738723	1.649784	-0.000097
1395	1.3870e+02	6.1288	16.885320	0.000325	3.246241	0.549928	-0.000032
1396	1.3880e+02	6.1191	16.840912	0.000446	4.463581	0.756151	-0.000045
1397	1.3890e+02	6.1077	16.816689	0.000243	2.434681	0.412446	-0.000024
1398	1.3900e+02	6.0983	16.804578	0.000122	1.217340	0.206223	-0.000012
1399	1.3910e+02	6.0889	16.760169	0.000446	4.463581	0.756151	-0.000045
1400	1.3920e+02	6.0784	16.723835	0.000365	3.652021	0.618669	-0.000037
1401	1.3930e+02	6.0703	16.719798	0.000041	0.405780	0.068741	-0.000004
1402	1.3940e+02	6.0592	16.703649	0.000162	1.623121	0.274964	-0.000016
1403	1.3950e+02	6.0498	16.703649	-0.000000	-0.000000	-0.000000	0.000000
1404	1.3960e+02	6.0390	16.602721	0.001014	10.144503	1.718525	-0.000101
1405	1.3970e+02	6.0293	16.586572	0.000162	1.623121	0.274964	-0.000016
1406	1.3980e+02	6.0192	16.546201	0.000406	4.057801	0.687410	-0.000041
1407	1.3990e+02	6.0099	16.509867	0.000365	3.652021	0.618669	-0.000037
1408	1.4000e+02	5.9994	16.469495	0.000406	4.057801	0.687410	-0.000041
1409	1.4010e+02	5.9895	16.449310	0.000203	2.028901	0.343705	-0.000020
1410	1.4020e+02	5.9798	16.412975	0.000365	3.652021	0.618669	-0.000037
1411	1.4029e+02	5.9704	16.356455	0.000568	5.680922	0.962374	-0.000057
1412	1.4039e+02	5.9595	16.360493	-0.000041	-0.405780	-0.068741	0.000004
1413	1.4049e+02	5.9498	16.303973	0.000568	5.680922	0.962374	-0.000057
1414	1.4059e+02	5.9394	16.263601	0.000406	4.057801	0.687410	-0.000041
1415	1.4069e+02	5.9298	16.219193	0.000446	4.463581	0.756151	-0.000045
1416	1.4079e+02	5.9194	16.166710	0.000528	5.275142	0.893633	-0.000053
1417	1.4089e+02	5.9100	16.142487	0.000243	2.434681	0.412446	-0.000024
1418	1.4099e+02	5.9002	16.142487	-0.000000	-0.000000	-0.000000	0.000000
1419	1.4109e+02	5.8894	16.090004	0.000528	5.275142	0.893633	-0.000053
1420	1.4119e+02	5.8808	16.025410	0.000649	6.492482	1.099856	-0.000065
1421	1.4129e+02	5.8700	16.013299	0.000122	1.217340	0.206223	-0.000012
1422	1.4139e+02	5.8602	15.976965	0.000365	3.652021	0.618669	-0.000037
1423	1.4149e+02	5.8496	15.936593	0.000406	4.057801	0.687410	-0.000041
1424	1.4159e+02	5.8400	15.876036	0.000609	6.086702	1.031115	-0.000061
1425	1.4169e+02	5.8301	15.847776	0.000284	2.840461	0.481187	-0.000028
1426	1.4179e+02	5.8208	15.827591	0.000203	2.028901	0.343705	-0.000020
1427	1.4189e+02	5.8096	15.779145	0.000487	4.869362	0.824892	-0.000049
1428	1.4199e+02	5.7999	15.758959	0.000203	2.028901	0.343705	-0.000020
1429	1.4209e+02	5.7906	15.694365	0.000649	6.492482	1.099856	-0.000065
1430	1.4219e+02	5.7804	15.670142	0.000243	2.434681	0.412446	-0.000024
1431	1.4228e+02	5.7710	15.625734	0.000446	4.463581	0.756151	-0.000045
1432	1.4238e+02	5.7594	15.577288	0.000487	4.869362	0.824892	-0.000049
1433	1.4248e+02	5.7504	15.540954	0.000365	3.652021	0.618669	-0.000037
1434	1.4258e+02	5.7408	15.520768	0.000203	2.028901	0.343705	-0.000020
1435	1.4268e+02	5.7305	15.464248	0.000568	5.680922	0.962374	-0.000057
1436	1.4278e+02	5.7209	15.456174	0.000081	0.811560	0.137482	-0.000008
1437	1.4288e+02	5.7105	15.423877	0.000325	3.246241	0.549928	-0.000032
1438	1.4298e+02	5.7008	15.383506	0.000406	4.057801	0.687410	-0.000041
1439	1.4308e+02	5.6910	15.331023	0.000528	5.275142	0.893633	-0.000053
1440	1.4318e+02	5.6802	15.302763	0.000284	2.840461	0.481187	-0.000028
1441	1.4328e+02	5.6709	15.282577	0.000203	2.028901	0.343705	-0.000020
1442	1.4338e+02	5.6603	15.230095	0.000528	5.275142	0.893633	-0.000053
1443	1.4348e+02	5.6518	15.189723	0.000406	4.057801	0.687410	-0.000041
1444	1.4358e+02	5.6414	15.177612	0.000122	1.217340	0.206223	-0.000012
1445	1.4368e+02	5.6309	15.137240	0.000406	4.057801	0.687410	-0.000041
1446	1.4378e+02	5.6211	15.096869	0.000406	4.057801	0.687410	-0.000041
1447	1.4388e+02	5.6118	15.056498	0.000406	4.057801	0.687410	-0.000041
1448	1.4398e+02	5.6017	14.999978	0.000568	5.680922	0.962374	-0.000057
1449	1.4408e+02	5.5911	14.963644	0.000365	3.652021	0.618669	-0.000037
1450	1.4418e+02	5.5816	14.955569	0.000081	0.811560	0.137482	-0.000008
1451	1.4428e+02	5.5718	14.911161	0.000446	4.463581	0.756151	-0.000045
1452	1.4437e+02	5.5614	14.903087	0.000081	0.811560	0.137482	-0.000008
1453	1.4447e+02	5.5514	14.842530	0.000609	6.086702	1.031115	-0.000061
1454	1.4457e+02	5.5412	14.818307	0.000243	2.434681	0.412446	-0.000024
1455	1.4467e+02	5.5328	14.777935	0.000406	4.057801	0.687410	-0.000041
1456	1.4477e+02	5.5215	14.741601	0.000365	3.652021	0.618669	-0.000037
1457	1.4487e+02	5.5114	14.689118	0.000528	5.275142	0.893633	-0.000053
1458	1.4497e+02	5.5019	14.656821	0.000325	3.246241	0.549928	-0.000032
1459	1.4507e+02	5.4916	14.604339	0.000528	5.275142	0.893633	-0.000053
1460	1.4517e+02	5.4816	14.592227	0.000122	1.217340	0.206223	-0.000012
1461	1.4527e+02	5.4716	14.543781	0.000487	4.869362	0.824892	-0.000049
1462	1.4537e+02	5.4608	14.511484	0.000325	3.246241	0.549928	-0.000032
1463	1.4547e+02	5.4523	14.495336	0.000162	1.623121	0.274964	-0.000016
1464	1.4557e+02	5.4426	14.414593	0.000812	8.115603	1.374820	-0.000081
1465	1.4567e+02	5.4324	14.398445	0.000162	1.623121	0.274964	-0.000016
1466	1.4577e+02	5.4223	14.358073	0.000406	4.057801	0.687410	-0.000041
1467	1.4587e+02	5.4124	14.321739	0.000365	3.652021	0.618669	-0.000037
1468	1.4597e+02	5.4028	14.253108	0.000690	6.898262	1.168597	-0.000069
1469	1.4607e+02	5.3915	14.232922	0.000203	2.028901	0.343705	-0.000020
1470	1.4617e+02	5.3823	14.204662	0.000284	2.840461	0.481187	-0.000028
1471	1.4626e+02	5.3722	14.176402	0.000284	2.840461	0.481187	-0.000028
1472	1.4636e+02	5.3625	14.136031	0.000406	4.057801	0.687410	-0.000041
1473	1.4646e+02	5.3522	14.075474	0.000609	6.086702	1.031115	-0.000061
1474	1.4656e+02	5.3432	14.071437	0.000041	0.405780	0.068741	-0.000004
1475	1.4666e+02	5.3329	14.031065	0.000406	4.057801	0.687410	-0.000041
1476	1.4676e+02	5.3233	13.982620	0.000487	4.869362	0.824892	-0.000049
1477	1.4686e+02	5.3121	13.930137	0.000528	5.275142	0.893633	-0.000053
1478	1.4696e+02	5.3026	13.897840	0.000325	3.246241	0.549928	-0.000032
1479	1.4706e+02	5.2935	13.869580	0.000284	2.840461	0.481187	-0.000028
1480	1.4716e+02	5.2828	13.837283	0.000325	3.246241	0.549928	-0.000032
1481	1.4726e+02	5.2735	13.776726	0.000609	6.086702	1.031115	-0.000061
1482	1.4736e+02	5.2627	13.756540	0.000203	2.028901	0.343705	-0.000020
1483	1.4746e+02	5.2534	13.736354	0.000203	2.028901	0.343705	-0.000020
1484	1.4756e+02	5.2425	13.675797	0.000609	6.086702	1.031115	-0.000061
1485	1.4766e+02	5.2331	13.647537	0.000284	2.840461	0.481187	-0.000028
1486	1.4776e+02	5.2235	13.607166	0.000406	4.057801	0.687410	-0.000041
1487	1.4786e+02	5.2129	13.546609	0.000609	6.086702	1.031115	-0.000061
1488	1.4796e+02	5.2041	13.522386	0.000243	2.434681	0.412446	-0.000024
1489	1.4806e+02	5.1936	13.469903	0.000528	5.275142	0.893633	-0.000053
1490	1.4816e+02	5.1834	13.473941	-0.000041	-0.405780	-0.068741	0.000004
1491	1.4825e+02	5.1733	13.393198	0.000812	8.115603	1.374820	-0.000081
1492	1.4835e+02	5.1627	13.385124	0.000081	0.811560	0.137482	-0.000008
1493	1.4845e+02	5.1537	13.332641	0.000528	5.275142	0.893633	-0.000053
1494	1.4855e+02	5.1441	13.280158	0.000528	5.275142	0.893633	-0.000053
1495	1.4865e+02	5.1344	13.280158	-0.000000	-0.000000	-0.000000	0.000000
1496	1.4875e+02	5.1241	13.211527	0.000690	6.898262	1.168597	-0.000069
1497	1.4885e+02	5.1146	13.163081	0.000487	4.869362	0.824892	-0.000049
1498	1.4895e+02	5.1044	13.138858	0.000243	2.434681	0.412446	-0.000024
1499	1.4905e+02	5.0941	13.094450	0.000446	4.463581	0.756151	-0.000045
1500	1.4915e+02	5.0842	13.086375	0.000081	0.811560	0.137482	-0.000008
1501	1.4925e+02	5.0745	13.029856	0.000568	5.680922	0.962374	-0.000057
1502	1.4935e+02	5.0636	13.025818	0.000041	0.405780	0.068741	-0.000004
1503	1.4945e+02	5.0549	12.977373	0.000487	4.869362	0.824892	-0.000049
1504	1.4955e+02	5.0440	12.969299	0.000081	0.811560	0.137482	-0.000008
1505	1.4965e+02	5.0335	12.900667	0.000690	6.898262	1.168597	-0.000069
1506	1.4975e+02	5.0243	12.848184	0.000528	5.275142	0.893633	-0.000053
1507	1.4985e+02	5.0152	12.803776	0.000446	4.463581	0.756151	-0.000045
1508	1.4995e+02	5.0049	12.779553	0.000243	2.434681	0.412446	-0.000024
1509	1.5005e+02	4.9944	12.779553	-0.000000	-0.000000	-0.000000	0.000000
1510	1.5015e+02	4.9848	12.702848	0.000771	7.709822	1.306079	-0.000077
1511	1.5025e+02	4.9748	12.686699	0.000162	1.623121	0.274964	-0.000016
1512	1.5034e+02	4.9647	12.674588	0.000122	1.217340	0.206223	-0.000012
1513	1.5044e+02	4.9543	12.593845	0.000812	8.115603	1.374820	-0.000081
1514	1.5054e+02	4.9453	12.618068	-0.000243	-2.434681	-0.412446	0.000024
1515	1.5064e+02	4.9348	12.557511	0.000609	6.086702	1.031115	-0.000061
1516	1.5074e+02	4.9243	12.496954	0.000609	6.086702	1.031115	-0.000061
1517	1.5084e+02	4.9151	12.464657	0.000325	3.246241	0.549928	-0.000032
1518	1.5094e+02	4.9055	12.460619	0.000041	0.405780	0.068741	-0.000004
1519	1.5104e+02	4.8956	12.367765	0.000933	9.332943	1.581043	-0.000093
1520	1.5114e+02	4.8849	12.363728	0.000041	0.405780	0.068741	-0.000004
1521	1.5124e+02	4.8752	12.311245	0.000528	5.275142	0.893633	-0.000053
1522	1.5134e+02	4.8650	12.274911	0.000365	3.652021	0.618669	-0.000037
1523	1.5144e+02	4.8551	12.234540	0.000406	4.057801	0.687410	-0.000041
1524	1.5154e+02	4.8452	12.210317	0.000243	2.434681	0.412446	-0.000024
1525	1.5164e+02	4.8350	12.157834	0.000528	5.275142	0.893633	-0.000053
1526	1.5174e+02	4.8254	12.117463	0.000406	4.057801	0.687410	-0.000041
1527	1.5184e+02	4.8142	12.097277	0.000203	2.028901	0.343705	-0.000020
1528	1.5194e+02	4.8054	12.036720	0.000609	6.086702	1.031115	-0.000061
1529	1.5204e+02	4.7961	11.992312	0.000446	4.463581	0.756151	-0.000045
1530	1.5214e+02	4.7844	11.968089	0.000243	2.434681	0.412446	-0.000024
1531	1.5224e+02	4.7755	11.988275	-0.000203	-2.028901	-0.343705	0.000020
1532	1.5233e+02	4.7649	11.911569	0.000771	7.709822	1.306079	-0.000077
1533	1.5243e+02	4.7552	11.891383	0.000203	2.028901	0.343705	-0.000020
1534	1.5253e+02	4.7456	11.806603	0.000852	8.521383	1.443561	-0.000085
1535	1.5263e+02	4.7356	11.802566	0.000041	0.405780	0.068741	-0.000004
1536	1.5273e+02	4.7261	11.742009	0.000609	6.086702	1.031115	-0.000061
1537	1.5283e+02	4.7160	11.709712	0.000325	3.246241	0.549928	-0.000032
1538	1.5293e+02	4.7057	11.673378	0.000365	3.652021	0.618669	-0.000037
1539	1.5303e+02	4.6970	11.620895	0.000528	5.275142	0.893633	-0.000053
1540	1.5313e+02	4.6865	11.596672	0.000243	2.434681	0.412446	-0.000024
1541	1.5323e+02	4.6763	11.556301	0.000406	4.057801	0.687410	-0.000041
1542	1.5333e+02	4.6655	11.507855	0.000487	4.869362	0.824892	-0.000049
1543	1.5343e+02	4.6572	11.483633	0.000243	2.434681	0.412446	-0.000024
1544	1.5353e+02	4.6459	11.451336	0.000325	3.246241	0.549928	-0.000032
1545	1.5363e+02	4.6365	11.386741	0.000649	6.492482	1.099856	-0.000065
1546	1.5373e+02	4.6258	11.378667	0.000081	0.811560	0.137482	-0.000008
1547	1.5383e+02	4.6167	11.322147	0.000568	5.680922	0.962374	-0.000057
1548	1.5393e+02	4.6064	11.318110	0.000041	0.405780	0.068741	-0.000004
1549	1.5403e+02	4.5961	11.269664	0.000487	4.869362	0.824892	-0.000049
1550	1.5413e+02	4.5861	11.233330	0.000365	3.652021	0.618669	-0.000037
1551	1.5422e+02	4.5770	11.168736	0.000649	6.492482	1.099856	-0.000065
1552	1.5432e+02	4.5660	11.144513	0.000243	2.434681	0.412446	-0.000024
1553	1.5442e+02	4.5566	11.096068	0.000487	4.869362	0.824892	-0.000049
1554	1.5452e+02	4.5467	11.055696	0.000406	4.057801	0.687410	-0.000041
1555	1.5462e+02	4.5359	11.011288	0.000446	4.463581	0.756151	-0.000045
1556	1.5472e+02	4.5267	10.974954	0.000365	3.652021	0.618669	-0.000037
1557	1.5482e+02	4.5171	10.902285	0.000730	7.304042	1.237338	-0.000073
1558	1.5492e+02	4.5076	10.898248	0.000041	0.405780	0.068741	-0.000004
1559	1.5502e+02	4.4971	10.849802	0.000487	4.869362	0.824892	-0.000049
1560	1.5512e+02	4.4875	10.809431	0.000406	4.057801	0.687410	-0.000041
1561	1.5522e+02	4.4762	10.801357	0.000081	0.811560	0.137482	-0.000008
1562	1.5532e+02	4.4674	10.765022	0.000365	3.652021	0.618669	-0.000037
1563	1.5542e+02	4.4565	10.708503	0.000568	5.680922	0.962374	-0.000057
1564	1.5552e+02	4.4466	10.607574	0.001014	10.144503	1.718525	-0.000101
1565	1.5562e+02	4.4371	10.643908	-0.000365	-3.652021	-0.618669	0.000037
1566	1.5572e+02	4.4270	10.583351	0.000609	6.086702	1.031115	-0.000061
1567	1.5582e+02	4.4168	10.555091	0.000284	2.840461	0.481187	-0.000028
1568	1.5592e+02	4.4068	10.502609	0.000528	5.275142	0.893633	-0.000053
1569	1.5602e+02	4.3979	10.466274	0.000365	3.652021	0.618669	-0.000037
1570	1.5612e+02	4.3868	10.409755	0.000568	5.680922	0.962374	-0.000057
1571	1.5622e+02	4.3782	10.365346	0.000446	4.463581	0.756151	-0.000045
1572	1.5631e+02	4.3678	10.349197	0.000162	1.623121	0.274964	-0.000016
1573	1.5641e+02	4.3571	10.341123	0.000081	0.811560	0.137482	-0.000008
1574	1.5651e+02	4.3478	10.268455	0.000730	7.304042	1.237338	-0.000073
1575	1.5661e+02	4.3386	10.215972	0.000528	5.275142	0.893633	-0.000053
1576	1.5671e+02	4.3265	10.207898	0.000081	0.811560	0.137482	-0.000008
1577	1.5681e+02	4.3182	10.123118	0.000852	8.521383	1.443561	-0.000085
1578	1.5691e+02	4.3084	10.119081	0.000041	0.405780	0.068741	-0.000004
1579	1.5701e+02	4.2980	10.086784	0.000325	3.246241	0.549928	-0.000032
1580	1.5711e+02	4.2876	10.046412	0.000406	4.057801	0.687410	-0.000041
1581	1.5721e+02	4.2785	10.022189	0.000243	2.434681	0.412446	-0.000024
1582	1.5731e+02	4.2678	9.941447	0.000812	8.115603	1.374820	-0.000081
1583	1.5741e+02	4.2589	9.909150	0.000325	3.246241	0.549928	-0.000032
1584	1.5751e+02	4.2490	9.852630	0.000568	5.680922	0.962374	-0.000057
1585	1.5761e+02	4.2376	9.840518	0.000122	1.217340	0.206223	-0.000012
1586	1.5771e+02	4.2286	9.775924	0.000649	6.492482	1.099856	-0.000065
1587	1.5781e+02	4.2181	9.731516	0.000446	4.463581	0.756151	-0.000045
1588	1.5791e+02	4.2077	9.707293	0.000243	2.434681	0.412446	-0.000024
1589	1.5801e+02	4.1990	9.666922	0.000406	4.057801	0.687410	-0.000041
1590	1.5811e+02	4.1883	9.638662	0.000284	2.840461	0.481187	-0.000028
1591	1.5821e+02	4.1791	9.582142	0.000568	5.680922	0.962374	-0.000057
1592	1.5830e+02	4.1682	9.493325	0.000893	8.927163	1.512302	-0.000089
1593	1.5840e+02	4.1586	9.489288	0.000041	0.405780	0.068741	-0.000004
1594	1.5850e+02	4.1482	9.436805	0.000528	5.275142	0.893633	-0.000053
1595	1.5860e+02	4.1386	9.408545	0.000284	2.840461	0.481187	-0.000028
1596	1.5870e+02	4.1273	9.364136	0.000446	4.463581	0.756151	-0.000045
1597	1.5880e+02	4.1181	9.311654	0.000528	5.275142	0.893633	-0.000053
1598	1.5890e+02	4.1089	9.251097	0.000609	6.086702	1.031115	-0.000061
1599	1.5900e+02	4.0993	9.210725	0.000406	4.057801	0.687410	-0.000041
1600	1.5910e+02	4.0881	9.166317	0.000446	4.463581	0.756151	-0.000045
1601	1.5920e+02	4.0781	9.138057	0.000284	2.840461	0.481187	-0.000028
1602	1.5930e+02	4.0685	9.089611	0.000487	4.869362	0.824892	-0.000049
1603	1.5940e+02	4.0598	9.053277	0.000365	3.652021	0.618669	-0.000037
1604	1.5950e+02	4.0488	9.037128	0.000162	1.623121	0.274964	-0.000016
1605	1.5960e+02	4.0396	9.004831	0.000325	3.246241	0.549928	-0.000032
1606	1.5970e+02	4.0289	8.928126	0.000771	7.709822	1.306079	-0.000077
1607	1.5980e+02	4.0189	8.867569	0.000609	6.086702	1.031115	-0.000061
1608	1.5990e+02	4.0090	8.851420	0.000162	1.623121	0.274964	-0.000016
1609	1.6000e+02	3.9991	8.798937	0.000528	5.275142	0.893633	-0.000053
1610	1.6010e+02	3.9895	8.758566	0.000406	4.057801	0.687410	-0.000041
1611	1.6019e+02	3.9799	8.718195	0.000406	4.057801	0.687410	-0.000041
1612	1.6029e+02	3.9697	8.641489	0.000771	7.709822	1.306079	-0.000077
1613	1.6039e+02	3.9598	8.621303	0.000203	2.028901	0.343705	-0.000020
1614	1.6049e+02	3.9493	8.548635	0.000730	7.304042	1.237338	-0.000073
1615	1.6059e+02	3.9398	8.528449	0.000203	2.028901	0.343705	-0.000020
1616	1.6069e+02	3.9297	8.488078	0.000406	4.057801	0.687410	-0.000041
1617	1.6079e+02	3.9185	8.431558	0.000568	5.680922	0.962374	-0.000057
1618	1.6089e+02	3.9089	8.399261	0.000325	3.246241	0.549928	-0.000032
1619	1.6099e+02	3.8999	8.395224	0.000041	0.405780	0.068741	-0.000004
1620	1.6109e+02	3.8893	8.350815	0.000446	4.463581	0.756151	-0.000045
1621	1.6119e+02	3.8795	8.241813	0.001096	10.956063	1.856007	-0.000110
1622	1.6129e+02	3.8694	8.213553	0.000284	2.840461	0.481187	-0.000028
1623	1.6139e+02	3.8596	8.173181	0.000406	4.057801	0.687410	-0.000041
1624	1.6149e+02	3.8496	8.124736	0.000487	4.869362	0.824892	-0.000049
1625	1.6159e+02	3.8399	8.084364	0.000406	4.057801	0.687410	-0.000041
1626	1.6169e+02	3.8309	8.060142	0.000243	2.434681	0.412446	-0.000024
1627	1.6179e+02	3.8193	8.023807	0.000365	3.652021	0.618669	-0.000037
1628	1.6189e+02	3.8097	8.007659	0.000162	1.623121	0.274964	-0.000016
1629	1.6199e+02	3.8002	7.955176	0.000528	5.275142	0.893633	-0.000053
1630	1.6209e+02	3.7904	7.866359	0.000893	8.927163	1.512302	-0.000089
1631	1.6219e+02	3.7805	7.817913	0.000487	4.869362	0.824892	-0.000049
1632	1.6228e+02	3.7707	7.850210	-0.000325	-3.246241	-0.549928	0.000032
1633	1.6238e+02	3.7611	7.793691	0.000568	5.680922	0.962374	-0.000057
1634	1.6248e+02	3.7514	7.672576	0.001217	12.173404	2.062230	-0.000122
1635	1.6258e+02	3.7417	7.668539	0.000041	0.405780	0.068741	-0.000004
1636	1.6268e+02	3.7310	7.636242	0.000325	3.246241	0.549928	-0.000032
1637	1.6278e+02	3.7212	7.595871	0.000406	4.057801	0.687410	-0.000041
1638	1.6288e+02	3.7108	7.555500	0.000406	4.057801	0.687410	-0.000041
1639	1.6298e+02	3.7006	7.507054	0.000487	4.869362	0.824892	-0.000049
1640	1.6308e+02	3.6925	7.438423	0.000690	6.898262	1.168597	-0.000069
1641	1.6318e+02	3.6806	7.410163	0.000284	2.840461	0.481187	-0.000028
1642	1.6328e+02	3.6706	7.402088	0.000081	0.811560	0.137482	-0.000008
1643	1.6338e+02	3.6625	7.341531	0.000609	6.086702	1.031115	-0.000061
1644	1.6348e+02	3.6518	7.305197	0.000365	3.652021	0.618669	-0.000037
1645	1.6358e+02	3.6410	7.248677	0.000568	5.680922	0.962374	-0.000057
1646	1.6368e+02	3.6315	7.196194	0.000528	5.275142	0.893633	-0.000053
1647	1.6378e+02	3.6219	7.135637	0.000609	6.086702	1.031115	-0.000061
1648	1.6388e+02	3.6112	7.107377	0.000284	2.840461	0.481187	-0.000028
1649	1.6398e+02	3.6012	7.062969	0.000446	4.463581	0.756151	-0.000045
1650	1.6408e+02	3.5911	7.034709	0.000284	2.840461	0.481187	-0.000028
1651	1.6418e+02	3.5817	6.949929	0.000852	8.521383	1.443561	-0.000085
1652	1.6427e+02	3.5717	6.921669	0.000284	2.840461	0.481187	-0.000028
1653	1.6437e+02	3.5621	6.857075	0.000649	6.492482	1.099856	-0.000065
1654	1.6447e+02	3.5519	6.849001	0.000081	0.811560	0.137482	-0.000008
1655	1.6457e+02	3.5415	6.788444	0.000609	6.086702	1.031115	-0.000061
1656	1.6467e+02	3.5313	6.756147	0.000325	3.246241	0.549928	-0.000032
1657	1.6477e+02	3.5225	6.663293	0.000933	9.332943	1.581043	-0.000093
1658	1.6487e+02	3.5119	6.610810	0.000528	5.275142	0.893633	-0.000053
1659	1.6497e+02	3.5024	6.610810	-0.000000	-0.000000	-0.000000	0.000000
1660	1.6507e+02	3.4920	6.542178	0.000690	6.898262	1.168597	-0.000069
1661	1.6517e+02	3.4824	6.546216	-0.000041	-0.405780	-0.068741	0.000004
1662	1.6527e+02	3.4715	6.441250	0.001055	10.550283	1.787266	-0.000105
1663	1.6537e+02	3.4621	6.449324	-0.000081	-0.811560	-0.137482	0.000008
1664	1.6547e+02	3.4518	6.400879	0.000487	4.869362	0.824892	-0.000049
1665	1.6557e+02	3.4421	6.344359	0.000568	5.680922	0.962374	-0.000057
1666	1.6567e+02	3.4325	6.303987	0.000406	4.057801	0.687410	-0.000041
1667	1.6577e+02	3.4240	6.227282	0.000771	7.709822	1.306079	-0.000077
1668	1.6587e+02	3.4126	6.239393	-0.000122	-1.217340	-0.206223	0.000012
1669	1.6597e+02	3.4021	6.158651	0.000812	8.115603	1.374820	-0.000081
1670	1.6607e+02	3.3926	6.106168	0.000528	5.275142	0.893633	-0.000053
1671	1.6616e+02	3.3820	6.081945	0.000243	2.434681	0.412446	-0.000024
1672	1.6626e+02	3.3730	6.061759	0.000203	2.028901	0.343705	-0.000020
1673	1.6636e+02	3.3627	5.964868	0.000974	9.738723	1.649784	-0.000097
1674	1.6646e+02	3.3532	5.940645	0.000243	2.434681	0.412446	-0.000024
1675	1.6656e+02	3.3435	5.908348	0.000325	3.246241	0.549928	-0.000032
1676	1.6666e+02	3.3327	5.867977	0.000406	4.057801	0.687410	-0.000041
1677	1.6676e+02	3.3222	5.843754	0.000243	2.434681	0.412446	-0.000024
1678	1.6686e+02	3.3124	5.791271	0.000528	5.275142	0.893633	-0.000053
1679	1.6696e+02	3.3033	5.783197	0.000081	0.811560	0.137482	-0.000008
1680	1.6706e+02	3.2923	5.690343	0.000933	9.332943	1.581043	-0.000093
1681	1.6716e+02	3.2833	5.686306	0.000041	0.405780	0.068741	-0.000004
1682	1.6726e+02	3.2726	5.609600	0.000771	7.709822	1.306079	-0.000077
1683	1.6736e+02	3.2635	5.593452	0.000162	1.623121	0.274964	-0.000016
1684	1.6746e+02	3.2531	5.553080	0.000406	4.057801	0.687410	-0.000041
1685	1.6756e+02	3.2435	5.492523	0.000609	6.086702	1.031115	-0.000061
1686	1.6766e+02	3.2331	5.464263	0.000284	2.840461	0.481187	-0.000028
1687	1.6776e+02	3.2241	5.411780	0.000528	5.275142	0.893633	-0.000053
1688	1.6786e+02	3.2133	5.379483	0.000325	3.246241	0.549928	-0.000032
1689	1.6796e+02	3.2029	5.310852	0.000690	6.898262	1.168597	-0.000069
1690	1.6806e+02	3.1929	5.294704	0.000162	1.623121	0.274964	-0.000016
1691	1.6816e+02	3.1841	5.242221	0.000528	5.275142	0.893633	-0.000053
1692	1.6825e+02	3.1736	5.189738	0.000528	5.275142	0.893633	-0.000053
1693	1.6835e+02	3.1631	5.121107	0.000690	6.898262	1.168597	-0.000069
1694	1.6845e+02	3.1541	5.125144	-0.000041	-0.405780	-0.068741	0.000004
1695	1.6855e+02	3.1435	5.048438	0.000771	7.709822	1.306079	-0.000077
1696	1.6865e+02	3.1337	4.995955	0.000528	5.275142	0.893633	-0.000053
1697	1.6875e+02	3.1234	4.967696	0.000284	2.840461	0.481187	-0.000028
1698	1.6885e+02	3.1142	4.931361	0.000365	3.652021	0.618669	-0.000037
1699	1.6895e+02	3.1039	4.870804	0.000609	6.086702	1.031115	-0.000061
1700	1.6905e+02	3.0934	4.834470	0.000365	3.652021	0.618669	-0.000037
1701	1.6915e+02	3.0836	4.781987	0.000528	5.275142	0.893633	-0.000053
1702	1.6925e+02	3.0740	4.745653	0.000365	3.652021	0.618669	-0.000037
1703	1.6935e+02	3.0653	4.672985	0.000730	7.304042	1.237338	-0.000073
1704	1.6945e+02	3.0533	4.620502	0.000528	5.275142	0.893633	-0.000053
1705	1.6955e+02	3.0444	4.600316	0.000203	2.028901	0.343705	-0.000020
1706	1.6965e+02	3.0338	4.531685	0.000690	6.898262	1.168597	-0.000069
1707	1.6975e+02	3.0242	4.495351	0.000365	3.652021	0.618669	-0.000037
1708	1.6985e+02	3.0145	4.467091	0.000284	2.840461	0.481187	-0.000028
1709	1.6995e+02	3.0044	4.406534	0.000609	6.086702	1.031115	-0.000061
1710	1.7005e+02	2.9943	4.354051	0.000528	5.275142	0.893633	-0.000053
1711	1.7015e+02	2.9845	4.289457	0.000649	6.492482	1.099856	-0.000065
1712	1.7024e+02	2.9740	4.281382	0.000081	0.811560	0.137482	-0.000008
1713	1.7034e+02	2.9656	4.200640	0.000812	8.115603	1.374820	-0.000081
1714	1.7044e+02	2.9540	4.180454	0.000203	2.028901	0.343705	-0.000020
1715	1.7054e+02	2.9442	4.136046	0.000446	4.463581	0.756151	-0.000045
1716	1.7064e+02	2.9353	4.071451	0.000649	6.492482	1.099856	-0.000065
1717	1.7074e+02	2.9243	4.035117	0.000365	3.652021	0.618669	-0.000037
1718	1.7084e+02	2.9150	4.018969	0.000162	1.623121	0.274964	-0.000016
1719	1.7094e+02	2.9050	3.970523	0.000487	4.869362	0.824892	-0.000049
1720	1.7104e+02	2.8947	3.914003	0.000568	5.680922	0.962374	-0.000057
1721	1.7114e+02	2.8845	3.881706	0.000325	3.246241	0.549928	-0.000032
1722	1.7124e+02	2.8749	3.813075	0.000690	6.898262	1.168597	-0.000069
1723	1.7134e+02	2.8654	3.768666	0.000446	4.463581	0.756151	-0.000045
1724	1.7144e+02	2.8553	3.720221	0.000487	4.869362	0.824892	-0.000049
1725	1.7154e+02	2.8446	3.695998	0.000243	2.434681	0.412446	-0.000024
1726	1.7164e+02	2.8355	3.643515	0.000528	5.275142	0.893633	-0.000053
1727	1.7174e+02	2.8257	3.586995	0.000568	5.680922	0.962374	-0.000057
1728	1.7184e+02	2.8157	3.506252	0.000812	8.115603	1.374820	-0.000081
1729	1.7194e+02	2.8057	3.461844	0.000446	4.463581	0.756151	-0.000045
1730	1.7204e+02	2.7949	3.477992	-0.000162	-1.623121	-0.274964	0.000016
1731	1.7213e+02	2.7865	3.393213	0.000852	8.521383	1.443561	-0.000085
1732	1.7223e+02	2.7756	3.344767	0.000487	4.869362	0.824892	-0.000049
1733	1.7233e+02	2.7651	3.300358	0.000446	4.463581	0.756151	-0.000045
1734	1.7243e+02	2.7558	3.268061	0.000325	3.246241	0.549928	-0.000032
1735	1.7253e+02	2.7448	3.219616	0.000487	4.869362	0.824892	-0.000049
1736	1.7263e+02	2.7358	3.167133	0.000528	5.275142	0.893633	-0.000053
1737	1.7273e+02	2.7264	3.146947	0.000203	2.028901	0.343705	-0.000020
1738	1.7283e+02	2.7152	3.098502	0.000487	4.869362	0.824892	-0.000049
1739	1.7293e+02	2.7063	3.029870	0.000690	6.898262	1.168597	-0.000069
1740	1.7303e+02	2.6955	3.013722	0.000162	1.623121	0.274964	-0.000016
1741	1.7313e+02	2.6844	2.937016	0.000771	7.709822	1.306079	-0.000077
1742	1.7323e+02	2.6753	2.880496	0.000568	5.680922	0.962374	-0.000057
1743	1.7333e+02	2.6662	2.823976	0.000568	5.680922	0.962374	-0.000057
1744	1.7343e+02	2.6563	2.799754	0.000243	2.434681	0.412446	-0.000024
1745	1.7353e+02	2.6460	2.751308	0.000487	4.869362	0.824892	-0.000049
1746	1.7363e+02	2.6364	2.719011	0.000325	3.246241	0.549928	-0.000032
1747	1.7373e+02	2.6270	2.674602	0.000446	4.463581	0.756151	-0.000045
1748	1.7383e+02	2.6157	2.630194	0.000446	4.463581	0.756151	-0.000045
1749	1.7393e+02	2.6064	2.565600	0.000649	6.492482	1.099856	-0.000065
1750	1.7403e+02	2.5959	2.509080	0.000568	5.680922	0.962374	-0.000057
1751	1.7413e+02	2.5863	2.424300	0.000852	8.521383	1.443561	-0.000085
1752	1.7422e+02	2.5758	2.396040	0.000284	2.840461	0.481187	-0.000028
1753	1.7432e+02	2.5658	2.387966	0.000081	0.811560	0.137482	-0.000008
1754	1.7442e+02	2.5556	2.291075	0.000974	9.738723	1.649784	-0.000097
1755	1.7452e+02	2.5475	2.198220	0.000933	9.332943	1.581043	-0.000093
1756	1.7462e+02	2.5361	2.214369	-0.000162	-1.623121	-0.274964	0.000016
1757	1.7472e+02	2.5273	2.153812	0.000609	6.086702	1.031115	-0.000061
1758	1.7482e+02	2.5164	2.113441	0.000406	4.057801	0.687410	-0.000041
1759	1.7492e+02	2.5076	2.085181	0.000284	2.840461	0.481187	-0.000028
1760	1.7502e+02	2.4965	2.000401	0.000852	8.521383	1.443561	-0.000085
1761	1.7512e+02	2.4870	1.960029	0.000406	4.057801	0.687410	-0.000041
1762	1.7522e+02	2.4766	1.867175	0.000933	9.332943	1.581043	-0.000093
1763	1.7532e+02	2.4660	1.822767	0.000446	4.463581	0.756151	-0.000045
1764	1.7542e+02	2.4567	1.770284	0.000528	5.275142	0.893633	-0.000053
1765	1.7552e+02	2.4469	1.746061	0.000243	2.434681	0.412446	-0.000024
1766	1.7562e+02	2.4370	1.677430	0.000690	6.898262	1.168597	-0.000069
1767	1.7572e+02	2.4281	1.612836	0.000649	6.492482	1.099856	-0.000065
1768	1.7582e+02	2.4167	1.600724	0.000122	1.217340	0.206223	-0.000012
1769	1.7592e+02	2.4086	1.544204	0.000568	5.680922	0.962374	-0.000057
1770	1.7602e+02	2.3977	1.483647	0.000609	6.086702	1.031115	-0.000061
1771	1.7612e+02	2.3880	1.423090	0.000609	6.086702	1.031115	-0.000061
1772	1.7621e+02	2.3767	1.382719	0.000406	4.057801	0.687410	-0.000041
1773	1.7631e+02	2.3678	1.374645	0.000081	0.811560	0.137482	-0.000008
1774	1.7641e+02	2.3576	1.273716	0.001014	10.144503	1.718525	-0.000101
1775	1.7651e+02	2.3472	1.237382	0.000365	3.652021	0.618669	-0.000037
1776	1.7661e+02	2.3379	1.160677	0.000771	7.709822	1.306079	-0.000077
1777	1.7671e+02	2.3275	1.116268	0.000446	4.463581	0.756151	-0.000045
1778	1.7681e+02	2.3183	1.071860	0.000446	4.463581	0.756151	-0.000045
1779	1.7691e+02	2.3080	1.039562	0.000325	3.246241	0.549928	-0.000032
1780	1.7701e+02	2.2975	0.991117	0.000487	4.869362	0.824892	-0.000049
1781	1.7711e+02	2.2870	0.926523	0.000649	6.492482	1.099856	-0.000065
1782	1.7721e+02	2.2781	0.870003	0.000568	5.680922	0.962374	-0.000057
1783	1.7731e+02	2.2675	0.809446	0.000609	6.086702	1.031115	-0.000061
1784	1.7741e+02	2.2582	0.809446	-0.000000	-0.000000	-0.000000	0.000000
1785	1.7751e+02	2.2482	0.756963	0.000528	5.275142	0.893633	-0.000053
1786	1.7761e+02	2.2379	0.672183	0.000852	8.521383	1.443561	-0.000085
1787	1.7771e+02	2.2287	0.619700	0.000528	5.275142	0.893633	-0.000053
1788	1.7781e+02	2.2173	0.591440	0.000284	2.840461	0.481187	-0.000028
1789	1.7791e+02	2.2088	0.547032	0.000446	4.463581	0.756151	-0.000045
1790	1.7801e+02	2.1983	0.474363	0.000730	7.304042	1.237338	-0.000073
1791	1.7810e+02	2.1890	0.421881	0.000528	5.275142	0.893633	-0.000053
1792	1.7820e+02	2.1786	0.357287	0.000649	6.492482	1.099856	-0.000065
1793	1.7830e+02	2.1686	0.296729	0.000609	6.086702	1.031115	-0.000061
1794	1.7840e+02	2.1574	0.268470	0.000284	2.840461	0.481187	-0.000028
1795	1.7850e+02	2.1494	0.207912	0.000609	6.086702	1.031115	-0.000061
1796	1.7860e+02	2.1389	0.183690	0.000243	2.434681	0.412446	-0.000024
1797	1.7870e+02	2.1284	0.123133	0.000609	6.086702	1.031115	-0.000061
1798	1.7880e+02	2.1183	0.066613	0.000568	5.680922	0.962374	-0.000057
1799	1.7890e+02	2.1088	0.018167	0.000487	4.869362	0.824892	-0.000049
1800	1.7900e+02	2.0986	-0.030279	0.000487	4.869362	0.824892	-0.000049
1801	1.7910e+02	2.0882	-0.070650	0.000406	4.057801	0.687410	-0.000041
1802	1.7920e+02	2.0788	-0.175615	0.001055	10.550283	1.787266	-0.000105
1803	1.7930e+02	2.0689	-0.159467	-0.000162	-1.623121	-0.274964	0.000016
1804	1.7940e+02	2.0586	-0.248284	0.000893	8.927163	1.512302	-0.000089
1805	1.7950e+02	2.0485	-0.288655	0.000406	4.057801	0.687410	-0.000041
1806	1.7960e+02	2.0398	-0.341138	0.000528	5.275142	0.893633	-0.000053
1807	1.7970e+02	2.0292	-0.409769	0.000690	6.898262	1.168597	-0.000069
1808	1.7980e+02	2.0192	-0.442066	0.000325	3.246241	0.549928	-0.000032
1809	1.7990e+02	2.0098	-0.486475	0.000446	4.463581	0.756151	-0.000045
1810	1.8000e+02	1.9991	-0.559143	0.000730	7.304042	1.237338	-0.000073
1811	1.8009e+02	1.9887	-0.607589	0.000487	4.869362	0.824892	-0.000049
1812	1.8019e+02	1.9796	-0.647960	0.000406	4.057801	0.687410	-0.000041
1813	1.8029e+02	1.9697	-0.761000	0.001136	11.361844	1.924748	-0.000114
1814	1.8039e+02	1.9597	-0.748889	-0.000122	-1.217340	-0.206223	0.000012
1815	1.8049e+02	1.9491	-0.821557	0.000730	7.304042	1.237338	-0.000073
1816	1.8059e+02	1.9395	-0.857891	0.000365	3.652021	0.618669	-0.000037
1817	1.8069e+02	1.9299	-0.942671	0.000852	8.521383	1.443561	-0.000085
1818	1.8079e+02	1.9196	-0.966894	0.000243	2.434681	0.412446	-0.000024
1819	1.8089e+02	1.9096	-1.047637	0.000812	8.115603	1.374820	-0.000081
1820	1.8099e+02	1.8998	-1.096082	0.000487	4.869362	0.824892	-0.000049
1821	1.8109e+02	1.8901	-1.152602	0.000568	5.680922	0.962374	-0.000057
1822	1.8119e+02	1.8798	-1.225271	0.000730	7.304042	1.237338	-0.000073
1823	1.8129e+02	1.8695	-1.217196	-0.000081	-0.811560	-0.137482	0.000008
1824	1.8139e+02	1.8597	-1.265642	0.000487	4.869362	0.824892	-0.000049
1825	1.8149e+02	1.8499	-1.346385	0.000812	8.115603	1.374820	-0.000081
1826	1.8159e+02	1.8407	-1.398868	0.000528	5.275142	0.893633	-0.000053
1827	1.8169e+02	1.8306	-1.475573	0.000771	7.709822	1.306079	-0.000077
1828	1.8179e+02	1.8202	-1.507870	0.000325	3.246241	0.549928	-0.000032
1829	1.8189e+02	1.8107	-1.560353	0.000528	5.275142	0.893633	-0.000053
1830	1.8199e+02	1.7995	-1.568427	0.000081	0.811560	0.137482	-0.000008
1831	1.8209e+02	1.7908	-1.661281	0.000933	9.332943	1.581043	-0.000093
1832	1.8218e+02	1.7803	-1.766247	0.001055	10.550283	1.787266	-0.000105
1833	1.8228e+02	1.7697	-1.794507	0.000284	2.840461	0.481187	-0.000028
1834	1.8238e+02	1.7608	-1.790470	-0.000041	-0.405780	-0.068741	0.000004
1835	1.8248e+02	1.7505	-1.887361	0.000974	9.738723	1.649784	-0.000097
1836	1.8258e+02	1.7407	-1.951955	0.000649	6.492482	1.099856	-0.000065
1837	1.8268e+02	1.7305	-1.988289	0.000365	3.652021	0.618669	-0.000037
1838	1.8278e+02	1.7204	-2.000401	0.000122	1.217340	0.206223	-0.000012
1839	1.8288e+02	1.7113	-2.093255	0.000933	9.332943	1.581043	-0.000093
1840	1.8298e+02	1.7004	-2.105366	0.000122	1.217340	0.206223	-0.000012
1841	1.8308e+02	1.6906	-2.182072	0.000771	7.709822	1.306079	-0.000077
1842	1.8318e+02	1.6813	-2.266852	0.000852	8.521383	1.443561	-0.000085
1843	1.8328e+02	1.6707	-2.315297	0.000487	4.869362	0.824892	-0.000049
1844	1.8338e+02	1.6610	-2.343557	0.000284	2.840461	0.481187	-0.000028
1845	1.8348e+02	1.6502	-2.375854	0.000325	3.246241	0.549928	-0.000032
1846	1.8358e+02	1.6412	-2.436411	0.000609	6.086702	1.031115	-0.000061
1847	1.8368e+02	1.6313	-2.464671	0.000284	2.840461	0.481187	-0.000028
1848	1.8378e+02	1.6206	-2.561563	0.000974	9.738723	1.649784	-0.000097
1849	1.8388e+02	1.6109	-2.610008	0.000487	4.869362	0.824892	-0.000049
1850	1.8398e+02	1.6016	-2.666528	0.000568	5.680922	0.962374	-0.000057
1851	1.8407e+02	1.5915	-2.690751	0.000243	2.434681	0.412446	-0.000024
1852	1.8417e+02	1.5813	-2.735159	0.000446	4.463581	0.756151	-0.000045
1853	1.8427e+02	1.5707	-2.819939	0.000852	8.521383	1.443561	-0.000085
1854	1.8437e+02	1.5615	-2.884533	0.000649	6.492482	1.099856	-0.000065
1855	1.8447e+02	1.5508	-2.888571	0.000041	0.405780	0.068741	-0.000004
1856	1.8457e+02	1.5411	-2.981425	0.000933	9.332943	1.581043	-0.000093
1857	1.8467e+02	1.5320	-3.017759	0.000365	3.652021	0.618669	-0.000037
1858	1.8477e+02	1.5210	-3.041982	0.000243	2.434681	0.412446	-0.000024
1859	1.8487e+02	1.5122	-3.130799	0.000893	8.927163	1.512302	-0.000089
1860	1.8497e+02	1.5032	-3.175207	0.000446	4.463581	0.756151	-0.000045
1861	1.8507e+02	1.4925	-3.231727	0.000568	5.680922	0.962374	-0.000057
1862	1.8517e+02	1.4807	-3.251913	0.000203	2.028901	0.343705	-0.000020
1863	1.8527e+02	1.4713	-3.300358	0.000487	4.869362	0.824892	-0.000049
1864	1.8537e+02	1.4623	-3.441658	0.001420	14.202304	2.405936	-0.000142
1865	1.8547e+02	1.4523	-3.421473	-0.000203	-2.028901	-0.343705	0.000020
1866	1.8557e+02	1.4415	-3.490104	0.000690	6.898262	1.168597	-0.000069
1867	1.8567e+02	1.4312	-3.522401	0.000325	3.246241	0.549928	-0.000032
1868	1.8577e+02	1.4216	-3.659664	0.001380	13.796524	2.337194	-0.000138
1869	1.8587e+02	1.4114	-3.667738	0.000081	0.811560	0.137482	-0.000008
1870	1.8597e+02	1.4014	-3.756555	0.000893	8.927163	1.512302	-0.000089
1871	1.8606e+02	1.3927	-3.792889	0.000365	3.652021	0.618669	-0.000037
1872	1.8616e+02	1.3819	-3.825186	0.000325	3.246241	0.549928	-0.000032
1873	1.8626e+02	1.3715	-3.893817	0.000690	6.898262	1.168597	-0.000069
1874	1.8636e+02	1.3625	-3.914003	0.000203	2.028901	0.343705	-0.000020
1875	1.8646e+02	1.3518	-3.986672	0.000730	7.304042	1.237338	-0.000073
1876	1.8656e+02	1.3433	-4.043191	0.000568	5.680922	0.962374	-0.000057
1877	1.8666e+02	1.3333	-4.051266	0.000081	0.811560	0.137482	-0.000008
1878	1.8676e+02	1.3220	-4.140083	0.000893	8.927163	1.512302	-0.000089
1879	1.8686e+02	1.3124	-4.204677	0.000649	6.492482	1.099856	-0.000065
1880	1.8696e+02	1.3031	-4.269271	0.000649	6.492482	1.099856	-0.000065
1881	1.8706e+02	1.2923	-4.321754	0.000528	5.275142	0.893633	-0.000053
1882	1.8716e+02	1.2820	-4.341939	0.000203	2.028901	0.343705	-0.000020
1883	1.8726e+02	1.2719	-4.422682	0.000812	8.115603	1.374820	-0.000081
1884	1.8736e+02	1.2630	-4.479202	0.000568	5.680922	0.962374	-0.000057
1885	1.8746e+02	1.2539	-4.547833	0.000690	6.898262	1.168597	-0.000069
1886	1.8756e+02	1.2437	-4.608390	0.000609	6.086702	1.031115	-0.000061
1887	1.8766e+02	1.2329	-4.632613	0.000243	2.434681	0.412446	-0.000024
1888	1.8776e+02	1.2233	-4.681059	0.000487	4.869362	0.824892	-0.000049
1889	1.8786e+02	1.2128	-4.765839	0.000852	8.521383	1.443561	-0.000085
1890	1.8796e+02	1.2033	-4.830433	0.000649	6.492482	1.099856	-0.000065
1891	1.8806e+02	1.1935	-4.830433	-0.000000	-0.000000	-0.000000	0.000000
1892	1.8815e+02	1.1843	-4.951547	0.001217	12.173404	2.062230	-0.000122
1893	1.8825e+02	1.1724	-4.963658	0.000122	1.217340	0.206223	-0.000012
1894	1.8835e+02	1.1639	-5.032290	0.000690	6.898262	1.168597	-0.000069
1895	1.8845e+02	1.1536	-5.088810	0.000568	5.680922	0.962374	-0.000057
1896	1.8855e+02	1.1439	-5.165515	0.000771	7.709822	1.306079	-0.000077
1897	1.8865e+02	1.1340	-5.193775	0.000284	2.840461	0.481187	-0.000028
1898	1.8875e+02	1.1235	-5.230109	0.000365	3.652021	0.618669	-0.000037
1899	1.8885e+02	1.1143	-5.327001	0.000974	9.738723	1.649784	-0.000097
1900	1.8895e+02	1.1030	-5.367372	0.000406	4.057801	0.687410	-0.000041
1901	1.8905e+02	1.0951	-5.419855	0.000528	5.275142	0.893633	-0.000053
1902	1.8915e+02	1.0843	-5.492523	0.000730	7.304042	1.237338	-0.000073
1903	1.8925e+02	1.0745	-5.500597	0.000081	0.811560	0.137482	-0.000008
1904	1.8935e+02	1.0650	-5.569229	0.000690	6.898262	1.168597	-0.000069
1905	1.8945e+02	1.0547	-5.597489	0.000284	2.840461	0.481187	-0.000028
1906	1.8955e+02	1.0448	-5.674194	0.000771	7.709822	1.306079	-0.000077
1907	1.8965e+02	1.0343	-5.767048	0.000933	9.332943	1.581043	-0.000093
1908	1.8975e+02	1.0247	-5.815494	0.000487	4.869362	0.824892	-0.000049
1909	1.8985e+02	1.0142	-5.876051	0.000609	6.086702	1.031115	-0.000061
1910	1.8995e+02	1.0046	-5.924497	0.000487	4.869362	0.824892	-0.000049
1911	1.9004e+02	0.9945	-5.989091	0.000649	6.492482	1.099856	-0.000065
1912	1.9014e+02	0.9846	-6.033499	0.000446	4.463581	0.756151	-0.000045
1913	1.9024e+02	0.9748	-6.073871	0.000406	4.057801	0.687410	-0.000041
1914	1.9034e+02	0.9647	-6.142502	0.000690	6.898262	1.168597	-0.000069
1915	1.9044e+02	0.9547	-6.199022	0.000568	5.680922	0.962374	-0.000057
1916	1.9054e+02	0.9441	-6.283802	0.000852	8.521383	1.443561	-0.000085
1917	1.9064e+02	0.9357	-6.332247	0.000487	4.869362	0.824892	-0.000049
1918	1.9074e+02	0.9245	-6.356470	0.000243	2.434681	0.412446	-0.000024
1919	1.9084e+02	0.9156	-6.437213	0.000812	8.115603	1.374820	-0.000081
1920	1.9094e+02	0.9043	-6.521993	0.000852	8.521383	1.443561	-0.000085
1921	1.9104e+02	0.8952	-6.590624	0.000690	6.898262	1.168597	-0.000069
1922	1.9114e+02	0.8858	-6.630995	0.000406	4.057801	0.687410	-0.000041
1923	1.9124e+02	0.8759	-6.659255	0.000284	2.840461	0.481187	-0.000028
1924	1.9134e+02	0.8646	-6.719812	0.000609	6.086702	1.031115	-0.000061
1925	1.9144e+02	0.8547	-6.772295	0.000528	5.275142	0.893633	-0.000053
1926	1.9154e+02	0.8455	-6.828815	0.000568	5.680922	0.962374	-0.000057
1927	1.9164e+02	0.8354	-6.909558	0.000812	8.115603	1.374820	-0.000081
1928	1.9174e+02	0.8253	-6.982226	0.000730	7.304042	1.237338	-0.000073
1929	1.9184e+02	0.8163	-7.030672	0.000487	4.869362	0.824892	-0.000049
1930	1.9194e+02	0.8054	-7.103340	0.000730	7.304042	1.237338	-0.000073
1931	1.9203e+02	0.7958	-7.151786	0.000487	4.869362	0.824892	-0.000049
1932	1.9213e+02	0.7856	-7.228492	0.000771	7.709822	1.306079	-0.000077
1933	1.9223e+02	0.7749	-7.280974	0.000528	5.275142	0.893633	-0.000053
1934	1.9233e+02	0.7655	-7.333457	0.000528	5.275142	0.893633	-0.000053
1935	1.9243e+02	0.7554	-7.373828	0.000406	4.057801	0.687410	-0.000041
1936	1.9253e+02	0.7459	-7.458608	0.000852	8.521383	1.443561	-0.000085
1937	1.9263e+02	0.7355	-7.547425	0.000893	8.927163	1.512302	-0.000089
1938	1.9273e+02	0.7261	-7.587797	0.000406	4.057801	0.687410	-0.000041
1939	1.9283e+02	0.7163	-7.636242	0.000487	4.869362	0.824892	-0.000049
1940	1.9293e+02	0.7059	-7.700836	0.000649	6.492482	1.099856	-0.000065
1941	1.9303e+02	0.6960	-7.745245	0.000446	4.463581	0.756151	-0.000045
1942	1.9313e+02	0.6860	-7.838099	0.000933	9.332943	1.581043	-0.000093
1943	1.9323e+02	0.6761	-7.842136	0.000041	0.405780	0.068741	-0.000004
1944	1.9333e+02	0.6668	-7.918842	0.000771	7.709822	1.306079	-0.000077
1945	1.9343e+02	0.6561	-7.991510	0.000730	7.304042	1.237338	-0.000073
1946	1.9353e+02	0.6465	-8.080327	0.000893	8.927163	1.512302	-0.000089
1947	1.9363e+02	0.6361	-8.112624	0.000325	3.246241	0.549928	-0.000032
1948	1.9373e+02	0.6264	-8.152996	0.000406	4.057801	0.687410	-0.000041
1949	1.9383e+02	0.6157	-8.229701	0.000771	7.709822	1.306079	-0.000077
1950	1.9393e+02	0.6068	-8.310444	0.000812	8.115603	1.374820	-0.000081
1951	1.9403e+02	0.5966	-8.310444	-0.000000	-0.000000	-0.000000	0.000000
1952	1.9412e+02	0.5858	-8.403298	0.000933	9.332943	1.581043	-0.000093
1953	1.9422e+02	0.5766	-8.463855	0.000609	6.086702	1.031115	-0.000061
1954	1.9432e+02	0.5673	-8.512301	0.000487	4.869362	0.824892	-0.000049
1955	1.9442e+02	0.5566	-8.576895	0.000649	6.492482	1.099856	-0.000065
1956	1.9452e+02	0.5475	-8.673786	0.000974	9.738723	1.649784	-0.000097
1957	1.9462e+02	0.5367	-8.742417	0.000690	6.898262	1.168597	-0.000069
1958	1.9472e+02	0.5258	-8.770677	0.000284	2.840461	0.481187	-0.000028
1959	1.9482e+02	0.5169	-8.811049	0.000406	4.057801	0.687410	-0.000041
1960	1.9492e+02	0.5078	-8.907940	0.000974	9.738723	1.649784	-0.000097
1961	1.9502e+02	0.4964	-8.964460	0.000568	5.680922	0.962374	-0.000057
1962	1.9512e+02	0.4871	-8.996757	0.000325	3.246241	0.549928	-0.000032
1963	1.9522e+02	0.4772	-9.061351	0.000649	6.492482	1.099856	-0.000065
1964	1.9532e+02	0.4678	-9.154205	0.000933	9.332943	1.581043	-0.000093
1965	1.9542e+02	0.4572	-9.174391	0.000203	2.028901	0.343705	-0.000020
1966	1.9552e+02	0.4474	-9.271282	0.000974	9.738723	1.649784	-0.000097
1967	1.9562e+02	0.4374	-9.331839	0.000609	6.086702	1.031115	-0.000061
1968	1.9572e+02	0.4270	-9.384322	0.000528	5.275142	0.893633	-0.000053
1969	1.9582e+02	0.4155	-9.408545	0.000243	2.434681	0.412446	-0.000024
1970	1.9592e+02	0.4070	-9.485250	0.000771	7.709822	1.306079	-0.000077
1971	1.9601e+02	0.3973	-9.545807	0.000609	6.086702	1.031115	-0.000061
1972	1.9611e+02	0.3876	-9.614439	0.000690	6.898262	1.168597	-0.000069
1973	1.9621e+02	0.3773	-9.679033	0.000649	6.492482	1.099856	-0.000065
1974	1.9631e+02	0.3674	-9.739590	0.000609	6.086702	1.031115	-0.000061
1975	1.9641e+02	0.3575	-9.763813	0.000243	2.434681	0.412446	-0.000024
1976	1.9651e+02	0.3473	-9.836481	0.000730	7.304042	1.237338	-0.000073
1977	1.9661e+02	0.3378	-9.937410	0.001014	10.144503	1.718525	-0.000101
1978	1.9671e+02	0.3274	-9.981818	0.000446	4.463581	0.756151	-0.000045
1979	1.9681e+02	0.3176	-10.026227	0.000446	4.463581	0.756151	-0.000045
1980	1.9691e+02	0.3075	-10.131192	0.001055	10.550283	1.787266	-0.000105
1981	1.9701e+02	0.2980	-10.187712	0.000568	5.680922	0.962374	-0.000057
1982	1.9711e+02	0.2882	-10.215972	0.000284	2.840461	0.481187	-0.000028
1983	1.9721e+02	0.2783	-10.292678	0.000771	7.709822	1.306079	-0.000077
1984	1.9731e+02	0.2683	-10.353235	0.000609	6.086702	1.031115	-0.000061
1985	1.9741e+02	0.2583	-10.438014	0.000852	8.521383	1.443561	-0.000085
1986	1.9751e+02	0.2477	-10.478386	0.000406	4.057801	0.687410	-0.000041
1987	1.9761e+02	0.2382	-10.551054	0.000730	7.304042	1.237338	-0.000073
1988	1.9771e+02	0.2279	-10.619686	0.000690	6.898262	1.168597	-0.000069
1989	1.9781e+02	0.2187	-10.660057	0.000406	4.057801	0.687410	-0.000041
1990	1.9791e+02	0.2087	-10.736762	0.000771	7.709822	1.306079	-0.000077
1991	1.9800e+02	0.1991	-10.752911	0.000162	1.623121	0.274964	-0.000016
1992	1.9810e+02	0.1883	-10.853839	0.001014	10.144503	1.718525	-0.000101
1993	1.9820e+02	0.1779	-10.914396	0.000609	6.086702	1.031115	-0.000061
1994	1.9830e+02	0.1685	-10.999176	0.000852	8.521383	1.443561	-0.000085
1995	1.9840e+02	0.1582	-10.999176	-0.000000	-0.000000	-0.000000	0.000000
1996	1.9850e+02	0.1490	-11.124328	0.001258	12.579184	2.130971	-0.000126
1997	1.9860e+02	0.1391	-11.192959	0.000690	6.898262	1.168597	-0.000069
1998	1.9870e+02	0.1284	-11.233330	0.000406	4.057801	0.687410	-0.000041
1999	1.9880e+02	0.1192	-11.281776	0.000487	4.869362	0.824892	-0.000049
2000	1.9890e+02	0.1079	-11.330221	0.000487	4.869362	0.824892	-0.000049
2001	1.9900e+02	0.0998	-11.398853	0.000690	6.898262	1.168597	-0.000069
2002	1.9910e+02	0.0887	-11.471521	0.000730	7.304042	1.237338	-0.000073
2003	1.9920e+02	0.0784	-11.515930	0.000446	4.463581	0.756151	-0.000045
2004	1.9930e+02	0.0688	-11.572450	0.000568	5.680922	0.962374	-0.000057
2005	1.9940e+02	0.0597	-11.637044	0.000649	6.492482	1.099856	-0.000065
2006	1.9950e+02	0.0484	-11.721824	0.000852	8.521383	1.443561	-0.000085
2007	1.9960e+02	0.0391	-11.746046	0.000243	2.434681	0.412446	-0.000024
2008	1.9970e+02	0.0286	-11.814678	0.000690	6.898262	1.168597	-0.000069
2009	1.9980e+02	0.0183	-11.851012	0.000365	3.652021	0.618669	-0.000037
2010	1.9990e+02	0.0092	-11.923680	0.000730	7.304042	1.237338	-0.000073
2011	2.0000e+02	-0.0005	-11.980200	0.000730	7.304042	1.237338	-0.000057

PMax (uC/cm2):	4.94e+01
Pr (uC/cm2):	1.31e+01
-Pr (uC/cm2):	0.00e+00
PLoss (uC/cm2):	0.00e+00
C (Max-Eff) (nF):	4.94e-01
K (Eff):	8.36e+02
Vert. (+/-Pr) Shift (uC/cm2):	6.55e+00
Offset (uC/cm2):	2.51e+01

A (Loop Area - uC/cm2·Volts):	-9.83e-02



Hysteresis Version: 5.48.1 - Radiant Technologies, Inc., 1999 - 9/12/24

