»»»»»»»»»»»»»»»»»»»»»»»»»»»»»»»»»»»» Hysteresis ««««««««««««««««««««««««««««««««««««
»»»  Executed Version:	5.48.1
»»»  Vision Version:	5.48.4 (R)
»»»  Vision Compiled:	9/18/24
»»»  Driver Version:	5.47.0
»»»  Windows Version:	Windows 8 or 8.1
»»»  Processor Information:	x86 (AMD or Intel) - 32 Processors
»»»  Tester Name:	PMF21124-494 (100V)
»»»  Tester S/N:	PMF21124-494
»»»  Internal Amp Type:	100V RevK 270k
»»»  Internal Amp S/N:	iAB2-596/K     
»»»  Execution Count:	1
»»»»»»»»»»»»»»»»»»»»»»»»»»»»»»»»»»»»»»»»»»««««««««««««««««««««««««««««««««««««««««««

Stored:	6/26/2025 - 13:0:33
Configured:	06/26/25 10:24:47 AM
Executed:	06/26/25 12:59:50 PM

»»»»»»»»»»»»»»»»»»»»»»»»»»»»»»»»»»» Sample Info ««««««««««««««««««««««««««««««««««««
Sample Name:	
Lot Name:	
Wafer Name:	
Die Row/Column:	0/0
Capacitor Number:	0
Sample Area (cm2):	1.00e-04
Sample Thickness (microns):	1.50e-01

Amplifier:	Internal

»»»»»»»»»»»»»»»»»»»»»»»»»»»»»»»»»»» Tester Info «««««««««««««««««««««««««««««««««««
Tester Name:	PMF21124-494 (100V)
Tester Serial Number:	PMF21124-494
Return Signal Amp. Level:	1.9 [Index: 2]

»»»»»»»»»»»»»»»»»»»»»»»»»»»»»»»» Hysteresis Info ««««««««««««««««««««««««««««««««««
Task Name:	Hyst-562
Volts:	10.00
Field:	666.67 (kV/cm)
DCBias:	0.00
DCField:	0.00 (kV/cm)
Hysteresis Period (ms):	2.00e+02
Preset:	Enabled
Preset Delay (ms):	1.00e+03
Profile:	Standard Monopolar

»»»»»»»»»»»»»»»»»»»»»»»»»»»»»»»»»»»»»» Data «««««««««««««««««««««««««««««««««««««««
Points:	2011

Valid Data

Point	Time (ms)	Drive Voltage	Measured Polarization (uC/cm2)	Capacitance (uF)	Normalized Capacitance (uF/cm2)	Dielectric Constant	Instantaneous Current (mA)
   1	0.0000e+00	-0.0035	-11.720264	0.000176	1.760620	0.298257	0.000018
   2	9.9500e-02	0.0069	-11.702748	0.000176	1.760620	0.298257	0.000018
   3	1.9900e-01	0.0174	-11.680751	0.000221	2.211011	0.374555	0.000022
   4	2.9850e-01	0.0220	-11.659977	0.000209	2.088177	0.353747	0.000021
   5	3.9800e-01	0.0353	-11.637166	0.000229	2.292900	0.388428	0.000023
   6	4.9750e-01	0.0475	-11.615577	0.000217	2.170066	0.367619	0.000022
   7	5.9700e-01	0.0572	-11.594395	0.000213	2.129121	0.360683	0.000021
   8	6.9650e-01	0.0642	-11.575250	0.000192	1.924398	0.326002	0.000019
   9	7.9600e-01	0.0758	-11.549180	0.000262	2.620457	0.443917	0.000026
  10	8.9550e-01	0.0835	-11.527998	0.000213	2.129121	0.360683	0.000021
  11	9.9500e-01	0.0956	-11.505594	0.000225	2.251955	0.381492	0.000023
  12	1.0945e+00	0.1022	-11.486449	0.000192	1.924398	0.326002	0.000019
  13	1.1940e+00	0.1147	-11.459564	0.000270	2.702346	0.457790	0.000027
  14	1.2935e+00	0.1234	-11.443678	0.000160	1.596841	0.270512	0.000016
  15	1.3930e+00	0.1363	-11.420052	0.000237	2.374789	0.402300	0.000024
  16	1.4925e+00	0.1455	-11.398056	0.000221	2.211011	0.374555	0.000022
  17	1.5920e+00	0.1549	-11.372800	0.000254	2.538568	0.430045	0.000025
  18	1.6915e+00	0.1641	-11.350397	0.000225	2.251955	0.381492	0.000023
  19	1.7910e+00	0.1738	-11.330029	0.000205	2.047232	0.346811	0.000020
  20	1.8905e+00	0.1879	-11.310477	0.000197	1.965343	0.332938	0.000020
  21	1.9900e+00	0.1947	-11.288888	0.000217	2.170066	0.367619	0.000022
  22	2.0895e+00	0.2043	-11.264447	0.000246	2.456679	0.416173	0.000025
  23	2.1890e+00	0.2168	-11.243673	0.000209	2.088177	0.353747	0.000021
  24	2.2885e+00	0.2261	-11.218825	0.000250	2.497623	0.423109	0.000025
  25	2.3880e+00	0.2331	-11.199680	0.000192	1.924398	0.326002	0.000019
  26	2.4875e+00	0.2451	-11.176869	0.000229	2.292900	0.388428	0.000023
  27	2.5870e+00	0.2528	-11.155687	0.000213	2.129121	0.360683	0.000021
  28	2.6865e+00	0.2608	-11.132876	0.000229	2.292900	0.388428	0.000023
  29	2.7860e+00	0.2724	-11.113731	0.000192	1.924398	0.326002	0.000019
  30	2.8855e+00	0.2846	-11.094993	0.000188	1.883454	0.319066	0.000019
  31	2.9850e+00	0.2890	-11.073811	0.000213	2.129121	0.360683	0.000021
  32	3.0845e+00	0.3038	-11.048963	0.000250	2.497623	0.423109	0.000025
  33	3.1840e+00	0.3142	-11.033484	0.000156	1.555896	0.263576	0.000016
  34	3.2835e+00	0.3225	-11.010673	0.000229	2.292900	0.388428	0.000023
  35	3.3830e+00	0.3350	-10.994786	0.000160	1.596841	0.270512	0.000016
  36	3.4825e+00	0.3454	-10.970346	0.000246	2.456679	0.416173	0.000025
  37	3.5820e+00	0.3549	-10.950793	0.000197	1.965343	0.332938	0.000020
  38	3.6815e+00	0.3614	-10.931241	0.000197	1.965343	0.332938	0.000020
  39	3.7810e+00	0.3764	-10.910874	0.000205	2.047232	0.346811	0.000020
  40	3.8805e+00	0.3864	-10.887248	0.000237	2.374789	0.402300	0.000024
  41	3.9800e+00	0.3956	-10.870954	0.000164	1.637786	0.277448	0.000016
  42	4.0795e+00	0.4051	-10.850995	0.000201	2.006287	0.339874	0.000020
  43	4.1790e+00	0.4134	-10.830220	0.000209	2.088177	0.353747	0.000021
  44	4.2785e+00	0.4227	-10.807002	0.000233	2.333845	0.395364	0.000023
  45	4.3780e+00	0.4333	-10.789486	0.000176	1.760620	0.298257	0.000018
  46	4.4775e+00	0.4414	-10.768711	0.000209	2.088177	0.353747	0.000021
  47	4.5770e+00	0.4540	-10.746715	0.000221	2.211011	0.374555	0.000022
  48	4.6765e+00	0.4642	-10.723089	0.000237	2.374789	0.402300	0.000024
  49	4.7760e+00	0.4736	-10.702722	0.000205	2.047232	0.346811	0.000020
  50	4.8755e+00	0.4839	-10.678281	0.000246	2.456679	0.416173	0.000025
  51	4.9750e+00	0.4932	-10.658729	0.000197	1.965343	0.332938	0.000020
  52	5.0745e+00	0.5036	-10.634288	0.000246	2.456679	0.416173	0.000025
  53	5.1740e+00	0.5138	-10.614736	0.000197	1.965343	0.332938	0.000020
  54	5.2735e+00	0.5239	-10.591110	0.000237	2.374789	0.402300	0.000024
  55	5.3730e+00	0.5341	-10.567891	0.000233	2.333845	0.395364	0.000023
  56	5.4725e+00	0.5438	-10.548746	0.000192	1.924398	0.326002	0.000019
  57	5.5720e+00	0.5545	-10.526750	0.000221	2.211011	0.374555	0.000022
  58	5.6715e+00	0.5635	-10.503939	0.000229	2.292900	0.388428	0.000023
  59	5.7710e+00	0.5734	-10.478276	0.000258	2.579512	0.436981	0.000026
  60	5.8705e+00	0.5841	-10.456687	0.000217	2.170066	0.367619	0.000022
  61	5.9700e+00	0.5955	-10.434690	0.000221	2.211011	0.374555	0.000022
  62	6.0695e+00	0.6016	-10.411065	0.000237	2.374789	0.402300	0.000024
  63	6.1690e+00	0.6126	-10.388661	0.000225	2.251955	0.381492	0.000023
  64	6.2685e+00	0.6217	-10.367886	0.000209	2.088177	0.353747	0.000021
  65	6.3680e+00	0.6330	-10.345890	0.000221	2.211011	0.374555	0.000022
  66	6.4675e+00	0.6422	-10.326337	0.000197	1.965343	0.332938	0.000020
  67	6.5670e+00	0.6532	-10.307192	0.000192	1.924398	0.326002	0.000019
  68	6.6665e+00	0.6606	-10.286010	0.000213	2.129121	0.360683	0.000021
  69	6.7660e+00	0.6724	-10.261977	0.000242	2.415734	0.409236	0.000024
  70	6.8655e+00	0.6828	-10.240795	0.000213	2.129121	0.360683	0.000021
  71	6.9650e+00	0.6910	-10.219206	0.000217	2.170066	0.367619	0.000022
  72	7.0645e+00	0.7015	-10.197617	0.000217	2.170066	0.367619	0.000022
  73	7.1640e+00	0.7121	-10.171140	0.000266	2.661402	0.450854	0.000027
  74	7.2635e+00	0.7227	-10.155253	0.000160	1.596841	0.270512	0.000016
  75	7.3630e+00	0.7320	-10.131628	0.000237	2.374789	0.402300	0.000024
  76	7.4625e+00	0.7412	-10.108816	0.000229	2.292900	0.388428	0.000023
  77	7.5620e+00	0.7499	-10.091301	0.000176	1.760620	0.298257	0.000018
  78	7.6615e+00	0.7615	-10.070119	0.000213	2.129121	0.360683	0.000021
  79	7.7610e+00	0.7727	-10.045271	0.000250	2.497623	0.423109	0.000025
  80	7.8605e+00	0.7801	-10.022460	0.000229	2.292900	0.388428	0.000023
  81	7.9600e+00	0.7915	-10.003315	0.000192	1.924398	0.326002	0.000019
  82	8.0595e+00	0.8051	-9.979689	0.000237	2.374789	0.402300	0.000024
  83	8.1590e+00	0.8115	-9.958507	0.000213	2.129121	0.360683	0.000021
  84	8.2585e+00	0.8224	-9.936918	0.000217	2.170066	0.367619	0.000022
  85	8.3580e+00	0.8311	-9.909626	0.000274	2.743291	0.464726	0.000027
  86	8.4575e+00	0.8426	-9.888037	0.000217	2.170066	0.367619	0.000022
  87	8.5570e+00	0.8492	-9.864411	0.000237	2.374789	0.402300	0.000024
  88	8.6565e+00	0.8603	-9.837119	0.000274	2.743291	0.464726	0.000027
  89	8.7560e+00	0.8712	-9.818381	0.000188	1.883454	0.319066	0.000019
  90	8.8555e+00	0.8829	-9.795163	0.000233	2.333845	0.395364	0.000023
  91	8.9550e+00	0.8916	-9.771129	0.000242	2.415734	0.409236	0.000024
  92	9.0545e+00	0.9011	-9.745060	0.000262	2.620457	0.443917	0.000026
  93	9.1540e+00	0.9129	-9.720212	0.000250	2.497623	0.423109	0.000025
  94	9.2535e+00	0.9229	-9.692105	0.000283	2.825180	0.478599	0.000028
  95	9.3530e+00	0.9296	-9.670516	0.000217	2.170066	0.367619	0.000022
  96	9.4525e+00	0.9425	-9.648112	0.000225	2.251955	0.381492	0.000023
  97	9.5520e+00	0.9497	-9.623671	0.000246	2.456679	0.416173	0.000025
  98	9.6515e+00	0.9611	-9.600453	0.000233	2.333845	0.395364	0.000023
  99	9.7510e+00	0.9726	-9.575198	0.000254	2.538568	0.430045	0.000025
 100	9.8505e+00	0.9798	-9.551979	0.000233	2.333845	0.395364	0.000023
 101	9.9500e+00	0.9903	-9.524687	0.000274	2.743291	0.464726	0.000027
 102	1.0050e+01	1.0011	-9.506357	0.000184	1.842509	0.312129	0.000018
 103	1.0149e+01	1.0114	-9.480694	0.000258	2.579512	0.436981	0.000026
 104	1.0248e+01	1.0195	-9.455846	0.000250	2.497623	0.423109	0.000025
 105	1.0348e+01	1.0303	-9.434665	0.000213	2.129121	0.360683	0.000021
 106	1.0447e+01	1.0445	-9.406965	0.000278	2.784236	0.471662	0.000028
 107	1.0547e+01	1.0516	-9.382525	0.000246	2.456679	0.416173	0.000025
 108	1.0646e+01	1.0604	-9.360121	0.000225	2.251955	0.381492	0.000023
 109	1.0746e+01	1.0711	-9.333644	0.000266	2.661402	0.450854	0.000027
 110	1.0845e+01	1.0810	-9.311240	0.000225	2.251955	0.381492	0.000023
 111	1.0945e+01	1.0905	-9.286392	0.000250	2.497623	0.423109	0.000025
 112	1.1044e+01	1.0991	-9.263173	0.000233	2.333845	0.395364	0.000023
 113	1.1144e+01	1.1098	-9.235474	0.000278	2.784236	0.471662	0.000028
 114	1.1243e+01	1.1224	-9.206553	0.000291	2.907070	0.492471	0.000029
 115	1.1343e+01	1.1295	-9.178039	0.000287	2.866125	0.485535	0.000029
 116	1.1443e+01	1.1404	-9.154820	0.000233	2.333845	0.395364	0.000023
 117	1.1542e+01	1.1546	-9.129972	0.000250	2.497623	0.423109	0.000025
 118	1.1642e+01	1.1599	-9.101051	0.000291	2.907070	0.492471	0.000029
 119	1.1741e+01	1.1726	-9.077832	0.000233	2.333845	0.395364	0.000023
 120	1.1841e+01	1.1826	-9.050133	0.000278	2.784236	0.471662	0.000028
 121	1.1940e+01	1.1912	-9.023249	0.000270	2.702346	0.457790	0.000027
 122	1.2040e+01	1.2005	-9.000437	0.000229	2.292900	0.388428	0.000023
 123	1.2139e+01	1.2107	-8.973145	0.000274	2.743291	0.464726	0.000027
 124	1.2239e+01	1.2208	-8.945853	0.000274	2.743291	0.464726	0.000027
 125	1.2338e+01	1.2264	-8.921413	0.000246	2.456679	0.416173	0.000025
 126	1.2438e+01	1.2399	-8.894528	0.000270	2.702346	0.457790	0.000027
 127	1.2537e+01	1.2518	-8.866829	0.000278	2.784236	0.471662	0.000028
 128	1.2636e+01	1.2576	-8.840759	0.000262	2.620457	0.443917	0.000026
 129	1.2736e+01	1.2728	-8.815911	0.000250	2.497623	0.423109	0.000025
 130	1.2835e+01	1.2811	-8.793100	0.000229	2.292900	0.388428	0.000023
 131	1.2935e+01	1.2893	-8.766215	0.000270	2.702346	0.457790	0.000027
 132	1.3034e+01	1.2988	-8.740145	0.000262	2.620457	0.443917	0.000026
 133	1.3134e+01	1.3088	-8.716112	0.000242	2.415734	0.409236	0.000024
 134	1.3233e+01	1.3174	-8.690857	0.000254	2.538568	0.430045	0.000025
 135	1.3333e+01	1.3273	-8.663565	0.000274	2.743291	0.464726	0.000027
 136	1.3432e+01	1.3375	-8.642791	0.000209	2.088177	0.353747	0.000021
 137	1.3532e+01	1.3477	-8.616313	0.000266	2.661402	0.450854	0.000027
 138	1.3632e+01	1.3577	-8.592687	0.000237	2.374789	0.402300	0.000024
 139	1.3731e+01	1.3670	-8.564581	0.000283	2.825180	0.478599	0.000028
 140	1.3831e+01	1.3783	-8.545843	0.000188	1.883454	0.319066	0.000019
 141	1.3930e+01	1.3880	-8.515700	0.000303	3.029904	0.513280	0.000030
 142	1.4030e+01	1.4004	-8.495740	0.000201	2.006287	0.339874	0.000020
 143	1.4129e+01	1.4095	-8.469263	0.000266	2.661402	0.450854	0.000027
 144	1.4229e+01	1.4214	-8.450118	0.000192	1.924398	0.326002	0.000019
 145	1.4328e+01	1.4282	-8.425677	0.000246	2.456679	0.416173	0.000025
 146	1.4428e+01	1.4369	-8.399200	0.000266	2.661402	0.450854	0.000027
 147	1.4527e+01	1.4480	-8.375574	0.000237	2.374789	0.402300	0.000024
 148	1.4627e+01	1.4562	-8.347875	0.000278	2.784236	0.471662	0.000028
 149	1.4726e+01	1.4684	-8.324249	0.000237	2.374789	0.402300	0.000024
 150	1.4825e+01	1.4761	-8.297771	0.000266	2.661402	0.450854	0.000027
 151	1.4925e+01	1.4867	-8.269665	0.000283	2.825180	0.478599	0.000028
 152	1.5024e+01	1.4993	-8.246039	0.000237	2.374789	0.402300	0.000024
 153	1.5124e+01	1.5072	-8.220784	0.000254	2.538568	0.430045	0.000025
 154	1.5223e+01	1.5164	-8.196750	0.000242	2.415734	0.409236	0.000024
 155	1.5323e+01	1.5295	-8.169459	0.000274	2.743291	0.464726	0.000027
 156	1.5422e+01	1.5363	-8.145018	0.000246	2.456679	0.416173	0.000025
 157	1.5522e+01	1.5469	-8.123021	0.000221	2.211011	0.374555	0.000022
 158	1.5621e+01	1.5594	-8.094508	0.000287	2.866125	0.485535	0.000029
 159	1.5721e+01	1.5699	-8.069660	0.000250	2.497623	0.423109	0.000025
 160	1.5820e+01	1.5754	-8.044404	0.000254	2.538568	0.430045	0.000025
 161	1.5920e+01	1.5875	-8.017927	0.000266	2.661402	0.450854	0.000027
 162	1.6020e+01	1.5977	-7.992672	0.000254	2.538568	0.430045	0.000025
 163	1.6119e+01	1.6084	-7.967009	0.000258	2.579512	0.436981	0.000026
 164	1.6218e+01	1.6168	-7.940532	0.000266	2.661402	0.450854	0.000027
 165	1.6318e+01	1.6285	-7.922202	0.000184	1.842509	0.312129	0.000018
 166	1.6418e+01	1.6395	-7.896946	0.000254	2.538568	0.430045	0.000025
 167	1.6517e+01	1.6454	-7.866803	0.000303	3.029904	0.513280	0.000030
 168	1.6616e+01	1.6568	-7.843585	0.000233	2.333845	0.395364	0.000023
 169	1.6716e+01	1.6689	-7.822810	0.000209	2.088177	0.353747	0.000021
 170	1.6816e+01	1.6766	-7.799592	0.000233	2.333845	0.395364	0.000023
 171	1.6915e+01	1.6863	-7.778410	0.000213	2.129121	0.360683	0.000021
 172	1.7015e+01	1.7010	-7.753562	0.000250	2.497623	0.423109	0.000025
 173	1.7114e+01	1.7065	-7.728714	0.000250	2.497623	0.423109	0.000025
 174	1.7213e+01	1.7191	-7.706310	0.000225	2.251955	0.381492	0.000023
 175	1.7313e+01	1.7285	-7.683499	0.000229	2.292900	0.388428	0.000023
 176	1.7413e+01	1.7358	-7.658651	0.000250	2.497623	0.423109	0.000025
 177	1.7512e+01	1.7469	-7.635432	0.000233	2.333845	0.395364	0.000023
 178	1.7611e+01	1.7574	-7.612214	0.000233	2.333845	0.395364	0.000023
 179	1.7711e+01	1.7683	-7.591439	0.000209	2.088177	0.353747	0.000021
 180	1.7811e+01	1.7784	-7.565777	0.000258	2.579512	0.436981	0.000026
 181	1.7910e+01	1.7862	-7.543780	0.000221	2.211011	0.374555	0.000022
 182	1.8009e+01	1.7971	-7.520562	0.000233	2.333845	0.395364	0.000023
 183	1.8109e+01	1.8069	-7.502639	0.000180	1.801564	0.305193	0.000018
 184	1.8209e+01	1.8163	-7.476976	0.000258	2.579512	0.436981	0.000026
 185	1.8308e+01	1.8257	-7.454572	0.000225	2.251955	0.381492	0.000023
 186	1.8407e+01	1.8368	-7.428095	0.000266	2.661402	0.450854	0.000027
 187	1.8507e+01	1.8474	-7.407321	0.000209	2.088177	0.353747	0.000021
 188	1.8607e+01	1.8537	-7.385731	0.000217	2.170066	0.367619	0.000022
 189	1.8706e+01	1.8633	-7.360476	0.000254	2.538568	0.430045	0.000025
 190	1.8805e+01	1.8758	-7.340109	0.000205	2.047232	0.346811	0.000020
 191	1.8905e+01	1.8874	-7.318520	0.000217	2.170066	0.367619	0.000022
 192	1.9005e+01	1.8951	-7.295301	0.000233	2.333845	0.395364	0.000023
 193	1.9104e+01	1.9044	-7.270861	0.000246	2.456679	0.416173	0.000025
 194	1.9203e+01	1.9170	-7.250086	0.000209	2.088177	0.353747	0.000021
 195	1.9303e+01	1.9271	-7.228090	0.000221	2.211011	0.374555	0.000022
 196	1.9402e+01	1.9354	-7.204057	0.000242	2.415734	0.409236	0.000024
 197	1.9502e+01	1.9460	-7.182875	0.000213	2.129121	0.360683	0.000021
 198	1.9602e+01	1.9556	-7.163730	0.000192	1.924398	0.326002	0.000019
 199	1.9701e+01	1.9655	-7.146621	0.000172	1.719675	0.291321	0.000017
 200	1.9800e+01	1.9768	-7.122588	0.000242	2.415734	0.409236	0.000024
 201	1.9900e+01	1.9869	-7.101814	0.000209	2.088177	0.353747	0.000021
 202	2.0000e+01	1.9949	-7.083483	0.000184	1.842509	0.312129	0.000018
 203	2.0099e+01	2.0057	-7.057821	0.000258	2.579512	0.436981	0.000026
 204	2.0198e+01	2.0150	-7.039083	0.000188	1.883454	0.319066	0.000019
 205	2.0298e+01	2.0245	-7.017086	0.000221	2.211011	0.374555	0.000022
 206	2.0398e+01	2.0379	-6.998349	0.000188	1.883454	0.319066	0.000019
 207	2.0497e+01	2.0457	-6.975538	0.000229	2.292900	0.388428	0.000023
 208	2.0596e+01	2.0545	-6.955578	0.000201	2.006287	0.339874	0.000020
 209	2.0696e+01	2.0650	-6.937655	0.000180	1.801564	0.305193	0.000018
 210	2.0796e+01	2.0770	-6.915658	0.000221	2.211011	0.374555	0.000022
 211	2.0895e+01	2.0846	-6.892440	0.000233	2.333845	0.395364	0.000023
 212	2.0994e+01	2.0945	-6.876146	0.000164	1.637786	0.277448	0.000016
 213	2.1094e+01	2.1054	-6.853742	0.000225	2.251955	0.381492	0.000023
 214	2.1194e+01	2.1151	-6.830116	0.000237	2.374789	0.402300	0.000024
 215	2.1293e+01	2.1250	-6.810971	0.000192	1.924398	0.326002	0.000019
 216	2.1392e+01	2.1353	-6.789789	0.000213	2.129121	0.360683	0.000021
 217	2.1492e+01	2.1447	-6.762905	0.000270	2.702346	0.457790	0.000027
 218	2.1591e+01	2.1561	-6.745389	0.000176	1.760620	0.298257	0.000018
 219	2.1691e+01	2.1651	-6.720541	0.000250	2.497623	0.423109	0.000025
 220	2.1791e+01	2.1721	-6.698952	0.000217	2.170066	0.367619	0.000022
 221	2.1890e+01	2.1853	-6.678177	0.000209	2.088177	0.353747	0.000021
 222	2.1989e+01	2.1956	-6.658218	0.000201	2.006287	0.339874	0.000020
 223	2.2089e+01	2.2071	-6.628889	0.000295	2.948014	0.499407	0.000029
 224	2.2189e+01	2.2158	-6.609337	0.000197	1.965343	0.332938	0.000020
 225	2.2288e+01	2.2224	-6.589377	0.000201	2.006287	0.339874	0.000020
 226	2.2387e+01	2.2338	-6.563307	0.000262	2.620457	0.443917	0.000026
 227	2.2487e+01	2.2456	-6.540088	0.000233	2.333845	0.395364	0.000023
 228	2.2587e+01	2.2550	-6.516870	0.000233	2.333845	0.395364	0.000023
 229	2.2686e+01	2.2634	-6.495281	0.000217	2.170066	0.367619	0.000022
 230	2.2785e+01	2.2753	-6.472877	0.000225	2.251955	0.381492	0.000023
 231	2.2885e+01	2.2814	-6.449658	0.000233	2.333845	0.395364	0.000023
 232	2.2985e+01	2.2939	-6.432957	0.000168	1.678730	0.284385	0.000017
 233	2.3084e+01	2.3046	-6.407702	0.000254	2.538568	0.430045	0.000025
 234	2.3183e+01	2.3154	-6.388964	0.000188	1.883454	0.319066	0.000019
 235	2.3283e+01	2.3246	-6.365338	0.000237	2.374789	0.402300	0.000024
 236	2.3383e+01	2.3332	-6.344157	0.000213	2.129121	0.360683	0.000021
 237	2.3482e+01	2.3429	-6.320938	0.000233	2.333845	0.395364	0.000023
 238	2.3581e+01	2.3536	-6.301386	0.000197	1.965343	0.332938	0.000020
 239	2.3681e+01	2.3680	-6.280611	0.000209	2.088177	0.353747	0.000021
 240	2.3780e+01	2.3723	-6.259022	0.000217	2.170066	0.367619	0.000022
 241	2.3880e+01	2.3839	-6.237840	0.000213	2.129121	0.360683	0.000021
 242	2.3980e+01	2.3914	-6.214214	0.000237	2.374789	0.402300	0.000024
 243	2.4079e+01	2.4053	-6.192218	0.000221	2.211011	0.374555	0.000022
 244	2.4178e+01	2.4158	-6.171851	0.000205	2.047232	0.346811	0.000020
 245	2.4278e+01	2.4242	-6.153928	0.000180	1.801564	0.305193	0.000018
 246	2.4378e+01	2.4319	-6.128265	0.000258	2.579512	0.436981	0.000026
 247	2.4477e+01	2.4461	-6.108305	0.000201	2.006287	0.339874	0.000020
 248	2.4576e+01	2.4535	-6.084679	0.000237	2.374789	0.402300	0.000024
 249	2.4676e+01	2.4621	-6.065942	0.000188	1.883454	0.319066	0.000019
 250	2.4776e+01	2.4708	-6.041501	0.000246	2.456679	0.416173	0.000025
 251	2.4875e+01	2.4827	-6.019097	0.000225	2.251955	0.381492	0.000023
 252	2.4974e+01	2.4943	-5.997101	0.000221	2.211011	0.374555	0.000022
 253	2.5074e+01	2.5030	-5.975104	0.000221	2.211011	0.374555	0.000022
 254	2.5174e+01	2.5150	-5.947812	0.000274	2.743291	0.464726	0.000027
 255	2.5273e+01	2.5217	-5.926223	0.000217	2.170066	0.367619	0.000022
 256	2.5372e+01	2.5332	-5.907485	0.000188	1.883454	0.319066	0.000019
 257	2.5472e+01	2.5439	-5.879379	0.000283	2.825180	0.478599	0.000028
 258	2.5572e+01	2.5539	-5.859826	0.000197	1.965343	0.332938	0.000020
 259	2.5671e+01	2.5613	-5.835386	0.000246	2.456679	0.416173	0.000025
 260	2.5770e+01	2.5709	-5.811760	0.000237	2.374789	0.402300	0.000024
 261	2.5870e+01	2.5808	-5.783653	0.000283	2.825180	0.478599	0.000028
 262	2.5970e+01	2.5912	-5.762471	0.000213	2.129121	0.360683	0.000021
 263	2.6069e+01	2.6044	-5.740475	0.000221	2.211011	0.374555	0.000022
 264	2.6169e+01	2.6143	-5.715627	0.000250	2.497623	0.423109	0.000025
 265	2.6268e+01	2.6224	-5.689557	0.000262	2.620457	0.443917	0.000026
 266	2.6367e+01	2.6337	-5.667153	0.000225	2.251955	0.381492	0.000023
 267	2.6467e+01	2.6433	-5.643935	0.000233	2.333845	0.395364	0.000023
 268	2.6567e+01	2.6529	-5.619087	0.000250	2.497623	0.423109	0.000025
 269	2.6666e+01	2.6611	-5.597090	0.000221	2.211011	0.374555	0.000022
 270	2.6765e+01	2.6728	-5.573057	0.000242	2.415734	0.409236	0.000024
 271	2.6865e+01	2.6839	-5.549839	0.000233	2.333845	0.395364	0.000023
 272	2.6965e+01	2.6926	-5.522954	0.000270	2.702346	0.457790	0.000027
 273	2.7064e+01	2.7039	-5.498921	0.000242	2.415734	0.409236	0.000024
 274	2.7163e+01	2.7121	-5.476924	0.000221	2.211011	0.374555	0.000022
 275	2.7263e+01	2.7203	-5.450854	0.000262	2.620457	0.443917	0.000026
 276	2.7363e+01	2.7319	-5.426821	0.000242	2.415734	0.409236	0.000024
 277	2.7462e+01	2.7404	-5.407676	0.000192	1.924398	0.326002	0.000019
 278	2.7561e+01	2.7515	-5.383235	0.000246	2.456679	0.416173	0.000025
 279	2.7661e+01	2.7625	-5.357166	0.000262	2.620457	0.443917	0.000026
 280	2.7761e+01	2.7717	-5.336798	0.000205	2.047232	0.346811	0.000020
 281	2.7860e+01	2.7824	-5.310321	0.000266	2.661402	0.450854	0.000027
 282	2.7959e+01	2.7909	-5.281400	0.000291	2.907070	0.492471	0.000029
 283	2.8059e+01	2.8015	-5.255737	0.000258	2.579512	0.436981	0.000026
 284	2.8159e+01	2.8112	-5.229260	0.000266	2.661402	0.450854	0.000027
 285	2.8258e+01	2.8201	-5.203190	0.000262	2.620457	0.443917	0.000026
 286	2.8358e+01	2.8309	-5.175898	0.000274	2.743291	0.464726	0.000027
 287	2.8457e+01	2.8407	-5.151458	0.000246	2.456679	0.416173	0.000025
 288	2.8556e+01	2.8503	-5.127424	0.000242	2.415734	0.409236	0.000024
 289	2.8656e+01	2.8641	-5.100540	0.000270	2.702346	0.457790	0.000027
 290	2.8756e+01	2.8701	-5.073248	0.000274	2.743291	0.464726	0.000027
 291	2.8855e+01	2.8814	-5.048400	0.000250	2.497623	0.423109	0.000025
 292	2.8954e+01	2.8905	-5.027218	0.000213	2.129121	0.360683	0.000021
 293	2.9054e+01	2.9006	-4.996667	0.000307	3.070848	0.520216	0.000031
 294	2.9154e+01	2.9104	-4.971005	0.000258	2.579512	0.436981	0.000026
 295	2.9253e+01	2.9202	-4.946157	0.000250	2.497623	0.423109	0.000025
 296	2.9352e+01	2.9299	-4.922531	0.000237	2.374789	0.402300	0.000024
 297	2.9452e+01	2.9403	-4.894017	0.000287	2.866125	0.485535	0.000029
 298	2.9552e+01	2.9504	-4.868355	0.000258	2.579512	0.436981	0.000026
 299	2.9651e+01	2.9627	-4.842692	0.000258	2.579512	0.436981	0.000026
 300	2.9750e+01	2.9713	-4.819066	0.000237	2.374789	0.402300	0.000024
 301	2.9850e+01	2.9821	-4.796255	0.000229	2.292900	0.388428	0.000023
 302	2.9950e+01	2.9903	-4.771407	0.000250	2.497623	0.423109	0.000025
 303	3.0049e+01	3.0010	-4.746152	0.000254	2.538568	0.430045	0.000025
 304	3.0148e+01	3.0115	-4.724970	0.000213	2.129121	0.360683	0.000021
 305	3.0248e+01	3.0209	-4.698493	0.000266	2.661402	0.450854	0.000027
 306	3.0348e+01	3.0325	-4.675274	0.000233	2.333845	0.395364	0.000023
 307	3.0447e+01	3.0403	-4.649204	0.000262	2.620457	0.443917	0.000026
 308	3.0547e+01	3.0499	-4.629244	0.000201	2.006287	0.339874	0.000020
 309	3.0646e+01	3.0597	-4.604397	0.000250	2.497623	0.423109	0.000025
 310	3.0745e+01	3.0741	-4.582807	0.000217	2.170066	0.367619	0.000022
 311	3.0845e+01	3.0801	-4.557552	0.000254	2.538568	0.430045	0.000025
 312	3.0945e+01	3.0890	-4.538814	0.000188	1.883454	0.319066	0.000019
 313	3.1044e+01	3.1010	-4.511522	0.000274	2.743291	0.464726	0.000027
 314	3.1143e+01	3.1116	-4.485045	0.000266	2.661402	0.450854	0.000027
 315	3.1243e+01	3.1182	-4.463049	0.000221	2.211011	0.374555	0.000022
 316	3.1343e+01	3.1338	-4.441460	0.000217	2.170066	0.367619	0.000022
 317	3.1442e+01	3.1408	-4.411724	0.000299	2.988959	0.506343	0.000030
 318	3.1541e+01	3.1494	-4.388912	0.000229	2.292900	0.388428	0.000023
 319	3.1641e+01	3.1590	-4.361213	0.000278	2.784236	0.471662	0.000028
 320	3.1741e+01	3.1713	-4.338402	0.000229	2.292900	0.388428	0.000023
 321	3.1840e+01	3.1792	-4.315183	0.000233	2.333845	0.395364	0.000023
 322	3.1939e+01	3.1906	-4.290335	0.000250	2.497623	0.423109	0.000025
 323	3.2039e+01	3.2003	-4.264266	0.000262	2.620457	0.443917	0.000026
 324	3.2139e+01	3.2096	-4.239825	0.000246	2.456679	0.416173	0.000025
 325	3.2238e+01	3.2172	-4.220273	0.000197	1.965343	0.332938	0.000020
 326	3.2337e+01	3.2307	-4.194610	0.000258	2.579512	0.436981	0.000026
 327	3.2437e+01	3.2411	-4.169355	0.000254	2.538568	0.430045	0.000025
 328	3.2536e+01	3.2494	-4.144507	0.000250	2.497623	0.423109	0.000025
 329	3.2636e+01	3.2598	-4.115178	0.000295	2.948014	0.499407	0.000029
 330	3.2736e+01	3.2674	-4.093589	0.000217	2.170066	0.367619	0.000022
 331	3.2835e+01	3.2806	-4.067112	0.000266	2.661402	0.450854	0.000027
 332	3.2934e+01	3.2873	-4.043486	0.000237	2.374789	0.402300	0.000024
 333	3.3034e+01	3.3006	-4.019860	0.000237	2.374789	0.402300	0.000024
 334	3.3133e+01	3.3104	-3.997049	0.000229	2.292900	0.388428	0.000023
 335	3.3233e+01	3.3184	-3.973423	0.000237	2.374789	0.402300	0.000024
 336	3.3333e+01	3.3305	-3.950204	0.000233	2.333845	0.395364	0.000023
 337	3.3432e+01	3.3379	-3.925764	0.000246	2.456679	0.416173	0.000025
 338	3.3532e+01	3.3485	-3.904989	0.000209	2.088177	0.353747	0.000021
 339	3.3631e+01	3.3619	-3.880956	0.000242	2.415734	0.409236	0.000024
 340	3.3730e+01	3.3676	-3.859774	0.000213	2.129121	0.360683	0.000021
 341	3.3830e+01	3.3784	-3.840222	0.000197	1.965343	0.332938	0.000020
 342	3.3929e+01	3.3875	-3.814967	0.000254	2.538568	0.430045	0.000025
 343	3.4029e+01	3.3987	-3.793785	0.000213	2.129121	0.360683	0.000021
 344	3.4129e+01	3.4100	-3.770566	0.000233	2.333845	0.395364	0.000023
 345	3.4228e+01	3.4188	-3.749792	0.000209	2.088177	0.353747	0.000021
 346	3.4328e+01	3.4288	-3.724537	0.000254	2.538568	0.430045	0.000025
 347	3.4427e+01	3.4391	-3.705799	0.000188	1.883454	0.319066	0.000019
 348	3.4526e+01	3.4479	-3.681766	0.000242	2.415734	0.409236	0.000024
 349	3.4626e+01	3.4572	-3.657325	0.000246	2.456679	0.416173	0.000025
 350	3.4725e+01	3.4701	-3.634921	0.000225	2.251955	0.381492	0.000023
 351	3.4825e+01	3.4791	-3.616998	0.000180	1.801564	0.305193	0.000018
 352	3.4925e+01	3.4909	-3.594594	0.000225	2.251955	0.381492	0.000023
 353	3.5024e+01	3.4979	-3.570968	0.000237	2.374789	0.402300	0.000024
 354	3.5123e+01	3.5095	-3.551009	0.000201	2.006287	0.339874	0.000020
 355	3.5223e+01	3.5192	-3.528198	0.000229	2.292900	0.388428	0.000023
 356	3.5322e+01	3.5281	-3.506608	0.000217	2.170066	0.367619	0.000022
 357	3.5422e+01	3.5400	-3.482982	0.000237	2.374789	0.402300	0.000024
 358	3.5522e+01	3.5545	-3.460579	0.000225	2.251955	0.381492	0.000023
 359	3.5621e+01	3.5583	-3.438582	0.000221	2.211011	0.374555	0.000022
 360	3.5721e+01	3.5684	-3.419844	0.000188	1.883454	0.319066	0.000019
 361	3.5820e+01	3.5781	-3.398663	0.000213	2.129121	0.360683	0.000021
 362	3.5919e+01	3.5882	-3.375037	0.000237	2.374789	0.402300	0.000024
 363	3.6019e+01	3.5987	-3.355892	0.000192	1.924398	0.326002	0.000019
 364	3.6118e+01	3.6077	-3.333080	0.000229	2.292900	0.388428	0.000023
 365	3.6218e+01	3.6185	-3.310677	0.000225	2.251955	0.381492	0.000023
 366	3.6318e+01	3.6295	-3.293976	0.000168	1.678730	0.284385	0.000017
 367	3.6417e+01	3.6371	-3.273608	0.000205	2.047232	0.346811	0.000020
 368	3.6517e+01	3.6468	-3.254056	0.000197	1.965343	0.332938	0.000020
 369	3.6616e+01	3.6556	-3.232059	0.000221	2.211011	0.374555	0.000022
 370	3.6715e+01	3.6654	-3.212914	0.000192	1.924398	0.326002	0.000019
 371	3.6815e+01	3.6791	-3.198250	0.000147	1.474007	0.249704	0.000015
 372	3.6914e+01	3.6868	-3.173809	0.000246	2.456679	0.416173	0.000025
 373	3.7014e+01	3.6965	-3.151813	0.000221	2.211011	0.374555	0.000022
 374	3.7114e+01	3.7086	-3.134705	0.000172	1.719675	0.291321	0.000017
 375	3.7213e+01	3.7167	-3.116374	0.000184	1.842509	0.312129	0.000018
 376	3.7313e+01	3.7278	-3.095600	0.000209	2.088177	0.353747	0.000021
 377	3.7412e+01	3.7368	-3.076455	0.000192	1.924398	0.326002	0.000019
 378	3.7511e+01	3.7486	-3.057310	0.000192	1.924398	0.326002	0.000019
 379	3.7611e+01	3.7579	-3.030832	0.000266	2.661402	0.450854	0.000027
 380	3.7711e+01	3.7691	-3.015353	0.000156	1.555896	0.263576	0.000016
 381	3.7810e+01	3.7749	-2.993764	0.000217	2.170066	0.367619	0.000022
 382	3.7910e+01	3.7866	-2.976248	0.000176	1.760620	0.298257	0.000018
 383	3.8009e+01	3.7968	-2.955474	0.000209	2.088177	0.353747	0.000021
 384	3.8108e+01	3.8071	-2.936329	0.000192	1.924398	0.326002	0.000019
 385	3.8208e+01	3.8198	-2.911888	0.000246	2.456679	0.416173	0.000025
 386	3.8307e+01	3.8280	-2.894372	0.000176	1.760620	0.298257	0.000018
 387	3.8407e+01	3.8378	-2.874005	0.000205	2.047232	0.346811	0.000020
 388	3.8507e+01	3.8494	-2.852009	0.000221	2.211011	0.374555	0.000022
 389	3.8606e+01	3.8535	-2.827161	0.000250	2.497623	0.423109	0.000025
 390	3.8706e+01	3.8665	-2.810053	0.000172	1.719675	0.291321	0.000017
 391	3.8805e+01	3.8785	-2.782353	0.000278	2.784236	0.471662	0.000028
 392	3.8904e+01	3.8873	-2.762394	0.000201	2.006287	0.339874	0.000020
 393	3.9004e+01	3.8959	-2.742026	0.000205	2.047232	0.346811	0.000020
 394	3.9103e+01	3.9061	-2.720845	0.000213	2.129121	0.360683	0.000021
 395	3.9203e+01	3.9168	-2.698441	0.000225	2.251955	0.381492	0.000023
 396	3.9303e+01	3.9245	-2.673593	0.000250	2.497623	0.423109	0.000025
 397	3.9402e+01	3.9368	-2.656077	0.000176	1.760620	0.298257	0.000018
 398	3.9502e+01	3.9461	-2.630007	0.000262	2.620457	0.443917	0.000026
 399	3.9601e+01	3.9587	-2.612084	0.000180	1.801564	0.305193	0.000018
 400	3.9700e+01	3.9652	-2.591717	0.000205	2.047232	0.346811	0.000020
 401	3.9800e+01	3.9755	-2.570943	0.000209	2.088177	0.353747	0.000021
 402	3.9900e+01	3.9867	-2.550168	0.000209	2.088177	0.353747	0.000021
 403	3.9999e+01	3.9958	-2.533060	0.000172	1.719675	0.291321	0.000017
 404	4.0099e+01	4.0054	-2.510248	0.000229	2.292900	0.388428	0.000023
 405	4.0198e+01	4.0159	-2.495177	0.000151	1.514952	0.256640	0.000015
 406	4.0297e+01	4.0261	-2.466663	0.000287	2.866125	0.485535	0.000029
 407	4.0397e+01	4.0371	-2.448740	0.000180	1.801564	0.305193	0.000018
 408	4.0496e+01	4.0459	-2.426336	0.000225	2.251955	0.381492	0.000023
 409	4.0596e+01	4.0569	-2.407598	0.000188	1.883454	0.319066	0.000019
 410	4.0696e+01	4.0653	-2.385602	0.000221	2.211011	0.374555	0.000022
 411	4.0795e+01	4.0762	-2.364827	0.000209	2.088177	0.353747	0.000021
 412	4.0895e+01	4.0837	-2.345682	0.000192	1.924398	0.326002	0.000019
 413	4.0994e+01	4.0936	-2.324908	0.000209	2.088177	0.353747	0.000021
 414	4.1093e+01	4.1043	-2.305355	0.000197	1.965343	0.332938	0.000020
 415	4.1193e+01	4.1168	-2.282951	0.000225	2.251955	0.381492	0.000023
 416	4.1292e+01	4.1261	-2.265843	0.000172	1.719675	0.291321	0.000017
 417	4.1392e+01	4.1344	-2.242624	0.000233	2.333845	0.395364	0.000023
 418	4.1492e+01	4.1441	-2.221035	0.000217	2.170066	0.367619	0.000022
 419	4.1591e+01	4.1539	-2.196187	0.000250	2.497623	0.423109	0.000025
 420	4.1691e+01	4.1646	-2.175820	0.000205	2.047232	0.346811	0.000020
 421	4.1790e+01	4.1753	-2.152194	0.000237	2.374789	0.402300	0.000024
 422	4.1889e+01	4.1846	-2.132235	0.000201	2.006287	0.339874	0.000020
 423	4.1989e+01	4.1961	-2.108609	0.000237	2.374789	0.402300	0.000024
 424	4.2089e+01	4.2043	-2.084576	0.000242	2.415734	0.409236	0.000024
 425	4.2188e+01	4.2146	-2.067467	0.000172	1.719675	0.291321	0.000017
 426	4.2288e+01	4.2254	-2.043434	0.000242	2.415734	0.409236	0.000024
 427	4.2387e+01	4.2327	-2.021030	0.000225	2.251955	0.381492	0.000023
 428	4.2486e+01	4.2448	-1.994960	0.000262	2.620457	0.443917	0.000026
 429	4.2586e+01	4.2541	-1.972149	0.000229	2.292900	0.388428	0.000023
 430	4.2685e+01	4.2635	-1.951782	0.000205	2.047232	0.346811	0.000020
 431	4.2785e+01	4.2753	-1.929378	0.000225	2.251955	0.381492	0.000023
 432	4.2885e+01	4.2861	-1.906567	0.000229	2.292900	0.388428	0.000023
 433	4.2984e+01	4.2939	-1.880090	0.000266	2.661402	0.450854	0.000027
 434	4.3084e+01	4.3019	-1.857278	0.000229	2.292900	0.388428	0.000023
 435	4.3183e+01	4.3134	-1.834875	0.000225	2.251955	0.381492	0.000023
 436	4.3282e+01	4.3237	-1.813285	0.000217	2.170066	0.367619	0.000022
 437	4.3382e+01	4.3337	-1.790474	0.000229	2.292900	0.388428	0.000023
 438	4.3481e+01	4.3452	-1.766441	0.000242	2.415734	0.409236	0.000024
 439	4.3581e+01	4.3537	-1.745667	0.000209	2.088177	0.353747	0.000021
 440	4.3681e+01	4.3680	-1.721226	0.000246	2.456679	0.416173	0.000025
 441	4.3780e+01	4.3752	-1.697600	0.000237	2.374789	0.402300	0.000024
 442	4.3880e+01	4.3828	-1.678455	0.000192	1.924398	0.326002	0.000019
 443	4.3979e+01	4.3943	-1.655644	0.000229	2.292900	0.388428	0.000023
 444	4.4078e+01	4.4035	-1.628759	0.000270	2.702346	0.457790	0.000027
 445	4.4178e+01	4.4131	-1.605133	0.000237	2.374789	0.402300	0.000024
 446	4.4278e+01	4.4256	-1.583544	0.000217	2.170066	0.367619	0.000022
 447	4.4377e+01	4.4360	-1.559511	0.000242	2.415734	0.409236	0.000024
 448	4.4477e+01	4.4424	-1.539144	0.000205	2.047232	0.346811	0.000020
 449	4.4576e+01	4.4530	-1.509408	0.000299	2.988959	0.506343	0.000030
 450	4.4675e+01	4.4622	-1.486189	0.000233	2.333845	0.395364	0.000023
 451	4.4775e+01	4.4743	-1.458490	0.000278	2.784236	0.471662	0.000028
 452	4.4874e+01	4.4828	-1.436086	0.000225	2.251955	0.381492	0.000023
 453	4.4974e+01	4.4939	-1.410831	0.000254	2.538568	0.430045	0.000025
 454	4.5074e+01	4.5026	-1.386798	0.000242	2.415734	0.409236	0.000024
 455	4.5173e+01	4.5146	-1.361542	0.000254	2.538568	0.430045	0.000025
 456	4.5273e+01	4.5220	-1.339139	0.000225	2.251955	0.381492	0.000023
 457	4.5372e+01	4.5334	-1.318364	0.000209	2.088177	0.353747	0.000021
 458	4.5471e+01	4.5417	-1.292294	0.000262	2.620457	0.443917	0.000026
 459	4.5571e+01	4.5551	-1.266224	0.000262	2.620457	0.443917	0.000026
 460	4.5670e+01	4.5644	-1.240154	0.000262	2.620457	0.443917	0.000026
 461	4.5770e+01	4.5731	-1.215714	0.000246	2.456679	0.416173	0.000025
 462	4.5870e+01	4.5847	-1.188829	0.000270	2.702346	0.457790	0.000027
 463	4.5969e+01	4.5924	-1.168869	0.000201	2.006287	0.339874	0.000020
 464	4.6069e+01	4.6011	-1.139541	0.000295	2.948014	0.499407	0.000029
 465	4.6168e+01	4.6124	-1.116322	0.000233	2.333845	0.395364	0.000023
 466	4.6267e+01	4.6229	-1.092289	0.000242	2.415734	0.409236	0.000024
 467	4.6367e+01	4.6328	-1.069885	0.000225	2.251955	0.381492	0.000023
 468	4.6467e+01	4.6400	-1.043001	0.000270	2.702346	0.457790	0.000027
 469	4.6566e+01	4.6558	-1.021004	0.000221	2.211011	0.374555	0.000022
 470	4.6666e+01	4.6639	-1.000637	0.000205	2.047232	0.346811	0.000020
 471	4.6765e+01	4.6758	-0.973345	0.000274	2.743291	0.464726	0.000027
 472	4.6864e+01	4.6828	-0.950127	0.000233	2.333845	0.395364	0.000023
 473	4.6964e+01	4.6928	-0.932203	0.000180	1.801564	0.305193	0.000018
 474	4.7063e+01	4.7027	-0.908985	0.000233	2.333845	0.395364	0.000023
 475	4.7163e+01	4.7128	-0.883322	0.000258	2.579512	0.436981	0.000026
 476	4.7263e+01	4.7209	-0.858882	0.000246	2.456679	0.416173	0.000025
 477	4.7362e+01	4.7311	-0.840959	0.000180	1.801564	0.305193	0.000018
 478	4.7462e+01	4.7453	-0.816925	0.000242	2.415734	0.409236	0.000024
 479	4.7561e+01	4.7535	-0.793300	0.000237	2.374789	0.402300	0.000024
 480	4.7660e+01	4.7615	-0.772932	0.000205	2.047232	0.346811	0.000020
 481	4.7760e+01	4.7771	-0.748085	0.000250	2.497623	0.423109	0.000025
 482	4.7859e+01	4.7812	-0.727310	0.000209	2.088177	0.353747	0.000021
 483	4.7959e+01	4.7907	-0.704499	0.000229	2.292900	0.388428	0.000023
 484	4.8059e+01	4.8016	-0.678022	0.000266	2.661402	0.450854	0.000027
 485	4.8158e+01	4.8112	-0.653174	0.000250	2.497623	0.423109	0.000025
 486	4.8258e+01	4.8227	-0.629548	0.000237	2.374789	0.402300	0.000024
 487	4.8357e+01	4.8299	-0.604293	0.000254	2.538568	0.430045	0.000025
 488	4.8456e+01	4.8423	-0.583111	0.000213	2.129121	0.360683	0.000021
 489	4.8556e+01	4.8512	-0.559892	0.000233	2.333845	0.395364	0.000023
 490	4.8656e+01	4.8601	-0.535044	0.000250	2.497623	0.423109	0.000025
 491	4.8755e+01	4.8723	-0.511419	0.000237	2.374789	0.402300	0.000024
 492	4.8855e+01	4.8786	-0.490237	0.000213	2.129121	0.360683	0.000021
 493	4.8954e+01	4.8913	-0.464167	0.000262	2.620457	0.443917	0.000026
 494	4.9053e+01	4.9011	-0.442578	0.000217	2.170066	0.367619	0.000022
 495	4.9153e+01	4.9121	-0.417730	0.000250	2.497623	0.423109	0.000025
 496	4.9252e+01	4.9213	-0.393697	0.000242	2.415734	0.409236	0.000024
 497	4.9352e+01	4.9293	-0.372515	0.000213	2.129121	0.360683	0.000021
 498	4.9452e+01	4.9411	-0.348074	0.000246	2.456679	0.416173	0.000025
 499	4.9551e+01	4.9501	-0.323226	0.000250	2.497623	0.423109	0.000025
 500	4.9651e+01	4.9621	-0.300415	0.000229	2.292900	0.388428	0.000023
 501	4.9750e+01	4.9730	-0.275975	0.000246	2.456679	0.416173	0.000025
 502	4.9849e+01	4.9818	-0.254793	0.000213	2.129121	0.360683	0.000021
 503	4.9949e+01	4.9909	-0.230760	0.000242	2.415734	0.409236	0.000024
 504	5.0048e+01	5.0000	-0.209578	0.000213	2.129121	0.360683	0.000021
 505	5.0148e+01	5.0095	-0.190025	0.000197	1.965343	0.332938	0.000020
 506	5.0248e+01	5.0188	-0.167621	0.000225	2.251955	0.381492	0.000023
 507	5.0347e+01	5.0317	-0.147662	0.000201	2.006287	0.339874	0.000020
 508	5.0447e+01	5.0430	-0.124036	0.000237	2.374789	0.402300	0.000024
 509	5.0546e+01	5.0512	-0.102854	0.000213	2.129121	0.360683	0.000021
 510	5.0645e+01	5.0611	-0.083302	0.000197	1.965343	0.332938	0.000020
 511	5.0745e+01	5.0707	-0.060898	0.000225	2.251955	0.381492	0.000023
 512	5.0844e+01	5.0787	-0.036865	0.000242	2.415734	0.409236	0.000024
 513	5.0944e+01	5.0918	-0.016497	0.000205	2.047232	0.346811	0.000020
 514	5.1044e+01	5.1003	0.002648	0.000192	1.924398	0.326002	0.000019
 515	5.1143e+01	5.1107	0.026681	0.000242	2.415734	0.409236	0.000024
 516	5.1242e+01	5.1196	0.044604	0.000180	1.801564	0.305193	0.000018
 517	5.1342e+01	5.1305	0.066601	0.000221	2.211011	0.374555	0.000022
 518	5.1441e+01	5.1381	0.088597	0.000221	2.211011	0.374555	0.000022
 519	5.1541e+01	5.1494	0.109371	0.000209	2.088177	0.353747	0.000021
 520	5.1641e+01	5.1600	0.130553	0.000213	2.129121	0.360683	0.000021
 521	5.1740e+01	5.1688	0.152550	0.000221	2.211011	0.374555	0.000022
 522	5.1840e+01	5.1789	0.172510	0.000201	2.006287	0.339874	0.000020
 523	5.1939e+01	5.1894	0.192062	0.000197	1.965343	0.332938	0.000020
 524	5.2038e+01	5.2003	0.215688	0.000237	2.374789	0.402300	0.000024
 525	5.2138e+01	5.2071	0.236055	0.000205	2.047232	0.346811	0.000020
 526	5.2237e+01	5.2197	0.256422	0.000205	2.047232	0.346811	0.000020
 527	5.2337e+01	5.2274	0.277197	0.000209	2.088177	0.353747	0.000021
 528	5.2437e+01	5.2389	0.295527	0.000184	1.842509	0.312129	0.000018
 529	5.2536e+01	5.2486	0.317931	0.000225	2.251955	0.381492	0.000023
 530	5.2636e+01	5.2606	0.339520	0.000217	2.170066	0.367619	0.000022
 531	5.2735e+01	5.2703	0.359072	0.000197	1.965343	0.332938	0.000020
 532	5.2834e+01	5.2778	0.376181	0.000172	1.719675	0.291321	0.000017
 533	5.2934e+01	5.2888	0.396548	0.000205	2.047232	0.346811	0.000020
 534	5.3033e+01	5.2966	0.414878	0.000184	1.842509	0.312129	0.000018
 535	5.3133e+01	5.3078	0.434838	0.000201	2.006287	0.339874	0.000020
 536	5.3233e+01	5.3188	0.454391	0.000197	1.965343	0.332938	0.000020
 537	5.3332e+01	5.3271	0.473536	0.000192	1.924398	0.326002	0.000019
 538	5.3431e+01	5.3391	0.491051	0.000176	1.760620	0.298257	0.000018
 539	5.3531e+01	5.3507	0.511826	0.000209	2.088177	0.353747	0.000021
 540	5.3630e+01	5.3573	0.528527	0.000168	1.678730	0.284385	0.000017
 541	5.3730e+01	5.3662	0.550931	0.000225	2.251955	0.381492	0.000023
 542	5.3830e+01	5.3790	0.563966	0.000131	1.310229	0.221959	0.000013
 543	5.3929e+01	5.3909	0.587184	0.000233	2.333845	0.395364	0.000023
 544	5.4029e+01	5.3966	0.605107	0.000180	1.801564	0.305193	0.000018
 545	5.4128e+01	5.4077	0.626289	0.000213	2.129121	0.360683	0.000021
 546	5.4227e+01	5.4185	0.643398	0.000172	1.719675	0.291321	0.000017
 547	5.4327e+01	5.4269	0.660913	0.000176	1.760620	0.298257	0.000018
 548	5.4426e+01	5.4372	0.680058	0.000192	1.924398	0.326002	0.000019
 549	5.4526e+01	5.4468	0.701648	0.000217	2.170066	0.367619	0.000022
 550	5.4626e+01	5.4601	0.716719	0.000151	1.514952	0.256640	0.000015
 551	5.4725e+01	5.4678	0.744011	0.000274	2.743291	0.464726	0.000027
 552	5.4825e+01	5.4763	0.761120	0.000172	1.719675	0.291321	0.000017
 553	5.4924e+01	5.4882	0.781487	0.000205	2.047232	0.346811	0.000020
 554	5.5023e+01	5.4983	0.801446	0.000201	2.006287	0.339874	0.000020
 555	5.5123e+01	5.5083	0.821406	0.000201	2.006287	0.339874	0.000020
 556	5.5222e+01	5.5190	0.839737	0.000184	1.842509	0.312129	0.000018
 557	5.5322e+01	5.5291	0.862141	0.000225	2.251955	0.381492	0.000023
 558	5.5422e+01	5.5386	0.884137	0.000221	2.211011	0.374555	0.000022
 559	5.5521e+01	5.5471	0.905319	0.000213	2.129121	0.360683	0.000021
 560	5.5620e+01	5.5589	0.925279	0.000201	2.006287	0.339874	0.000020
 561	5.5720e+01	5.5685	0.947275	0.000221	2.211011	0.374555	0.000022
 562	5.5819e+01	5.5771	0.969272	0.000221	2.211011	0.374555	0.000022
 563	5.5919e+01	5.5871	0.986787	0.000176	1.760620	0.298257	0.000018
 564	5.6019e+01	5.5997	1.009599	0.000229	2.292900	0.388428	0.000023
 565	5.6118e+01	5.6136	1.026707	0.000172	1.719675	0.291321	0.000017
 566	5.6218e+01	5.6179	1.048296	0.000217	2.170066	0.367619	0.000022
 567	5.6317e+01	5.6290	1.072737	0.000246	2.456679	0.416173	0.000025
 568	5.6416e+01	5.6387	1.089845	0.000172	1.719675	0.291321	0.000017
 569	5.6516e+01	5.6496	1.111027	0.000213	2.129121	0.360683	0.000021
 570	5.6615e+01	5.6570	1.127728	0.000168	1.678730	0.284385	0.000017
 571	5.6715e+01	5.6684	1.147688	0.000201	2.006287	0.339874	0.000020
 572	5.6815e+01	5.6768	1.167240	0.000197	1.965343	0.332938	0.000020
 573	5.6914e+01	5.6870	1.185570	0.000184	1.842509	0.312129	0.000018
 574	5.7014e+01	5.7007	1.206752	0.000213	2.129121	0.360683	0.000021
 575	5.7113e+01	5.7073	1.225490	0.000188	1.883454	0.319066	0.000019
 576	5.7212e+01	5.7168	1.248301	0.000229	2.292900	0.388428	0.000023
 577	5.7312e+01	5.7276	1.267039	0.000188	1.883454	0.319066	0.000019
 578	5.7411e+01	5.7354	1.286999	0.000201	2.006287	0.339874	0.000020
 579	5.7511e+01	5.7482	1.304107	0.000172	1.719675	0.291321	0.000017
 580	5.7611e+01	5.7574	1.322438	0.000184	1.842509	0.312129	0.000018
 581	5.7710e+01	5.7668	1.343212	0.000209	2.088177	0.353747	0.000021
 582	5.7809e+01	5.7754	1.361135	0.000180	1.801564	0.305193	0.000018
 583	5.7909e+01	5.7845	1.384354	0.000233	2.333845	0.395364	0.000023
 584	5.8008e+01	5.7957	1.403906	0.000197	1.965343	0.332938	0.000020
 585	5.8108e+01	5.8077	1.425903	0.000221	2.211011	0.374555	0.000022
 586	5.8208e+01	5.8184	1.444640	0.000188	1.883454	0.319066	0.000019
 587	5.8307e+01	5.8287	1.467452	0.000229	2.292900	0.388428	0.000023
 588	5.8407e+01	5.8389	1.486189	0.000188	1.883454	0.319066	0.000019
 589	5.8506e+01	5.8472	1.512667	0.000266	2.661402	0.450854	0.000027
 590	5.8605e+01	5.8570	1.528960	0.000164	1.637786	0.277448	0.000016
 591	5.8705e+01	5.8678	1.553401	0.000246	2.456679	0.416173	0.000025
 592	5.8804e+01	5.8758	1.575397	0.000221	2.211011	0.374555	0.000022
 593	5.8904e+01	5.8862	1.595764	0.000205	2.047232	0.346811	0.000020
 594	5.9004e+01	5.8958	1.615724	0.000201	2.006287	0.339874	0.000020
 595	5.9103e+01	5.9061	1.636499	0.000209	2.088177	0.353747	0.000021
 596	5.9203e+01	5.9163	1.658088	0.000217	2.170066	0.367619	0.000022
 597	5.9302e+01	5.9274	1.682936	0.000250	2.497623	0.423109	0.000025
 598	5.9401e+01	5.9361	1.701674	0.000188	1.883454	0.319066	0.000019
 599	5.9501e+01	5.9470	1.726521	0.000250	2.497623	0.423109	0.000025
 600	5.9600e+01	5.9581	1.750147	0.000237	2.374789	0.402300	0.000024
 601	5.9700e+01	5.9661	1.771736	0.000217	2.170066	0.367619	0.000022
 602	5.9800e+01	5.9776	1.793733	0.000221	2.211011	0.374555	0.000022
 603	5.9899e+01	5.9858	1.814507	0.000209	2.088177	0.353747	0.000021
 604	5.9998e+01	5.9949	1.836504	0.000221	2.211011	0.374555	0.000022
 605	6.0098e+01	6.0046	1.859315	0.000229	2.292900	0.388428	0.000023
 606	6.0197e+01	6.0126	1.878868	0.000197	1.965343	0.332938	0.000020
 607	6.0297e+01	6.0282	1.904530	0.000258	2.579512	0.436981	0.000026
 608	6.0397e+01	6.0343	1.924490	0.000201	2.006287	0.339874	0.000020
 609	6.0496e+01	6.0445	1.948930	0.000246	2.456679	0.416173	0.000025
 610	6.0596e+01	6.0564	1.969705	0.000209	2.088177	0.353747	0.000021
 611	6.0695e+01	6.0659	1.993738	0.000242	2.415734	0.409236	0.000024
 612	6.0794e+01	6.0761	2.017364	0.000237	2.374789	0.402300	0.000024
 613	6.0894e+01	6.0867	2.038138	0.000209	2.088177	0.353747	0.000021
 614	6.0993e+01	6.0921	2.056062	0.000180	1.801564	0.305193	0.000018
 615	6.1093e+01	6.1060	2.079687	0.000237	2.374789	0.402300	0.000024
 616	6.1193e+01	6.1166	2.101277	0.000217	2.170066	0.367619	0.000022
 617	6.1292e+01	6.1266	2.127754	0.000266	2.661402	0.450854	0.000027
 618	6.1392e+01	6.1346	2.153009	0.000254	2.538568	0.430045	0.000025
 619	6.1491e+01	6.1443	2.176635	0.000237	2.374789	0.402300	0.000024
 620	6.1590e+01	6.1530	2.197409	0.000209	2.088177	0.353747	0.000021
 621	6.1690e+01	6.1650	2.225109	0.000278	2.784236	0.471662	0.000028
 622	6.1789e+01	6.1779	2.249549	0.000246	2.456679	0.416173	0.000025
 623	6.1889e+01	6.1823	2.267880	0.000184	1.842509	0.312129	0.000018
 624	6.1989e+01	6.1939	2.296394	0.000287	2.866125	0.485535	0.000029
 625	6.2088e+01	6.2057	2.320834	0.000246	2.456679	0.416173	0.000025
 626	6.2188e+01	6.2138	2.344460	0.000237	2.374789	0.402300	0.000024
 627	6.2287e+01	6.2228	2.368901	0.000246	2.456679	0.416173	0.000025
 628	6.2386e+01	6.2336	2.392526	0.000237	2.374789	0.402300	0.000024
 629	6.2486e+01	6.2460	2.416967	0.000246	2.456679	0.416173	0.000025
 630	6.2586e+01	6.2545	2.436927	0.000201	2.006287	0.339874	0.000020
 631	6.2685e+01	6.2658	2.461367	0.000246	2.456679	0.416173	0.000025
 632	6.2785e+01	6.2742	2.486623	0.000254	2.538568	0.430045	0.000025
 633	6.2884e+01	6.2824	2.507804	0.000213	2.129121	0.360683	0.000021
 634	6.2983e+01	6.2946	2.534689	0.000270	2.702346	0.457790	0.000027
 635	6.3083e+01	6.3064	2.555056	0.000205	2.047232	0.346811	0.000020
 636	6.3182e+01	6.3152	2.578275	0.000233	2.333845	0.395364	0.000023
 637	6.3282e+01	6.3233	2.600679	0.000225	2.251955	0.381492	0.000023
 638	6.3382e+01	6.3337	2.624712	0.000242	2.415734	0.409236	0.000024
 639	6.3481e+01	6.3453	2.644264	0.000197	1.965343	0.332938	0.000020
 640	6.3581e+01	6.3558	2.664224	0.000201	2.006287	0.339874	0.000020
 641	6.3680e+01	6.3660	2.693553	0.000295	2.948014	0.499407	0.000029
 642	6.3779e+01	6.3816	2.712290	0.000188	1.883454	0.319066	0.000019
 643	6.3879e+01	6.3842	2.734287	0.000221	2.211011	0.374555	0.000022
 644	6.3978e+01	6.3931	2.756691	0.000225	2.251955	0.381492	0.000023
 645	6.4078e+01	6.4028	2.777465	0.000209	2.088177	0.353747	0.000021
 646	6.4177e+01	6.4137	2.799054	0.000217	2.170066	0.367619	0.000022
 647	6.4277e+01	6.4217	2.821051	0.000221	2.211011	0.374555	0.000022
 648	6.4376e+01	6.4357	2.843455	0.000225	2.251955	0.381492	0.000023
 649	6.4476e+01	6.4433	2.868303	0.000250	2.497623	0.423109	0.000025
 650	6.4576e+01	6.4568	2.888670	0.000205	2.047232	0.346811	0.000020
 651	6.4675e+01	6.4629	2.912296	0.000237	2.374789	0.402300	0.000024
 652	6.4775e+01	6.4719	2.933070	0.000209	2.088177	0.353747	0.000021
 653	6.4874e+01	6.4828	2.957103	0.000242	2.415734	0.409236	0.000024
 654	6.4974e+01	6.4918	2.981544	0.000246	2.456679	0.416173	0.000025
 655	6.5073e+01	6.5031	3.000282	0.000188	1.883454	0.319066	0.000019
 656	6.5172e+01	6.5137	3.028388	0.000283	2.825180	0.478599	0.000028
 657	6.5272e+01	6.5224	3.049570	0.000213	2.129121	0.360683	0.000021
 658	6.5371e+01	6.5334	3.070752	0.000213	2.129121	0.360683	0.000021
 659	6.5471e+01	6.5440	3.096822	0.000262	2.620457	0.443917	0.000026
 660	6.5570e+01	6.5535	3.115560	0.000188	1.883454	0.319066	0.000019
 661	6.5670e+01	6.5656	3.141629	0.000262	2.620457	0.443917	0.000026
 662	6.5769e+01	6.5760	3.162404	0.000209	2.088177	0.353747	0.000021
 663	6.5869e+01	6.5828	3.186030	0.000237	2.374789	0.402300	0.000024
 664	6.5969e+01	6.5923	3.210063	0.000242	2.415734	0.409236	0.000024
 665	6.6068e+01	6.6017	3.235318	0.000254	2.538568	0.430045	0.000025
 666	6.6168e+01	6.6155	3.257315	0.000221	2.211011	0.374555	0.000022
 667	6.6267e+01	6.6236	3.276867	0.000197	1.965343	0.332938	0.000020
 668	6.6367e+01	6.6343	3.298456	0.000217	2.170066	0.367619	0.000022
 669	6.6466e+01	6.6418	3.323712	0.000254	2.538568	0.430045	0.000025
 670	6.6566e+01	6.6505	3.346930	0.000233	2.333845	0.395364	0.000023
 671	6.6665e+01	6.6604	3.368112	0.000213	2.129121	0.360683	0.000021
 672	6.6764e+01	6.6718	3.386850	0.000188	1.883454	0.319066	0.000019
 673	6.6864e+01	6.6819	3.409253	0.000225	2.251955	0.381492	0.000023
 674	6.6963e+01	6.6911	3.426362	0.000172	1.719675	0.291321	0.000017
 675	6.7063e+01	6.7051	3.451210	0.000250	2.497623	0.423109	0.000025
 676	6.7162e+01	6.7110	3.469133	0.000180	1.801564	0.305193	0.000018
 677	6.7262e+01	6.7242	3.490722	0.000217	2.170066	0.367619	0.000022
 678	6.7362e+01	6.7295	3.511904	0.000213	2.129121	0.360683	0.000021
 679	6.7461e+01	6.7424	3.534308	0.000225	2.251955	0.381492	0.000023
 680	6.7561e+01	6.7531	3.554675	0.000205	2.047232	0.346811	0.000020
 681	6.7660e+01	6.7596	3.576671	0.000221	2.211011	0.374555	0.000022
 682	6.7760e+01	6.7725	3.595002	0.000184	1.842509	0.312129	0.000018
 683	6.7859e+01	6.7815	3.614554	0.000197	1.965343	0.332938	0.000020
 684	6.7959e+01	6.7939	3.636551	0.000221	2.211011	0.374555	0.000022
 685	6.8058e+01	6.8008	3.657325	0.000209	2.088177	0.353747	0.000021
 686	6.8157e+01	6.8120	3.673211	0.000160	1.596841	0.270512	0.000016
 687	6.8257e+01	6.8201	3.699281	0.000262	2.620457	0.443917	0.000026
 688	6.8356e+01	6.8304	3.715575	0.000164	1.637786	0.277448	0.000016
 689	6.8456e+01	6.8404	3.738386	0.000229	2.292900	0.388428	0.000023
 690	6.8555e+01	6.8506	3.757939	0.000197	1.965343	0.332938	0.000020
 691	6.8655e+01	6.8598	3.778306	0.000205	2.047232	0.346811	0.000020
 692	6.8754e+01	6.8716	3.802339	0.000242	2.415734	0.409236	0.000024
 693	6.8854e+01	6.8838	3.820669	0.000184	1.842509	0.312129	0.000018
 694	6.8954e+01	6.8902	3.839407	0.000188	1.883454	0.319066	0.000019
 695	6.9053e+01	6.8990	3.862626	0.000233	2.333845	0.395364	0.000023
 696	6.9153e+01	6.9117	3.877290	0.000147	1.474007	0.249704	0.000015
 697	6.9252e+01	6.9231	3.899694	0.000225	2.251955	0.381492	0.000023
 698	6.9352e+01	6.9331	3.915173	0.000156	1.555896	0.263576	0.000016
 699	6.9451e+01	6.9403	3.938391	0.000233	2.333845	0.395364	0.000023
 700	6.9550e+01	6.9499	3.957944	0.000197	1.965343	0.332938	0.000020
 701	6.9650e+01	6.9585	3.973423	0.000156	1.555896	0.263576	0.000016
 702	6.9749e+01	6.9714	3.996234	0.000229	2.292900	0.388428	0.000023
 703	6.9849e+01	6.9814	4.012935	0.000168	1.678730	0.284385	0.000017
 704	6.9948e+01	6.9915	4.032080	0.000192	1.924398	0.326002	0.000019
 705	7.0048e+01	6.9990	4.049596	0.000176	1.760620	0.298257	0.000018
 706	7.0147e+01	7.0086	4.066704	0.000172	1.719675	0.291321	0.000017
 707	7.0247e+01	7.0211	4.085442	0.000188	1.883454	0.319066	0.000019
 708	7.0347e+01	7.0298	4.107031	0.000217	2.170066	0.367619	0.000022
 709	7.0446e+01	7.0403	4.124140	0.000172	1.719675	0.291321	0.000017
 710	7.0546e+01	7.0485	4.144099	0.000201	2.006287	0.339874	0.000020
 711	7.0645e+01	7.0608	4.160800	0.000168	1.678730	0.284385	0.000017
 712	7.0745e+01	7.0693	4.179131	0.000184	1.842509	0.312129	0.000018
 713	7.0844e+01	7.0803	4.198276	0.000192	1.924398	0.326002	0.000019
 714	7.0944e+01	7.0907	4.216199	0.000180	1.801564	0.305193	0.000018
 715	7.1043e+01	7.1010	4.237788	0.000217	2.170066	0.367619	0.000022
 716	7.1142e+01	7.1120	4.253267	0.000156	1.555896	0.263576	0.000016
 717	7.1242e+01	7.1228	4.272005	0.000188	1.883454	0.319066	0.000019
 718	7.1341e+01	7.1296	4.290743	0.000188	1.883454	0.319066	0.000019
 719	7.1441e+01	7.1404	4.313554	0.000229	2.292900	0.388428	0.000023
 720	7.1540e+01	7.1494	4.330255	0.000168	1.678730	0.284385	0.000017
 721	7.1640e+01	7.1587	4.350215	0.000201	2.006287	0.339874	0.000020
 722	7.1740e+01	7.1691	4.371397	0.000213	2.129121	0.360683	0.000021
 723	7.1839e+01	7.1787	4.390949	0.000197	1.965343	0.332938	0.000020
 724	7.1939e+01	7.1899	4.412946	0.000221	2.211011	0.374555	0.000022
 725	7.2038e+01	7.1987	4.432905	0.000201	2.006287	0.339874	0.000020
 726	7.2138e+01	7.2124	4.452458	0.000197	1.965343	0.332938	0.000020
 727	7.2237e+01	7.2208	4.472418	0.000201	2.006287	0.339874	0.000020
 728	7.2337e+01	7.2305	4.490748	0.000184	1.842509	0.312129	0.000018
 729	7.2436e+01	7.2425	4.513966	0.000233	2.333845	0.395364	0.000023
 730	7.2535e+01	7.2499	4.535963	0.000221	2.211011	0.374555	0.000022
 731	7.2635e+01	7.2614	4.558774	0.000229	2.292900	0.388428	0.000023
 732	7.2734e+01	7.2686	4.575475	0.000168	1.678730	0.284385	0.000017
 733	7.2834e+01	7.2791	4.596657	0.000213	2.129121	0.360683	0.000021
 734	7.2933e+01	7.2895	4.615802	0.000192	1.924398	0.326002	0.000019
 735	7.3033e+01	7.2974	4.634947	0.000192	1.924398	0.326002	0.000019
 736	7.3132e+01	7.3093	4.651648	0.000168	1.678730	0.284385	0.000017
 737	7.3232e+01	7.3180	4.676089	0.000246	2.456679	0.416173	0.000025
 738	7.3332e+01	7.3273	4.696049	0.000201	2.006287	0.339874	0.000020
 739	7.3431e+01	7.3373	4.713972	0.000180	1.801564	0.305193	0.000018
 740	7.3531e+01	7.3493	4.728229	0.000143	1.433062	0.242767	0.000014
 741	7.3630e+01	7.3603	4.750225	0.000221	2.211011	0.374555	0.000022
 742	7.3730e+01	7.3706	4.771407	0.000213	2.129121	0.360683	0.000021
 743	7.3829e+01	7.3759	4.789737	0.000184	1.842509	0.312129	0.000018
 744	7.3928e+01	7.3885	4.811327	0.000217	2.170066	0.367619	0.000022
 745	7.4028e+01	7.3975	4.828028	0.000168	1.678730	0.284385	0.000017
 746	7.4127e+01	7.4098	4.847173	0.000192	1.924398	0.326002	0.000019
 747	7.4227e+01	7.4200	4.869984	0.000229	2.292900	0.388428	0.000023
 748	7.4326e+01	7.4276	4.887500	0.000176	1.760620	0.298257	0.000018
 749	7.4426e+01	7.4365	4.906645	0.000192	1.924398	0.326002	0.000019
 750	7.4525e+01	7.4470	4.927419	0.000209	2.088177	0.353747	0.000021
 751	7.4625e+01	7.4541	4.946564	0.000192	1.924398	0.326002	0.000019
 752	7.4725e+01	7.4679	4.966117	0.000197	1.965343	0.332938	0.000020
 753	7.4824e+01	7.4789	4.986484	0.000205	2.047232	0.346811	0.000020
 754	7.4924e+01	7.4879	5.005629	0.000192	1.924398	0.326002	0.000019
 755	7.5023e+01	7.4984	5.030069	0.000246	2.456679	0.416173	0.000025
 756	7.5123e+01	7.5069	5.050437	0.000205	2.047232	0.346811	0.000020
 757	7.5222e+01	7.5184	5.072840	0.000225	2.251955	0.381492	0.000023
 758	7.5322e+01	7.5287	5.092800	0.000201	2.006287	0.339874	0.000020
 759	7.5421e+01	7.5396	5.111131	0.000184	1.842509	0.312129	0.000018
 760	7.5520e+01	7.5488	5.133942	0.000229	2.292900	0.388428	0.000023
 761	7.5620e+01	7.5569	5.155938	0.000221	2.211011	0.374555	0.000022
 762	7.5719e+01	7.5674	5.180786	0.000250	2.497623	0.423109	0.000025
 763	7.5819e+01	7.5765	5.202783	0.000221	2.211011	0.374555	0.000022
 764	7.5918e+01	7.5880	5.219484	0.000168	1.678730	0.284385	0.000017
 765	7.6018e+01	7.5982	5.246368	0.000270	2.702346	0.457790	0.000027
 766	7.6118e+01	7.6057	5.267550	0.000213	2.129121	0.360683	0.000021
 767	7.6217e+01	7.6172	5.290361	0.000229	2.292900	0.388428	0.000023
 768	7.6317e+01	7.6257	5.311136	0.000209	2.088177	0.353747	0.000021
 769	7.6416e+01	7.6356	5.332725	0.000217	2.170066	0.367619	0.000022
 770	7.6516e+01	7.6451	5.351870	0.000192	1.924398	0.326002	0.000019
 771	7.6615e+01	7.6579	5.378347	0.000266	2.661402	0.450854	0.000027
 772	7.6715e+01	7.6663	5.398307	0.000201	2.006287	0.339874	0.000020
 773	7.6814e+01	7.6785	5.423155	0.000250	2.497623	0.423109	0.000025
 774	7.6913e+01	7.6862	5.442300	0.000192	1.924398	0.326002	0.000019
 775	7.7013e+01	7.6994	5.463889	0.000217	2.170066	0.367619	0.000022
 776	7.7112e+01	7.7069	5.489145	0.000254	2.538568	0.430045	0.000025
 777	7.7212e+01	7.7185	5.513178	0.000242	2.415734	0.409236	0.000024
 778	7.7311e+01	7.7235	5.530286	0.000172	1.719675	0.291321	0.000017
 779	7.7411e+01	7.7393	5.560429	0.000303	3.029904	0.513280	0.000030
 780	7.7510e+01	7.7478	5.577538	0.000172	1.719675	0.291321	0.000017
 781	7.7610e+01	7.7576	5.599127	0.000217	2.170066	0.367619	0.000022
 782	7.7710e+01	7.7662	5.625197	0.000262	2.620457	0.443917	0.000026
 783	7.7809e+01	7.7775	5.645971	0.000209	2.088177	0.353747	0.000021
 784	7.7909e+01	7.7854	5.671227	0.000254	2.538568	0.430045	0.000025
 785	7.8008e+01	7.7938	5.694853	0.000237	2.374789	0.402300	0.000024
 786	7.8108e+01	7.8067	5.723367	0.000287	2.866125	0.485535	0.000029
 787	7.8207e+01	7.8152	5.747400	0.000242	2.415734	0.409236	0.000024
 788	7.8306e+01	7.8259	5.768989	0.000217	2.170066	0.367619	0.000022
 789	7.8406e+01	7.8394	5.799132	0.000303	3.029904	0.513280	0.000030
 790	7.8505e+01	7.8467	5.824795	0.000258	2.579512	0.436981	0.000026
 791	7.8605e+01	7.8573	5.848421	0.000237	2.374789	0.402300	0.000024
 792	7.8704e+01	7.8660	5.872454	0.000242	2.415734	0.409236	0.000024
 793	7.8804e+01	7.8760	5.894450	0.000221	2.211011	0.374555	0.000022
 794	7.8903e+01	7.8839	5.921742	0.000274	2.743291	0.464726	0.000027
 795	7.9003e+01	7.8967	5.943331	0.000217	2.170066	0.367619	0.000022
 796	7.9103e+01	7.9065	5.969809	0.000266	2.661402	0.450854	0.000027
 797	7.9202e+01	7.9163	5.996286	0.000266	2.661402	0.450854	0.000027
 798	7.9302e+01	7.9269	6.018690	0.000225	2.251955	0.381492	0.000023
 799	7.9401e+01	7.9351	6.045167	0.000266	2.661402	0.450854	0.000027
 800	7.9501e+01	7.9448	6.067571	0.000225	2.251955	0.381492	0.000023
 801	7.9600e+01	7.9565	6.090382	0.000229	2.292900	0.388428	0.000023
 802	7.9700e+01	7.9663	6.114008	0.000237	2.374789	0.402300	0.000024
 803	7.9799e+01	7.9741	6.134782	0.000209	2.088177	0.353747	0.000021
 804	7.9898e+01	7.9864	6.157186	0.000225	2.251955	0.381492	0.000023
 805	7.9998e+01	7.9959	6.181627	0.000246	2.456679	0.416173	0.000025
 806	8.0097e+01	8.0062	6.203216	0.000217	2.170066	0.367619	0.000022
 807	8.0197e+01	8.0132	6.229286	0.000262	2.620457	0.443917	0.000026
 808	8.0296e+01	8.0225	6.252097	0.000229	2.292900	0.388428	0.000023
 809	8.0396e+01	8.0336	6.270020	0.000180	1.801564	0.305193	0.000018
 810	8.0496e+01	8.0459	6.294461	0.000246	2.456679	0.416173	0.000025
 811	8.0595e+01	8.0566	6.314828	0.000205	2.047232	0.346811	0.000020
 812	8.0695e+01	8.0623	6.338046	0.000233	2.333845	0.395364	0.000023
 813	8.0794e+01	8.0748	6.357599	0.000197	1.965343	0.332938	0.000020
 814	8.0894e+01	8.0848	6.381632	0.000242	2.415734	0.409236	0.000024
 815	8.0993e+01	8.0974	6.403221	0.000217	2.170066	0.367619	0.000022
 816	8.1093e+01	8.1055	6.424810	0.000217	2.170066	0.367619	0.000022
 817	8.1192e+01	8.1153	6.450880	0.000262	2.620457	0.443917	0.000026
 818	8.1291e+01	8.1268	6.474914	0.000242	2.415734	0.409236	0.000024
 819	8.1391e+01	8.1356	6.496503	0.000217	2.170066	0.367619	0.000022
 820	8.1490e+01	8.1462	6.519314	0.000229	2.292900	0.388428	0.000023
 821	8.1590e+01	8.1548	6.543347	0.000242	2.415734	0.409236	0.000024
 822	8.1689e+01	8.1646	6.569824	0.000266	2.661402	0.450854	0.000027
 823	8.1789e+01	8.1742	6.597116	0.000274	2.743291	0.464726	0.000027
 824	8.1888e+01	8.1856	6.617483	0.000205	2.047232	0.346811	0.000020
 825	8.1988e+01	8.1947	6.637851	0.000205	2.047232	0.346811	0.000020
 826	8.2088e+01	8.2047	6.662698	0.000250	2.497623	0.423109	0.000025
 827	8.2187e+01	8.2143	6.685102	0.000225	2.251955	0.381492	0.000023
 828	8.2287e+01	8.2263	6.707099	0.000221	2.211011	0.374555	0.000022
 829	8.2386e+01	8.2339	6.732354	0.000254	2.538568	0.430045	0.000025
 830	8.2486e+01	8.2438	6.758017	0.000258	2.579512	0.436981	0.000026
 831	8.2585e+01	8.2523	6.777976	0.000201	2.006287	0.339874	0.000020
 832	8.2684e+01	8.2649	6.805268	0.000274	2.743291	0.464726	0.000027
 833	8.2784e+01	8.2722	6.832968	0.000278	2.784236	0.471662	0.000028
 834	8.2883e+01	8.2864	6.851298	0.000184	1.842509	0.312129	0.000018
 835	8.2983e+01	8.2950	6.873702	0.000225	2.251955	0.381492	0.000023
 836	8.3082e+01	8.3023	6.898142	0.000246	2.456679	0.416173	0.000025
 837	8.3182e+01	8.3138	6.922176	0.000242	2.415734	0.409236	0.000024
 838	8.3281e+01	8.3237	6.943765	0.000217	2.170066	0.367619	0.000022
 839	8.3381e+01	8.3329	6.964539	0.000209	2.088177	0.353747	0.000021
 840	8.3481e+01	8.3447	6.988980	0.000246	2.456679	0.416173	0.000025
 841	8.3580e+01	8.3545	7.009347	0.000205	2.047232	0.346811	0.000020
 842	8.3680e+01	8.3639	7.033788	0.000246	2.456679	0.416173	0.000025
 843	8.3779e+01	8.3731	7.052933	0.000192	1.924398	0.326002	0.000019
 844	8.3879e+01	8.3825	7.078188	0.000254	2.538568	0.430045	0.000025
 845	8.3978e+01	8.3954	7.100184	0.000221	2.211011	0.374555	0.000022
 846	8.4078e+01	8.4045	7.124625	0.000246	2.456679	0.416173	0.000025
 847	8.4177e+01	8.4133	7.142141	0.000176	1.760620	0.298257	0.000018
 848	8.4276e+01	8.4232	7.163730	0.000217	2.170066	0.367619	0.000022
 849	8.4376e+01	8.4364	7.186541	0.000229	2.292900	0.388428	0.000023
 850	8.4475e+01	8.4458	7.210982	0.000246	2.456679	0.416173	0.000025
 851	8.4575e+01	8.4556	7.233385	0.000225	2.251955	0.381492	0.000023
 852	8.4674e+01	8.4627	7.255789	0.000225	2.251955	0.381492	0.000023
 853	8.4774e+01	8.4734	7.274934	0.000192	1.924398	0.326002	0.000019
 854	8.4874e+01	8.4824	7.296523	0.000217	2.170066	0.367619	0.000022
 855	8.4973e+01	8.4925	7.318927	0.000225	2.251955	0.381492	0.000023
 856	8.5073e+01	8.5035	7.338072	0.000192	1.924398	0.326002	0.000019
 857	8.5172e+01	8.5115	7.362513	0.000246	2.456679	0.416173	0.000025
 858	8.5272e+01	8.5223	7.384917	0.000225	2.251955	0.381492	0.000023
 859	8.5371e+01	8.5323	7.405691	0.000209	2.088177	0.353747	0.000021
 860	8.5471e+01	8.5425	7.432169	0.000266	2.661402	0.450854	0.000027
 861	8.5570e+01	8.5529	7.453758	0.000217	2.170066	0.367619	0.000022
 862	8.5669e+01	8.5624	7.475347	0.000217	2.170066	0.367619	0.000022
 863	8.5769e+01	8.5744	7.497343	0.000221	2.211011	0.374555	0.000022
 864	8.5868e+01	8.5825	7.520969	0.000237	2.374789	0.402300	0.000024
 865	8.5968e+01	8.5932	7.542558	0.000217	2.170066	0.367619	0.000022
 866	8.6067e+01	8.6037	7.559667	0.000172	1.719675	0.291321	0.000017
 867	8.6167e+01	8.6134	7.585737	0.000262	2.620457	0.443917	0.000026
 868	8.6266e+01	8.6224	7.604882	0.000192	1.924398	0.326002	0.000019
 869	8.6366e+01	8.6328	7.626471	0.000217	2.170066	0.367619	0.000022
 870	8.6466e+01	8.6441	7.642357	0.000160	1.596841	0.270512	0.000016
 871	8.6565e+01	8.6539	7.667613	0.000254	2.538568	0.430045	0.000025
 872	8.6665e+01	8.6621	7.689202	0.000217	2.170066	0.367619	0.000022
 873	8.6764e+01	8.6738	7.706310	0.000172	1.719675	0.291321	0.000017
 874	8.6864e+01	8.6831	7.732787	0.000266	2.661402	0.450854	0.000027
 875	8.6963e+01	8.6946	7.753562	0.000209	2.088177	0.353747	0.000021
 876	8.7063e+01	8.7017	7.774744	0.000213	2.129121	0.360683	0.000021
 877	8.7162e+01	8.7129	7.794296	0.000197	1.965343	0.332938	0.000020
 878	8.7261e+01	8.7237	7.819144	0.000250	2.497623	0.423109	0.000025
 879	8.7361e+01	8.7332	7.838289	0.000192	1.924398	0.326002	0.000019
 880	8.7460e+01	8.7383	7.857027	0.000188	1.883454	0.319066	0.000019
 881	8.7560e+01	8.7559	7.879431	0.000225	2.251955	0.381492	0.000023
 882	8.7659e+01	8.7608	7.900205	0.000209	2.088177	0.353747	0.000021
 883	8.7759e+01	8.7720	7.922202	0.000221	2.211011	0.374555	0.000022
 884	8.7859e+01	8.7827	7.940939	0.000188	1.883454	0.319066	0.000019
 885	8.7958e+01	8.7912	7.967824	0.000270	2.702346	0.457790	0.000027
 886	8.8058e+01	8.8004	7.986154	0.000184	1.842509	0.312129	0.000018
 887	8.8157e+01	8.8122	8.011002	0.000250	2.497623	0.423109	0.000025
 888	8.8257e+01	8.8217	8.030962	0.000201	2.006287	0.339874	0.000020
 889	8.8356e+01	8.8316	8.056625	0.000258	2.579512	0.436981	0.000026
 890	8.8456e+01	8.8404	8.081065	0.000246	2.456679	0.416173	0.000025
 891	8.8555e+01	8.8489	8.104691	0.000237	2.374789	0.402300	0.000024
 892	8.8654e+01	8.8612	8.129132	0.000246	2.456679	0.416173	0.000025
 893	8.8754e+01	8.8721	8.148277	0.000192	1.924398	0.326002	0.000019
 894	8.8853e+01	8.8809	8.174754	0.000266	2.661402	0.450854	0.000027
 895	8.8953e+01	8.8905	8.195936	0.000213	2.129121	0.360683	0.000021
 896	8.9052e+01	8.9019	8.221191	0.000254	2.538568	0.430045	0.000025
 897	8.9152e+01	8.9111	8.243188	0.000221	2.211011	0.374555	0.000022
 898	8.9251e+01	8.9178	8.273331	0.000303	3.029904	0.513280	0.000030
 899	8.9351e+01	8.9310	8.294513	0.000213	2.129121	0.360683	0.000021
 900	8.9451e+01	8.9407	8.319361	0.000250	2.497623	0.423109	0.000025
 901	8.9550e+01	8.9491	8.342172	0.000229	2.292900	0.388428	0.000023
 902	8.9650e+01	8.9613	8.366612	0.000246	2.456679	0.416173	0.000025
 903	8.9749e+01	8.9688	8.393497	0.000270	2.702346	0.457790	0.000027
 904	8.9849e+01	8.9783	8.411827	0.000184	1.842509	0.312129	0.000018
 905	8.9948e+01	8.9906	8.435453	0.000237	2.374789	0.402300	0.000024
 906	9.0047e+01	9.0024	8.458672	0.000233	2.333845	0.395364	0.000023
 907	9.0147e+01	9.0099	8.482298	0.000237	2.374789	0.402300	0.000024
 908	9.0246e+01	9.0177	8.507553	0.000254	2.538568	0.430045	0.000025
 909	9.0346e+01	9.0308	8.531993	0.000246	2.456679	0.416173	0.000025
 910	9.0445e+01	9.0395	8.557249	0.000254	2.538568	0.430045	0.000025
 911	9.0545e+01	9.0488	8.586170	0.000291	2.907070	0.492471	0.000029
 912	9.0644e+01	9.0599	8.609796	0.000237	2.374789	0.402300	0.000024
 913	9.0744e+01	9.0683	8.633829	0.000242	2.415734	0.409236	0.000024
 914	9.0844e+01	9.0784	8.661936	0.000283	2.825180	0.478599	0.000028
 915	9.0943e+01	9.0891	8.684340	0.000225	2.251955	0.381492	0.000023
 916	9.1043e+01	9.1000	8.710817	0.000266	2.661402	0.450854	0.000027
 917	9.1142e+01	9.1068	8.739331	0.000287	2.866125	0.485535	0.000029
 918	9.1242e+01	9.1196	8.764993	0.000258	2.579512	0.436981	0.000026
 919	9.1341e+01	9.1321	8.790656	0.000258	2.579512	0.436981	0.000026
 920	9.1441e+01	9.1415	8.820799	0.000303	3.029904	0.513280	0.000030
 921	9.1540e+01	9.1504	8.848091	0.000274	2.743291	0.464726	0.000027
 922	9.1639e+01	9.1595	8.873346	0.000254	2.538568	0.430045	0.000025
 923	9.1739e+01	9.1705	8.902675	0.000295	2.948014	0.499407	0.000029
 924	9.1838e+01	9.1797	8.927116	0.000246	2.456679	0.416173	0.000025
 925	9.1938e+01	9.1879	8.958074	0.000311	3.111793	0.527152	0.000031
 926	9.2037e+01	9.1973	8.982922	0.000250	2.497623	0.423109	0.000025
 927	9.2137e+01	9.2084	9.013880	0.000311	3.111793	0.527152	0.000031
 928	9.2237e+01	9.2188	9.039542	0.000258	2.579512	0.436981	0.000026
 929	9.2336e+01	9.2274	9.066834	0.000274	2.743291	0.464726	0.000027
 930	9.2436e+01	9.2372	9.095348	0.000287	2.866125	0.485535	0.000029
 931	9.2535e+01	9.2505	9.119381	0.000242	2.415734	0.409236	0.000024
 932	9.2635e+01	9.2599	9.149525	0.000303	3.029904	0.513280	0.000030
 933	9.2734e+01	9.2691	9.182519	0.000332	3.316516	0.561833	0.000033
 934	9.2834e+01	9.2773	9.213070	0.000307	3.070848	0.520216	0.000031
 935	9.2933e+01	9.2862	9.238325	0.000254	2.538568	0.430045	0.000025
 936	9.3032e+01	9.2969	9.268876	0.000307	3.070848	0.520216	0.000031
 937	9.3132e+01	9.3101	9.297797	0.000291	2.907070	0.492471	0.000029
 938	9.3231e+01	9.3177	9.328348	0.000307	3.070848	0.520216	0.000031
 939	9.3331e+01	9.3283	9.356862	0.000287	2.866125	0.485535	0.000029
 940	9.3430e+01	9.3384	9.385783	0.000291	2.907070	0.492471	0.000029
 941	9.3530e+01	9.3500	9.410224	0.000246	2.456679	0.416173	0.000025
 942	9.3629e+01	9.3616	9.441182	0.000311	3.111793	0.527152	0.000031
 943	9.3729e+01	9.3691	9.470103	0.000291	2.907070	0.492471	0.000029
 944	9.3829e+01	9.3777	9.497803	0.000278	2.784236	0.471662	0.000028
 945	9.3928e+01	9.3896	9.525502	0.000278	2.784236	0.471662	0.000028
 946	9.4028e+01	9.3994	9.553201	0.000278	2.784236	0.471662	0.000028
 947	9.4127e+01	9.4073	9.585381	0.000323	3.234627	0.547961	0.000032
 948	9.4227e+01	9.4180	9.616747	0.000315	3.152737	0.534088	0.000032
 949	9.4326e+01	9.4263	9.648927	0.000323	3.234627	0.547961	0.000032
 950	9.4425e+01	9.4367	9.679885	0.000311	3.111793	0.527152	0.000031
 951	9.4525e+01	9.4508	9.715731	0.000360	3.603129	0.610387	0.000036
 952	9.4624e+01	9.4572	9.751984	0.000364	3.644073	0.617323	0.000036
 953	9.4724e+01	9.4678	9.782535	0.000307	3.070848	0.520216	0.000031
 954	9.4823e+01	9.4788	9.817567	0.000352	3.521239	0.596514	0.000035
 955	9.4923e+01	9.4910	9.852598	0.000352	3.521239	0.596514	0.000035
 956	9.5022e+01	9.4985	9.884778	0.000323	3.234627	0.547961	0.000032
 957	9.5122e+01	9.5068	9.917365	0.000328	3.275571	0.554897	0.000033
 958	9.5222e+01	9.5171	9.946694	0.000295	2.948014	0.499407	0.000029
 959	9.5321e+01	9.5242	9.979689	0.000332	3.316516	0.561833	0.000033
 960	9.5421e+01	9.5361	10.009018	0.000295	2.948014	0.499407	0.000029
 961	9.5520e+01	9.5474	10.043642	0.000348	3.480295	0.589578	0.000035
 962	9.5620e+01	9.5536	10.072970	0.000295	2.948014	0.499407	0.000029
 963	9.5719e+01	9.5679	10.103928	0.000311	3.111793	0.527152	0.000031
 964	9.5819e+01	9.5764	10.134886	0.000311	3.111793	0.527152	0.000031
 965	9.5918e+01	9.5851	10.169918	0.000352	3.521239	0.596514	0.000035
 966	9.6017e+01	9.5969	10.200061	0.000303	3.029904	0.513280	0.000030
 967	9.6117e+01	9.6059	10.231019	0.000311	3.111793	0.527152	0.000031
 968	9.6216e+01	9.6156	10.263607	0.000328	3.275571	0.554897	0.000033
 969	9.6316e+01	9.6259	10.290491	0.000270	2.702346	0.457790	0.000027
 970	9.6415e+01	9.6345	10.324301	0.000340	3.398405	0.575705	0.000034
 971	9.6515e+01	9.6470	10.356888	0.000328	3.275571	0.554897	0.000033
 972	9.6615e+01	9.6599	10.393142	0.000364	3.644073	0.617323	0.000036
 973	9.6714e+01	9.6651	10.425729	0.000328	3.275571	0.554897	0.000033
 974	9.6814e+01	9.6741	10.453428	0.000278	2.784236	0.471662	0.000028
 975	9.6913e+01	9.6872	10.491311	0.000381	3.807852	0.645068	0.000038
 976	9.7013e+01	9.6955	10.527972	0.000369	3.685018	0.624259	0.000037
 977	9.7112e+01	9.7070	10.557708	0.000299	2.988959	0.506343	0.000030
 978	9.7212e+01	9.7186	10.596813	0.000393	3.930686	0.665876	0.000039
 979	9.7311e+01	9.7257	10.626549	0.000299	2.988959	0.506343	0.000030
 980	9.7410e+01	9.7351	10.661173	0.000348	3.480295	0.589578	0.000035
 981	9.7510e+01	9.7455	10.694168	0.000332	3.316516	0.561833	0.000033
 982	9.7609e+01	9.7559	10.727162	0.000332	3.316516	0.561833	0.000033
 983	9.7709e+01	9.7683	10.763823	0.000369	3.685018	0.624259	0.000037
 984	9.7808e+01	9.7754	10.804558	0.000409	4.094464	0.693621	0.000041
 985	9.7908e+01	9.7878	10.840811	0.000364	3.644073	0.617323	0.000036
 986	9.8007e+01	9.7936	10.880731	0.000401	4.012575	0.679749	0.000040
 987	9.8107e+01	9.8039	10.918613	0.000381	3.807852	0.645068	0.000038
 988	9.8207e+01	9.8159	10.952423	0.000340	3.398405	0.575705	0.000034
 989	9.8306e+01	9.8254	10.989898	0.000377	3.766907	0.638131	0.000038
 990	9.8406e+01	9.8358	11.029003	0.000393	3.930686	0.665876	0.000039
 991	9.8505e+01	9.8471	11.070960	0.000422	4.217298	0.714430	0.000042
 992	9.8605e+01	9.8584	11.108842	0.000381	3.807852	0.645068	0.000038
 993	9.8704e+01	9.8663	11.149984	0.000414	4.135409	0.700557	0.000041
 994	9.8803e+01	9.8755	11.193570	0.000438	4.381077	0.742174	0.000044
 995	9.8903e+01	9.8833	11.231860	0.000385	3.848796	0.652004	0.000038
 996	9.9002e+01	9.8964	11.269335	0.000377	3.766907	0.638131	0.000038
 997	9.9102e+01	9.9032	11.310477	0.000414	4.135409	0.700557	0.000041
 998	9.9201e+01	9.9134	11.350397	0.000401	4.012575	0.679749	0.000040
 999	9.9301e+01	9.9248	11.393575	0.000434	4.340132	0.735238	0.000043
1000	9.9400e+01	9.9341	11.429828	0.000364	3.644073	0.617323	0.000036
1001	9.9500e+01	9.9445	11.467711	0.000381	3.807852	0.645068	0.000038
1002	9.9600e+01	9.9541	11.507223	0.000397	3.971630	0.672812	0.000040
1003	9.9699e+01	9.9676	11.542662	0.000356	3.562184	0.603450	0.000036
1004	9.9799e+01	9.9725	11.582174	0.000397	3.971630	0.672812	0.000040
1005	9.9898e+01	9.9854	11.622501	0.000405	4.053520	0.686685	0.000041
1006	9.9998e+01	9.9945	11.668124	0.000459	4.585800	0.776856	0.000046
1007	1.0010e+02	9.9841	11.674234	-0.000061	-0.614170	-0.104043	0.000006
1008	1.0020e+02	9.9741	11.683603	-0.000094	-0.941727	-0.159533	0.000009
1009	1.0030e+02	9.9639	11.690935	-0.000074	-0.737004	-0.124852	0.000007
1010	1.0040e+02	9.9554	11.697860	-0.000070	-0.696059	-0.117916	0.000007
1011	1.0050e+02	9.9429	11.697045	0.000008	0.081889	0.013872	-0.000001
1012	1.0059e+02	9.9335	11.704785	-0.000078	-0.777948	-0.131788	0.000008
1013	1.0069e+02	9.9250	11.707636	-0.000029	-0.286612	-0.048553	0.000003
1014	1.0079e+02	9.9129	11.707229	0.000004	0.040945	0.006936	-0.000000
1015	1.0089e+02	9.9042	11.710487	-0.000033	-0.327557	-0.055490	0.000003
1016	1.0099e+02	9.8966	11.712931	-0.000025	-0.245668	-0.041617	0.000002
1017	1.0109e+02	9.8832	11.712524	0.000004	0.040945	0.006936	-0.000000
1018	1.0119e+02	9.8746	11.715783	-0.000033	-0.327557	-0.055490	0.000003
1019	1.0129e+02	9.8664	11.716597	-0.000008	-0.081889	-0.013872	0.000001
1020	1.0139e+02	9.8573	11.720264	-0.000037	-0.368502	-0.062426	0.000004
1021	1.0149e+02	9.8473	11.717820	0.000025	0.245668	0.041617	-0.000002
1022	1.0159e+02	9.8364	11.717412	0.000004	0.040945	0.006936	-0.000000
1023	1.0169e+02	9.8242	11.716597	0.000008	0.081889	0.013872	-0.000001
1024	1.0179e+02	9.8145	11.714153	0.000025	0.245668	0.041617	-0.000002
1025	1.0189e+02	9.8071	11.712117	0.000020	0.204723	0.034681	-0.000002
1026	1.0199e+02	9.8005	11.714153	-0.000020	-0.204723	-0.034681	0.000002
1027	1.0209e+02	9.7852	11.714968	-0.000008	-0.081889	-0.013872	0.000001
1028	1.0219e+02	9.7729	11.710487	0.000045	0.450391	0.076298	-0.000005
1029	1.0229e+02	9.7656	11.710487	-0.000000	-0.000000	-0.000000	0.000000
1030	1.0239e+02	9.7565	11.708043	0.000025	0.245668	0.041617	-0.000002
1031	1.0248e+02	9.7439	11.702340	0.000057	0.573225	0.097107	-0.000006
1032	1.0258e+02	9.7357	11.700304	0.000020	0.204723	0.034681	-0.000002
1033	1.0268e+02	9.7268	11.695008	0.000053	0.532280	0.090171	-0.000005
1034	1.0278e+02	9.7153	11.690935	0.000041	0.409446	0.069362	-0.000004
1035	1.0288e+02	9.7055	11.681973	0.000090	0.900782	0.152597	-0.000009
1036	1.0298e+02	9.6985	11.673827	0.000082	0.818893	0.138724	-0.000008
1037	1.0308e+02	9.6886	11.664865	0.000090	0.900782	0.152597	-0.000009
1038	1.0318e+02	9.6754	11.657940	0.000070	0.696059	0.117916	-0.000007
1039	1.0328e+02	9.6674	11.646942	0.000111	1.105505	0.187278	-0.000011
1040	1.0338e+02	9.6582	11.643276	0.000037	0.368502	0.062426	-0.000004
1041	1.0348e+02	9.6449	11.631056	0.000123	1.228339	0.208086	-0.000012
1042	1.0358e+02	9.6341	11.626575	0.000045	0.450391	0.076298	-0.000005
1043	1.0368e+02	9.6265	11.622909	0.000037	0.368502	0.062426	-0.000004
1044	1.0378e+02	9.6154	11.608244	0.000147	1.474007	0.249704	-0.000015
1045	1.0388e+02	9.6054	11.600505	0.000078	0.777948	0.131788	-0.000008
1046	1.0398e+02	9.5976	11.587877	0.000127	1.269284	0.215023	-0.000013
1047	1.0408e+02	9.5858	11.579730	0.000082	0.818893	0.138724	-0.000008
1048	1.0418e+02	9.5759	11.571991	0.000078	0.777948	0.131788	-0.000008
1049	1.0428e+02	9.5663	11.554882	0.000172	1.719675	0.291321	-0.000017
1050	1.0438e+02	9.5557	11.545921	0.000090	0.900782	0.152597	-0.000009
1051	1.0447e+02	9.5480	11.532886	0.000131	1.310229	0.221959	-0.000013
1052	1.0457e+02	9.5374	11.527591	0.000053	0.532280	0.090171	-0.000005
1053	1.0467e+02	9.5264	11.513334	0.000143	1.433062	0.242767	-0.000014
1054	1.0477e+02	9.5172	11.502743	0.000106	1.064561	0.180341	-0.000011
1055	1.0487e+02	9.5061	11.491744	0.000111	1.105505	0.187278	-0.000011
1056	1.0497e+02	9.4952	11.484820	0.000070	0.696059	0.117916	-0.000007
1057	1.0507e+02	9.4875	11.471785	0.000131	1.310229	0.221959	-0.000013
1058	1.0517e+02	9.4775	11.461194	0.000106	1.064561	0.180341	-0.000011
1059	1.0527e+02	9.4678	11.451010	0.000102	1.023616	0.173405	-0.000010
1060	1.0537e+02	9.4570	11.442456	0.000086	0.859837	0.145660	-0.000009
1061	1.0547e+02	9.4465	11.430643	0.000119	1.187395	0.201150	-0.000012
1062	1.0557e+02	9.4389	11.420459	0.000102	1.023616	0.173405	-0.000010
1063	1.0567e+02	9.4276	11.411905	0.000086	0.859837	0.145660	-0.000009
1064	1.0577e+02	9.4190	11.404166	0.000078	0.777948	0.131788	-0.000008
1065	1.0587e+02	9.4092	11.394797	0.000094	0.941727	0.159533	-0.000009
1066	1.0597e+02	9.3977	11.385835	0.000090	0.900782	0.152597	-0.000009
1067	1.0607e+02	9.3906	11.378096	0.000078	0.777948	0.131788	-0.000008
1068	1.0617e+02	9.3788	11.369949	0.000082	0.818893	0.138724	-0.000008
1069	1.0627e+02	9.3690	11.360173	0.000098	0.982671	0.166469	-0.000010
1070	1.0637e+02	9.3613	11.348360	0.000119	1.187395	0.201150	-0.000012
1071	1.0647e+02	9.3484	11.339398	0.000090	0.900782	0.152597	-0.000009
1072	1.0656e+02	9.3388	11.329622	0.000098	0.982671	0.166469	-0.000010
1073	1.0666e+02	9.3264	11.315772	0.000139	1.392118	0.235831	-0.000014
1074	1.0676e+02	9.3164	11.305589	0.000102	1.023616	0.173405	-0.000010
1075	1.0686e+02	9.3121	11.294998	0.000106	1.064561	0.180341	-0.000011
1076	1.0696e+02	9.2984	11.283185	0.000119	1.187395	0.201150	-0.000012
1077	1.0706e+02	9.2886	11.271372	0.000119	1.187395	0.201150	-0.000012
1078	1.0716e+02	9.2773	11.253856	0.000176	1.760620	0.298257	-0.000018
1079	1.0726e+02	9.2654	11.244895	0.000090	0.900782	0.152597	-0.000009
1080	1.0736e+02	9.2587	11.233489	0.000115	1.146450	0.194214	-0.000011
1081	1.0746e+02	9.2476	11.221269	0.000123	1.228339	0.208086	-0.000012
1082	1.0756e+02	9.2398	11.211900	0.000094	0.941727	0.159533	-0.000009
1083	1.0766e+02	9.2294	11.195606	0.000164	1.637786	0.277448	-0.000016
1084	1.0776e+02	9.2169	11.186237	0.000094	0.941727	0.159533	-0.000009
1085	1.0786e+02	9.2101	11.175647	0.000106	1.064561	0.180341	-0.000011
1086	1.0796e+02	9.1987	11.164241	0.000115	1.146450	0.194214	-0.000011
1087	1.0806e+02	9.1898	11.147540	0.000168	1.678730	0.284385	-0.000017
1088	1.0816e+02	9.1785	11.136542	0.000111	1.105505	0.187278	-0.000011
1089	1.0826e+02	9.1666	11.122285	0.000143	1.433062	0.242767	-0.000014
1090	1.0836e+02	9.1596	11.110064	0.000123	1.228339	0.208086	-0.000012
1091	1.0845e+02	9.1486	11.094178	0.000160	1.596841	0.270512	-0.000016
1092	1.0855e+02	9.1409	11.079921	0.000143	1.433062	0.242767	-0.000014
1093	1.0865e+02	9.1296	11.066479	0.000135	1.351173	0.228895	-0.000014
1094	1.0875e+02	9.1164	11.049778	0.000168	1.678730	0.284385	-0.000017
1095	1.0885e+02	9.1095	11.033077	0.000168	1.678730	0.284385	-0.000017
1096	1.0895e+02	9.1003	11.020449	0.000127	1.269284	0.215023	-0.000013
1097	1.0905e+02	9.0888	11.005785	0.000147	1.474007	0.249704	-0.000015
1098	1.0915e+02	9.0820	10.991528	0.000143	1.433062	0.242767	-0.000014
1099	1.0925e+02	9.0697	10.977271	0.000143	1.433062	0.242767	-0.000014
1100	1.0935e+02	9.0598	10.963014	0.000143	1.433062	0.242767	-0.000014
1101	1.0945e+02	9.0530	10.950386	0.000127	1.269284	0.215023	-0.000013
1102	1.0955e+02	9.0398	10.935722	0.000147	1.474007	0.249704	-0.000015
1103	1.0965e+02	9.0292	10.919835	0.000160	1.596841	0.270512	-0.000016
1104	1.0975e+02	9.0210	10.907208	0.000127	1.269284	0.215023	-0.000013
1105	1.0985e+02	9.0105	10.889692	0.000176	1.760620	0.298257	-0.000018
1106	1.0995e+02	8.9990	10.876657	0.000131	1.310229	0.221959	-0.000013
1107	1.1005e+02	8.9909	10.859956	0.000168	1.678730	0.284385	-0.000017
1108	1.1015e+02	8.9796	10.849365	0.000106	1.064561	0.180341	-0.000011
1109	1.1025e+02	8.9687	10.834701	0.000147	1.474007	0.249704	-0.000015
1110	1.1035e+02	8.9590	10.818000	0.000168	1.678730	0.284385	-0.000017
1111	1.1044e+02	8.9507	10.801299	0.000168	1.678730	0.284385	-0.000017
1112	1.1054e+02	8.9380	10.790708	0.000106	1.064561	0.180341	-0.000011
1113	1.1064e+02	8.9307	10.775229	0.000156	1.555896	0.263576	-0.000016
1114	1.1074e+02	8.9188	10.756084	0.000192	1.924398	0.326002	-0.000019
1115	1.1084e+02	8.9072	10.745085	0.000111	1.105505	0.187278	-0.000011
1116	1.1094e+02	8.8990	10.730421	0.000147	1.474007	0.249704	-0.000015
1117	1.1104e+02	8.8892	10.716572	0.000139	1.392118	0.235831	-0.000014
1118	1.1114e+02	8.8794	10.703944	0.000127	1.269284	0.215023	-0.000013
1119	1.1124e+02	8.8721	10.688872	0.000151	1.514952	0.256640	-0.000015
1120	1.1134e+02	8.8605	10.677467	0.000115	1.146450	0.194214	-0.000011
1121	1.1144e+02	8.8479	10.663617	0.000139	1.392118	0.235831	-0.000014
1122	1.1154e+02	8.8397	10.651397	0.000123	1.228339	0.208086	-0.000012
1123	1.1164e+02	8.8295	10.639584	0.000119	1.187395	0.201150	-0.000012
1124	1.1174e+02	8.8205	10.628993	0.000106	1.064561	0.180341	-0.000011
1125	1.1184e+02	8.8139	10.615143	0.000139	1.392118	0.235831	-0.000014
1126	1.1194e+02	8.8032	10.601701	0.000135	1.351173	0.228895	-0.000014
1127	1.1204e+02	8.7913	10.588666	0.000131	1.310229	0.221959	-0.000013
1128	1.1214e+02	8.7817	10.573594	0.000151	1.514952	0.256640	-0.000015
1129	1.1224e+02	8.7713	10.559337	0.000143	1.433062	0.242767	-0.000014
1130	1.1234e+02	8.7622	10.547932	0.000115	1.146450	0.194214	-0.000011
1131	1.1244e+02	8.7537	10.534489	0.000135	1.351173	0.228895	-0.000014
1132	1.1253e+02	8.7412	10.520640	0.000139	1.392118	0.235831	-0.000014
1133	1.1263e+02	8.7326	10.507197	0.000135	1.351173	0.228895	-0.000014
1134	1.1273e+02	8.7198	10.491718	0.000156	1.555896	0.263576	-0.000016
1135	1.1283e+02	8.7131	10.479091	0.000127	1.269284	0.215023	-0.000013
1136	1.1293e+02	8.7022	10.465241	0.000139	1.392118	0.235831	-0.000014
1137	1.1303e+02	8.6914	10.454650	0.000106	1.064561	0.180341	-0.000011
1138	1.1313e+02	8.6822	10.436727	0.000180	1.801564	0.305193	-0.000018
1139	1.1323e+02	8.6731	10.423285	0.000135	1.351173	0.228895	-0.000014
1140	1.1333e+02	8.6647	10.409028	0.000143	1.433062	0.242767	-0.000014
1141	1.1343e+02	8.6548	10.393956	0.000151	1.514952	0.256640	-0.000015
1142	1.1353e+02	8.6419	10.376848	0.000172	1.719675	0.291321	-0.000017
1143	1.1363e+02	8.6336	10.362998	0.000139	1.392118	0.235831	-0.000014
1144	1.1373e+02	8.6211	10.346297	0.000168	1.678730	0.284385	-0.000017
1145	1.1383e+02	8.6138	10.329189	0.000172	1.719675	0.291321	-0.000017
1146	1.1393e+02	8.6027	10.312895	0.000164	1.637786	0.277448	-0.000016
1147	1.1403e+02	8.5938	10.298638	0.000143	1.433062	0.242767	-0.000014
1148	1.1413e+02	8.5831	10.284381	0.000143	1.433062	0.242767	-0.000014
1149	1.1423e+02	8.5722	10.268902	0.000156	1.555896	0.263576	-0.000016
1150	1.1433e+02	8.5648	10.251794	0.000172	1.719675	0.291321	-0.000017
1151	1.1442e+02	8.5542	10.236315	0.000156	1.555896	0.263576	-0.000016
1152	1.1452e+02	8.5425	10.220021	0.000164	1.637786	0.277448	-0.000016
1153	1.1462e+02	8.5332	10.207393	0.000127	1.269284	0.215023	-0.000013
1154	1.1472e+02	8.5201	10.188248	0.000192	1.924398	0.326002	-0.000019
1155	1.1482e+02	8.5156	10.175213	0.000131	1.310229	0.221959	-0.000013
1156	1.1492e+02	8.5014	10.161364	0.000139	1.392118	0.235831	-0.000014
1157	1.1502e+02	8.4925	10.148736	0.000127	1.269284	0.215023	-0.000013
1158	1.1512e+02	8.4821	10.135294	0.000135	1.351173	0.228895	-0.000014
1159	1.1522e+02	8.4751	10.115741	0.000197	1.965343	0.332938	-0.000020
1160	1.1532e+02	8.4605	10.103521	0.000123	1.228339	0.208086	-0.000012
1161	1.1542e+02	8.4540	10.084783	0.000188	1.883454	0.319066	-0.000019
1162	1.1552e+02	8.4431	10.071341	0.000135	1.351173	0.228895	-0.000014
1163	1.1562e+02	8.4347	10.055047	0.000164	1.637786	0.277448	-0.000016
1164	1.1572e+02	8.4229	10.042827	0.000123	1.228339	0.208086	-0.000012
1165	1.1582e+02	8.4116	10.030607	0.000123	1.228339	0.208086	-0.000012
1166	1.1592e+02	8.4035	10.007795	0.000229	2.292900	0.388428	-0.000023
1167	1.1602e+02	8.3908	9.993946	0.000139	1.392118	0.235831	-0.000014
1168	1.1612e+02	8.3838	9.984170	0.000098	0.982671	0.166469	-0.000010
1169	1.1622e+02	8.3749	9.967061	0.000172	1.719675	0.291321	-0.000017
1170	1.1632e+02	8.3691	9.952804	0.000143	1.433062	0.242767	-0.000014
1171	1.1642e+02	8.3527	9.939769	0.000131	1.310229	0.221959	-0.000013
1172	1.1651e+02	8.3450	9.920217	0.000197	1.965343	0.332938	-0.000020
1173	1.1661e+02	8.3334	9.900664	0.000197	1.965343	0.332938	-0.000020
1174	1.1671e+02	8.3241	9.886000	0.000147	1.474007	0.249704	-0.000015
1175	1.1681e+02	8.3160	9.866855	0.000192	1.924398	0.326002	-0.000019
1176	1.1691e+02	8.3024	9.851783	0.000151	1.514952	0.256640	-0.000015
1177	1.1701e+02	8.2928	9.833860	0.000180	1.801564	0.305193	-0.000018
1178	1.1711e+02	8.2819	9.815937	0.000180	1.801564	0.305193	-0.000018
1179	1.1721e+02	8.2743	9.798421	0.000176	1.760620	0.298257	-0.000018
1180	1.1731e+02	8.2632	9.780091	0.000184	1.842509	0.312129	-0.000018
1181	1.1741e+02	8.2575	9.763390	0.000168	1.678730	0.284385	-0.000017
1182	1.1751e+02	8.2449	9.749540	0.000139	1.392118	0.235831	-0.000014
1183	1.1761e+02	8.2319	9.732025	0.000176	1.760620	0.298257	-0.000018
1184	1.1771e+02	8.2230	9.712065	0.000201	2.006287	0.339874	-0.000020
1185	1.1781e+02	8.2137	9.696586	0.000156	1.555896	0.263576	-0.000016
1186	1.1791e+02	8.2080	9.675404	0.000213	2.129121	0.360683	-0.000021
1187	1.1801e+02	8.1944	9.657481	0.000180	1.801564	0.305193	-0.000018
1188	1.1811e+02	8.1846	9.641187	0.000164	1.637786	0.277448	-0.000016
1189	1.1821e+02	8.1725	9.624893	0.000164	1.637786	0.277448	-0.000016
1190	1.1831e+02	8.1650	9.608600	0.000164	1.637786	0.277448	-0.000016
1191	1.1841e+02	8.1558	9.589047	0.000197	1.965343	0.332938	-0.000020
1192	1.1850e+02	8.1432	9.569495	0.000197	1.965343	0.332938	-0.000020
1193	1.1860e+02	8.1348	9.551979	0.000176	1.760620	0.298257	-0.000018
1194	1.1870e+02	8.1236	9.533241	0.000188	1.883454	0.319066	-0.000019
1195	1.1880e+02	8.1153	9.516133	0.000172	1.719675	0.291321	-0.000017
1196	1.1890e+02	8.1043	9.497395	0.000188	1.883454	0.319066	-0.000019
1197	1.1900e+02	8.0970	9.478658	0.000188	1.883454	0.319066	-0.000019
1198	1.1910e+02	8.0851	9.460327	0.000184	1.842509	0.312129	-0.000018
1199	1.1920e+02	8.0753	9.442404	0.000180	1.801564	0.305193	-0.000018
1200	1.1930e+02	8.0633	9.423259	0.000192	1.924398	0.326002	-0.000019
1201	1.1940e+02	8.0550	9.405336	0.000180	1.801564	0.305193	-0.000018
1202	1.1950e+02	8.0459	9.387413	0.000180	1.801564	0.305193	-0.000018
1203	1.1960e+02	8.0350	9.367453	0.000201	2.006287	0.339874	-0.000020
1204	1.1970e+02	8.0221	9.347493	0.000201	2.006287	0.339874	-0.000020
1205	1.1980e+02	8.0167	9.324275	0.000233	2.333845	0.395364	-0.000023
1206	1.1990e+02	8.0063	9.306352	0.000180	1.801564	0.305193	-0.000018
1207	1.2000e+02	7.9992	9.285577	0.000209	2.088177	0.353747	-0.000021
1208	1.2010e+02	7.9855	9.263988	0.000217	2.170066	0.367619	-0.000022
1209	1.2020e+02	7.9765	9.242806	0.000213	2.129121	0.360683	-0.000021
1210	1.2030e+02	7.9662	9.226105	0.000168	1.678730	0.284385	-0.000017
1211	1.2039e+02	7.9586	9.204923	0.000213	2.129121	0.360683	-0.000021
1212	1.2049e+02	7.9454	9.183334	0.000217	2.170066	0.367619	-0.000022
1213	1.2059e+02	7.9386	9.165411	0.000180	1.801564	0.305193	-0.000018
1214	1.2069e+02	7.9233	9.145044	0.000205	2.047232	0.346811	-0.000020
1215	1.2079e+02	7.9159	9.120196	0.000250	2.497623	0.423109	-0.000025
1216	1.2089e+02	7.9053	9.103088	0.000172	1.719675	0.291321	-0.000017
1217	1.2099e+02	7.8958	9.086794	0.000164	1.637786	0.277448	-0.000016
1218	1.2109e+02	7.8858	9.060724	0.000262	2.620457	0.443917	-0.000026
1219	1.2119e+02	7.8776	9.040357	0.000205	2.047232	0.346811	-0.000020
1220	1.2129e+02	7.8658	9.023656	0.000168	1.678730	0.284385	-0.000017
1221	1.2139e+02	7.8576	9.000437	0.000233	2.333845	0.395364	-0.000023
1222	1.2149e+02	7.8448	8.984958	0.000156	1.555896	0.263576	-0.000016
1223	1.2159e+02	7.8374	8.964184	0.000209	2.088177	0.353747	-0.000021
1224	1.2169e+02	7.8272	8.945853	0.000184	1.842509	0.312129	-0.000018
1225	1.2179e+02	7.8182	8.926301	0.000197	1.965343	0.332938	-0.000020
1226	1.2189e+02	7.8072	8.907971	0.000184	1.842509	0.312129	-0.000018
1227	1.2199e+02	7.7963	8.888825	0.000192	1.924398	0.326002	-0.000019
1228	1.2209e+02	7.7866	8.868051	0.000209	2.088177	0.353747	-0.000021
1229	1.2219e+02	7.7758	8.852165	0.000160	1.596841	0.270512	-0.000016
1230	1.2229e+02	7.7661	8.834242	0.000180	1.801564	0.305193	-0.000018
1231	1.2239e+02	7.7568	8.818355	0.000160	1.596841	0.270512	-0.000016
1232	1.2248e+02	7.7488	8.799210	0.000192	1.924398	0.326002	-0.000019
1233	1.2258e+02	7.7374	8.782509	0.000168	1.678730	0.284385	-0.000017
1234	1.2268e+02	7.7276	8.760105	0.000225	2.251955	0.381492	-0.000023
1235	1.2278e+02	7.7175	8.743812	0.000164	1.637786	0.277448	-0.000016
1236	1.2288e+02	7.7087	8.722222	0.000217	2.170066	0.367619	-0.000022
1237	1.2298e+02	7.6971	8.705521	0.000168	1.678730	0.284385	-0.000017
1238	1.2308e+02	7.6874	8.683525	0.000221	2.211011	0.374555	-0.000022
1239	1.2318e+02	7.6774	8.663565	0.000201	2.006287	0.339874	-0.000020
1240	1.2328e+02	7.6691	8.645235	0.000184	1.842509	0.312129	-0.000018
1241	1.2338e+02	7.6569	8.624868	0.000205	2.047232	0.346811	-0.000020
1242	1.2348e+02	7.6465	8.604500	0.000205	2.047232	0.346811	-0.000020
1243	1.2358e+02	7.6358	8.582911	0.000217	2.170066	0.367619	-0.000022
1244	1.2368e+02	7.6279	8.562544	0.000205	2.047232	0.346811	-0.000020
1245	1.2378e+02	7.6168	8.548694	0.000139	1.392118	0.235831	-0.000014
1246	1.2388e+02	7.6067	8.525069	0.000237	2.374789	0.402300	-0.000024
1247	1.2398e+02	7.5987	8.507146	0.000180	1.801564	0.305193	-0.000018
1248	1.2408e+02	7.5877	8.488815	0.000184	1.842509	0.312129	-0.000018
1249	1.2418e+02	7.5777	8.467226	0.000217	2.170066	0.367619	-0.000022
1250	1.2428e+02	7.5696	8.449710	0.000176	1.760620	0.298257	-0.000018
1251	1.2438e+02	7.5597	8.423233	0.000266	2.661402	0.450854	-0.000027
1252	1.2447e+02	7.5495	8.404903	0.000184	1.842509	0.312129	-0.000018
1253	1.2457e+02	7.5373	8.387387	0.000176	1.760620	0.298257	-0.000018
1254	1.2467e+02	7.5275	8.366205	0.000213	2.129121	0.360683	-0.000021
1255	1.2477e+02	7.5199	8.347060	0.000192	1.924398	0.326002	-0.000019
1256	1.2487e+02	7.5072	8.330359	0.000168	1.678730	0.284385	-0.000017
1257	1.2497e+02	7.4984	8.309992	0.000205	2.047232	0.346811	-0.000020
1258	1.2507e+02	7.4862	8.292883	0.000172	1.719675	0.291321	-0.000017
1259	1.2517e+02	7.4783	8.275368	0.000176	1.760620	0.298257	-0.000018
1260	1.2527e+02	7.4693	8.255408	0.000201	2.006287	0.339874	-0.000020
1261	1.2537e+02	7.4586	8.242780	0.000127	1.269284	0.215023	-0.000013
1262	1.2547e+02	7.4483	8.222820	0.000201	2.006287	0.339874	-0.000020
1263	1.2557e+02	7.4374	8.204490	0.000184	1.842509	0.312129	-0.000018
1264	1.2567e+02	7.4285	8.189826	0.000147	1.474007	0.249704	-0.000015
1265	1.2577e+02	7.4220	8.167422	0.000225	2.251955	0.381492	-0.000023
1266	1.2587e+02	7.4109	8.150313	0.000172	1.719675	0.291321	-0.000017
1267	1.2597e+02	7.4006	8.134834	0.000156	1.555896	0.263576	-0.000016
1268	1.2607e+02	7.3878	8.114467	0.000205	2.047232	0.346811	-0.000020
1269	1.2617e+02	7.3775	8.096952	0.000176	1.760620	0.298257	-0.000018
1270	1.2627e+02	7.3686	8.080251	0.000168	1.678730	0.284385	-0.000017
1271	1.2636e+02	7.3584	8.060291	0.000201	2.006287	0.339874	-0.000020
1272	1.2646e+02	7.3473	8.043997	0.000164	1.637786	0.277448	-0.000016
1273	1.2656e+02	7.3383	8.026889	0.000172	1.719675	0.291321	-0.000017
1274	1.2666e+02	7.3287	8.009373	0.000176	1.760620	0.298257	-0.000018
1275	1.2676e+02	7.3202	7.992672	0.000168	1.678730	0.284385	-0.000017
1276	1.2686e+02	7.3093	7.973934	0.000188	1.883454	0.319066	-0.000019
1277	1.2696e+02	7.3003	7.956418	0.000176	1.760620	0.298257	-0.000018
1278	1.2706e+02	7.2884	7.940939	0.000156	1.555896	0.263576	-0.000016
1279	1.2716e+02	7.2791	7.917314	0.000237	2.374789	0.402300	-0.000024
1280	1.2726e+02	7.2690	7.903057	0.000143	1.433062	0.242767	-0.000014
1281	1.2736e+02	7.2576	7.882689	0.000205	2.047232	0.346811	-0.000020
1282	1.2746e+02	7.2474	7.865988	0.000168	1.678730	0.284385	-0.000017
1283	1.2756e+02	7.2394	7.853361	0.000127	1.269284	0.215023	-0.000013
1284	1.2766e+02	7.2266	7.833401	0.000201	2.006287	0.339874	-0.000020
1285	1.2776e+02	7.2198	7.817515	0.000160	1.596841	0.270512	-0.000016
1286	1.2786e+02	7.2102	7.799184	0.000184	1.842509	0.312129	-0.000018
1287	1.2796e+02	7.1980	7.782890	0.000164	1.637786	0.277448	-0.000016
1288	1.2806e+02	7.1914	7.768226	0.000147	1.474007	0.249704	-0.000015
1289	1.2816e+02	7.1812	7.754376	0.000139	1.392118	0.235831	-0.000014
1290	1.2826e+02	7.1687	7.737675	0.000168	1.678730	0.284385	-0.000017
1291	1.2835e+02	7.1610	7.721382	0.000164	1.637786	0.277448	-0.000016
1292	1.2845e+02	7.1492	7.706717	0.000147	1.474007	0.249704	-0.000015
1293	1.2855e+02	7.1394	7.690016	0.000168	1.678730	0.284385	-0.000017
1294	1.2865e+02	7.1280	7.674130	0.000160	1.596841	0.270512	-0.000016
1295	1.2875e+02	7.1181	7.657429	0.000168	1.678730	0.284385	-0.000017
1296	1.2885e+02	7.1094	7.640321	0.000172	1.719675	0.291321	-0.000017
1297	1.2895e+02	7.1004	7.624434	0.000160	1.596841	0.270512	-0.000016
1298	1.2905e+02	7.0906	7.609770	0.000147	1.474007	0.249704	-0.000015
1299	1.2915e+02	7.0803	7.593884	0.000160	1.596841	0.270512	-0.000016
1300	1.2925e+02	7.0724	7.576775	0.000172	1.719675	0.291321	-0.000017
1301	1.2935e+02	7.0600	7.562111	0.000147	1.474007	0.249704	-0.000015
1302	1.2945e+02	7.0500	7.545002	0.000172	1.719675	0.291321	-0.000017
1303	1.2955e+02	7.0397	7.527894	0.000172	1.719675	0.291321	-0.000017
1304	1.2965e+02	7.0289	7.510378	0.000176	1.760620	0.298257	-0.000018
1305	1.2975e+02	7.0205	7.493270	0.000172	1.719675	0.291321	-0.000017
1306	1.2985e+02	7.0121	7.480235	0.000131	1.310229	0.221959	-0.000013
1307	1.2995e+02	7.0014	7.460275	0.000201	2.006287	0.339874	-0.000020
1308	1.3005e+02	6.9903	7.446018	0.000143	1.433062	0.242767	-0.000014
1309	1.3015e+02	6.9782	7.426058	0.000201	2.006287	0.339874	-0.000020
1310	1.3025e+02	6.9735	7.412616	0.000135	1.351173	0.228895	-0.000014
1311	1.3034e+02	6.9606	7.393064	0.000197	1.965343	0.332938	-0.000020
1312	1.3044e+02	6.9501	7.372697	0.000205	2.047232	0.346811	-0.000020
1313	1.3054e+02	6.9428	7.354773	0.000180	1.801564	0.305193	-0.000018
1314	1.3064e+02	6.9297	7.332777	0.000221	2.211011	0.374555	-0.000022
1315	1.3074e+02	6.9215	7.316076	0.000168	1.678730	0.284385	-0.000017
1316	1.3084e+02	6.9095	7.301412	0.000147	1.474007	0.249704	-0.000015
1317	1.3094e+02	6.8999	7.281452	0.000201	2.006287	0.339874	-0.000020
1318	1.3104e+02	6.8925	7.263936	0.000176	1.760620	0.298257	-0.000018
1319	1.3114e+02	6.8799	7.246828	0.000172	1.719675	0.291321	-0.000017
1320	1.3124e+02	6.8726	7.228497	0.000184	1.842509	0.312129	-0.000018
1321	1.3134e+02	6.8607	7.213833	0.000147	1.474007	0.249704	-0.000015
1322	1.3144e+02	6.8502	7.194688	0.000192	1.924398	0.326002	-0.000019
1323	1.3154e+02	6.8417	7.179209	0.000156	1.555896	0.263576	-0.000016
1324	1.3164e+02	6.8314	7.163322	0.000160	1.596841	0.270512	-0.000016
1325	1.3174e+02	6.8235	7.145399	0.000180	1.801564	0.305193	-0.000018
1326	1.3184e+02	6.8118	7.127884	0.000176	1.760620	0.298257	-0.000018
1327	1.3194e+02	6.8019	7.109553	0.000184	1.842509	0.312129	-0.000018
1328	1.3204e+02	6.7913	7.096111	0.000135	1.351173	0.228895	-0.000014
1329	1.3214e+02	6.7778	7.076558	0.000197	1.965343	0.332938	-0.000020
1330	1.3224e+02	6.7686	7.059043	0.000176	1.760620	0.298257	-0.000018
1331	1.3234e+02	6.7629	7.041120	0.000180	1.801564	0.305193	-0.000018
1332	1.3243e+02	6.7522	7.022789	0.000184	1.842509	0.312129	-0.000018
1333	1.3253e+02	6.7414	7.007310	0.000156	1.555896	0.263576	-0.000016
1334	1.3263e+02	6.7328	6.987758	0.000197	1.965343	0.332938	-0.000020
1335	1.3273e+02	6.7222	6.972686	0.000151	1.514952	0.256640	-0.000015
1336	1.3283e+02	6.7103	6.956800	0.000160	1.596841	0.270512	-0.000016
1337	1.3293e+02	6.7013	6.940099	0.000168	1.678730	0.284385	-0.000017
1338	1.3303e+02	6.6940	6.921361	0.000188	1.883454	0.319066	-0.000019
1339	1.3313e+02	6.6824	6.902623	0.000188	1.883454	0.319066	-0.000019
1340	1.3323e+02	6.6745	6.884293	0.000184	1.842509	0.312129	-0.000018
1341	1.3333e+02	6.6622	6.867999	0.000164	1.637786	0.277448	-0.000016
1342	1.3343e+02	6.6501	6.848039	0.000201	2.006287	0.339874	-0.000020
1343	1.3353e+02	6.6455	6.826043	0.000221	2.211011	0.374555	-0.000022
1344	1.3363e+02	6.6319	6.810564	0.000156	1.555896	0.263576	-0.000016
1345	1.3373e+02	6.6244	6.789789	0.000209	2.088177	0.353747	-0.000021
1346	1.3383e+02	6.6138	6.770237	0.000197	1.965343	0.332938	-0.000020
1347	1.3393e+02	6.6049	6.749462	0.000209	2.088177	0.353747	-0.000021
1348	1.3403e+02	6.5932	6.731132	0.000184	1.842509	0.312129	-0.000018
1349	1.3413e+02	6.5826	6.711987	0.000192	1.924398	0.326002	-0.000019
1350	1.3423e+02	6.5724	6.694064	0.000180	1.801564	0.305193	-0.000018
1351	1.3432e+02	6.5615	6.672475	0.000217	2.170066	0.367619	-0.000022
1352	1.3442e+02	6.5524	6.652515	0.000201	2.006287	0.339874	-0.000020
1353	1.3452e+02	6.5447	6.634184	0.000184	1.842509	0.312129	-0.000018
1354	1.3462e+02	6.5319	6.613003	0.000213	2.129121	0.360683	-0.000021
1355	1.3472e+02	6.5231	6.596709	0.000164	1.637786	0.277448	-0.000016
1356	1.3482e+02	6.5127	6.576342	0.000205	2.047232	0.346811	-0.000020
1357	1.3492e+02	6.5024	6.556789	0.000197	1.965343	0.332938	-0.000020
1358	1.3502e+02	6.4919	6.536830	0.000201	2.006287	0.339874	-0.000020
1359	1.3512e+02	6.4834	6.514426	0.000225	2.251955	0.381492	-0.000023
1360	1.3522e+02	6.4724	6.496095	0.000184	1.842509	0.312129	-0.000018
1361	1.3532e+02	6.4612	6.476543	0.000197	1.965343	0.332938	-0.000020
1362	1.3542e+02	6.4530	6.454954	0.000217	2.170066	0.367619	-0.000022
1363	1.3552e+02	6.4426	6.437438	0.000176	1.760620	0.298257	-0.000018
1364	1.3562e+02	6.4335	6.415849	0.000217	2.170066	0.367619	-0.000022
1365	1.3572e+02	6.4239	6.394667	0.000213	2.129121	0.360683	-0.000021
1366	1.3582e+02	6.4141	6.373893	0.000209	2.088177	0.353747	-0.000021
1367	1.3592e+02	6.4004	6.354747	0.000192	1.924398	0.326002	-0.000019
1368	1.3602e+02	6.3920	6.333566	0.000213	2.129121	0.360683	-0.000021
1369	1.3612e+02	6.3824	6.313199	0.000205	2.047232	0.346811	-0.000020
1370	1.3622e+02	6.3744	6.290795	0.000225	2.251955	0.381492	-0.000023
1371	1.3631e+02	6.3648	6.272464	0.000184	1.842509	0.312129	-0.000018
1372	1.3641e+02	6.3544	6.249653	0.000229	2.292900	0.388428	-0.000023
1373	1.3651e+02	6.3439	6.226842	0.000229	2.292900	0.388428	-0.000023
1374	1.3661e+02	6.3360	6.206475	0.000205	2.047232	0.346811	-0.000020
1375	1.3671e+02	6.3233	6.183256	0.000233	2.333845	0.395364	-0.000023
1376	1.3681e+02	6.3143	6.159223	0.000242	2.415734	0.409236	-0.000024
1377	1.3691e+02	6.3047	6.139263	0.000201	2.006287	0.339874	-0.000020
1378	1.3701e+02	6.2957	6.118081	0.000213	2.129121	0.360683	-0.000021
1379	1.3711e+02	6.2856	6.095270	0.000229	2.292900	0.388428	-0.000023
1380	1.3721e+02	6.2745	6.078162	0.000172	1.719675	0.291321	-0.000017
1381	1.3731e+02	6.2653	6.056980	0.000213	2.129121	0.360683	-0.000021
1382	1.3741e+02	6.2560	6.030095	0.000270	2.702346	0.457790	-0.000027
1383	1.3751e+02	6.2437	6.006470	0.000237	2.374789	0.402300	-0.000024
1384	1.3761e+02	6.2341	5.985695	0.000209	2.088177	0.353747	-0.000021
1385	1.3771e+02	6.2270	5.962069	0.000237	2.374789	0.402300	-0.000024
1386	1.3781e+02	6.2157	5.940887	0.000213	2.129121	0.360683	-0.000021
1387	1.3791e+02	6.2044	5.916447	0.000246	2.456679	0.416173	-0.000025
1388	1.3801e+02	6.1951	5.900561	0.000160	1.596841	0.270512	-0.000016
1389	1.3811e+02	6.1843	5.878157	0.000225	2.251955	0.381492	-0.000023
1390	1.3821e+02	6.1742	5.856568	0.000217	2.170066	0.367619	-0.000022
1391	1.3831e+02	6.1626	5.832534	0.000242	2.415734	0.409236	-0.000024
1392	1.3840e+02	6.1549	5.816648	0.000160	1.596841	0.270512	-0.000016
1393	1.3850e+02	6.1454	5.793022	0.000237	2.374789	0.402300	-0.000024
1394	1.3860e+02	6.1370	5.771840	0.000213	2.129121	0.360683	-0.000021
1395	1.3870e+02	6.1275	5.755547	0.000164	1.637786	0.277448	-0.000016
1396	1.3880e+02	6.1150	5.733957	0.000217	2.170066	0.367619	-0.000022
1397	1.3890e+02	6.1051	5.713183	0.000209	2.088177	0.353747	-0.000021
1398	1.3900e+02	6.0943	5.694853	0.000184	1.842509	0.312129	-0.000018
1399	1.3910e+02	6.0879	5.674078	0.000209	2.088177	0.353747	-0.000021
1400	1.3920e+02	6.0751	5.652489	0.000217	2.170066	0.367619	-0.000022
1401	1.3930e+02	6.0645	5.630085	0.000225	2.251955	0.381492	-0.000023
1402	1.3940e+02	6.0604	5.613791	0.000164	1.637786	0.277448	-0.000016
1403	1.3950e+02	6.0461	5.590573	0.000233	2.333845	0.395364	-0.000023
1404	1.3960e+02	6.0348	5.572650	0.000180	1.801564	0.305193	-0.000018
1405	1.3970e+02	6.0241	5.550246	0.000225	2.251955	0.381492	-0.000023
1406	1.3980e+02	6.0178	5.525805	0.000246	2.456679	0.416173	-0.000025
1407	1.3990e+02	6.0091	5.504624	0.000213	2.129121	0.360683	-0.000021
1408	1.4000e+02	5.9948	5.485478	0.000192	1.924398	0.326002	-0.000019
1409	1.4010e+02	5.9841	5.464704	0.000209	2.088177	0.353747	-0.000021
1410	1.4020e+02	5.9771	5.443522	0.000213	2.129121	0.360683	-0.000021
1411	1.4029e+02	5.9640	5.421526	0.000221	2.211011	0.374555	-0.000022
1412	1.4039e+02	5.9559	5.399529	0.000221	2.211011	0.374555	-0.000022
1413	1.4049e+02	5.9454	5.373867	0.000258	2.579512	0.436981	-0.000026
1414	1.4059e+02	5.9350	5.357166	0.000168	1.678730	0.284385	-0.000017
1415	1.4069e+02	5.9265	5.338020	0.000192	1.924398	0.326002	-0.000019
1416	1.4079e+02	5.9121	5.311543	0.000266	2.661402	0.450854	-0.000027
1417	1.4089e+02	5.9069	5.291176	0.000205	2.047232	0.346811	-0.000020
1418	1.4099e+02	5.8974	5.271624	0.000197	1.965343	0.332938	-0.000020
1419	1.4109e+02	5.8892	5.249220	0.000225	2.251955	0.381492	-0.000023
1420	1.4119e+02	5.8752	5.224372	0.000250	2.497623	0.423109	-0.000025
1421	1.4129e+02	5.8692	5.205634	0.000188	1.883454	0.319066	-0.000019
1422	1.4139e+02	5.8558	5.185267	0.000205	2.047232	0.346811	-0.000020
1423	1.4149e+02	5.8456	5.161641	0.000237	2.374789	0.402300	-0.000024
1424	1.4159e+02	5.8384	5.143718	0.000180	1.801564	0.305193	-0.000018
1425	1.4169e+02	5.8253	5.122536	0.000213	2.129121	0.360683	-0.000021
1426	1.4179e+02	5.8177	5.104206	0.000184	1.842509	0.312129	-0.000018
1427	1.4189e+02	5.8096	5.083839	0.000205	2.047232	0.346811	-0.000020
1428	1.4199e+02	5.7944	5.065101	0.000188	1.883454	0.319066	-0.000019
1429	1.4209e+02	5.7850	5.043919	0.000213	2.129121	0.360683	-0.000021
1430	1.4219e+02	5.7771	5.025996	0.000180	1.801564	0.305193	-0.000018
1431	1.4228e+02	5.7667	5.007666	0.000184	1.842509	0.312129	-0.000018
1432	1.4238e+02	5.7575	4.989335	0.000184	1.842509	0.312129	-0.000018
1433	1.4248e+02	5.7471	4.964895	0.000246	2.456679	0.416173	-0.000025
1434	1.4258e+02	5.7384	4.946157	0.000188	1.883454	0.319066	-0.000019
1435	1.4268e+02	5.7262	4.926197	0.000201	2.006287	0.339874	-0.000020
1436	1.4278e+02	5.7146	4.907052	0.000192	1.924398	0.326002	-0.000019
1437	1.4288e+02	5.7066	4.890351	0.000168	1.678730	0.284385	-0.000017
1438	1.4298e+02	5.6985	4.869577	0.000209	2.088177	0.353747	-0.000021
1439	1.4308e+02	5.6858	4.852875	0.000168	1.678730	0.284385	-0.000017
1440	1.4318e+02	5.6789	4.832101	0.000209	2.088177	0.353747	-0.000021
1441	1.4328e+02	5.6677	4.810105	0.000221	2.211011	0.374555	-0.000022
1442	1.4338e+02	5.6592	4.795033	0.000151	1.514952	0.256640	-0.000015
1443	1.4348e+02	5.6472	4.774666	0.000205	2.047232	0.346811	-0.000020
1444	1.4358e+02	5.6367	4.755928	0.000188	1.883454	0.319066	-0.000019
1445	1.4368e+02	5.6276	4.735968	0.000201	2.006287	0.339874	-0.000020
1446	1.4378e+02	5.6165	4.714379	0.000217	2.170066	0.367619	-0.000022
1447	1.4388e+02	5.6112	4.694419	0.000201	2.006287	0.339874	-0.000020
1448	1.4398e+02	5.6004	4.678533	0.000160	1.596841	0.270512	-0.000016
1449	1.4408e+02	5.5889	4.656536	0.000221	2.211011	0.374555	-0.000022
1450	1.4418e+02	5.5785	4.636577	0.000201	2.006287	0.339874	-0.000020
1451	1.4428e+02	5.5692	4.622320	0.000143	1.433062	0.242767	-0.000014
1452	1.4437e+02	5.5572	4.602767	0.000197	1.965343	0.332938	-0.000020
1453	1.4447e+02	5.5461	4.580363	0.000225	2.251955	0.381492	-0.000023
1454	1.4457e+02	5.5384	4.563662	0.000168	1.678730	0.284385	-0.000017
1455	1.4467e+02	5.5302	4.546147	0.000176	1.760620	0.298257	-0.000018
1456	1.4477e+02	5.5193	4.529038	0.000172	1.719675	0.291321	-0.000017
1457	1.4487e+02	5.5093	4.514374	0.000147	1.474007	0.249704	-0.000015
1458	1.4497e+02	5.4987	4.495636	0.000188	1.883454	0.319066	-0.000019
1459	1.4507e+02	5.4893	4.477713	0.000180	1.801564	0.305193	-0.000018
1460	1.4517e+02	5.4787	4.458161	0.000197	1.965343	0.332938	-0.000020
1461	1.4527e+02	5.4677	4.443904	0.000143	1.433062	0.242767	-0.000014
1462	1.4537e+02	5.4568	4.424351	0.000197	1.965343	0.332938	-0.000020
1463	1.4547e+02	5.4487	4.407243	0.000172	1.719675	0.291321	-0.000017
1464	1.4557e+02	5.4400	4.389320	0.000180	1.801564	0.305193	-0.000018
1465	1.4567e+02	5.4263	4.373841	0.000156	1.555896	0.263576	-0.000016
1466	1.4577e+02	5.4166	4.353881	0.000201	2.006287	0.339874	-0.000020
1467	1.4587e+02	5.4075	4.338402	0.000156	1.555896	0.263576	-0.000016
1468	1.4597e+02	5.3992	4.322923	0.000156	1.555896	0.263576	-0.000016
1469	1.4607e+02	5.3889	4.305407	0.000176	1.760620	0.298257	-0.000018
1470	1.4617e+02	5.3784	4.284633	0.000209	2.088177	0.353747	-0.000021
1471	1.4626e+02	5.3680	4.268339	0.000164	1.637786	0.277448	-0.000016
1472	1.4636e+02	5.3609	4.248379	0.000201	2.006287	0.339874	-0.000020
1473	1.4646e+02	5.3474	4.232493	0.000160	1.596841	0.270512	-0.000016
1474	1.4656e+02	5.3393	4.211311	0.000213	2.129121	0.360683	-0.000021
1475	1.4666e+02	5.3295	4.190944	0.000205	2.047232	0.346811	-0.000020
1476	1.4676e+02	5.3183	4.175872	0.000151	1.514952	0.256640	-0.000015
1477	1.4686e+02	5.3088	4.154283	0.000217	2.170066	0.367619	-0.000022
1478	1.4696e+02	5.2998	4.136767	0.000176	1.760620	0.298257	-0.000018
1479	1.4706e+02	5.2911	4.117622	0.000192	1.924398	0.326002	-0.000019
1480	1.4716e+02	5.2773	4.097662	0.000201	2.006287	0.339874	-0.000020
1481	1.4726e+02	5.2705	4.075259	0.000225	2.251955	0.381492	-0.000023
1482	1.4736e+02	5.2609	4.058150	0.000172	1.719675	0.291321	-0.000017
1483	1.4746e+02	5.2472	4.037783	0.000205	2.047232	0.346811	-0.000020
1484	1.4756e+02	5.2404	4.015379	0.000225	2.251955	0.381492	-0.000023
1485	1.4766e+02	5.2291	3.997863	0.000176	1.760620	0.298257	-0.000018
1486	1.4776e+02	5.2201	3.978311	0.000197	1.965343	0.332938	-0.000020
1487	1.4786e+02	5.2101	3.959981	0.000184	1.842509	0.312129	-0.000018
1488	1.4796e+02	5.1992	3.942872	0.000172	1.719675	0.291321	-0.000017
1489	1.4806e+02	5.1936	3.920468	0.000225	2.251955	0.381492	-0.000023
1490	1.4816e+02	5.1797	3.901731	0.000188	1.883454	0.319066	-0.000019
1491	1.4825e+02	5.1696	3.884622	0.000172	1.719675	0.291321	-0.000017
1492	1.4835e+02	5.1579	3.863848	0.000209	2.088177	0.353747	-0.000021
1493	1.4845e+02	5.1488	3.849183	0.000147	1.474007	0.249704	-0.000015
1494	1.4855e+02	5.1390	3.830853	0.000184	1.842509	0.312129	-0.000018
1495	1.4865e+02	5.1318	3.813745	0.000172	1.719675	0.291321	-0.000017
1496	1.4875e+02	5.1188	3.792970	0.000209	2.088177	0.353747	-0.000021
1497	1.4885e+02	5.1077	3.775047	0.000180	1.801564	0.305193	-0.000018
1498	1.4895e+02	5.0994	3.753051	0.000221	2.211011	0.374555	-0.000022
1499	1.4905e+02	5.0919	3.733905	0.000192	1.924398	0.326002	-0.000019
1500	1.4915e+02	5.0800	3.717612	0.000164	1.637786	0.277448	-0.000016
1501	1.4925e+02	5.0718	3.698467	0.000192	1.924398	0.326002	-0.000019
1502	1.4935e+02	5.0607	3.682173	0.000164	1.637786	0.277448	-0.000016
1503	1.4945e+02	5.0510	3.662621	0.000197	1.965343	0.332938	-0.000020
1504	1.4955e+02	5.0414	3.645512	0.000172	1.719675	0.291321	-0.000017
1505	1.4965e+02	5.0301	3.622701	0.000229	2.292900	0.388428	-0.000023
1506	1.4975e+02	5.0223	3.607222	0.000156	1.555896	0.263576	-0.000016
1507	1.4985e+02	5.0128	3.585225	0.000221	2.211011	0.374555	-0.000022
1508	1.4995e+02	5.0012	3.559156	0.000262	2.620457	0.443917	-0.000026
1509	1.5005e+02	4.9892	3.540418	0.000188	1.883454	0.319066	-0.000019
1510	1.5015e+02	4.9818	3.521680	0.000188	1.883454	0.319066	-0.000019
1511	1.5025e+02	4.9735	3.504572	0.000172	1.719675	0.291321	-0.000017
1512	1.5034e+02	4.9625	3.480538	0.000242	2.415734	0.409236	-0.000024
1513	1.5044e+02	4.9523	3.459357	0.000213	2.129121	0.360683	-0.000021
1514	1.5054e+02	4.9398	3.441026	0.000184	1.842509	0.312129	-0.000018
1515	1.5064e+02	4.9310	3.419030	0.000221	2.211011	0.374555	-0.000022
1516	1.5074e+02	4.9216	3.397848	0.000213	2.129121	0.360683	-0.000021
1517	1.5084e+02	4.9114	3.376666	0.000213	2.129121	0.360683	-0.000021
1518	1.5094e+02	4.9020	3.357114	0.000197	1.965343	0.332938	-0.000020
1519	1.5104e+02	4.8906	3.335524	0.000217	2.170066	0.367619	-0.000022
1520	1.5114e+02	4.8814	3.312713	0.000229	2.292900	0.388428	-0.000023
1521	1.5124e+02	4.8696	3.293161	0.000197	1.965343	0.332938	-0.000020
1522	1.5134e+02	4.8635	3.274016	0.000192	1.924398	0.326002	-0.000019
1523	1.5144e+02	4.8520	3.252834	0.000213	2.129121	0.360683	-0.000021
1524	1.5154e+02	4.8412	3.231652	0.000213	2.129121	0.360683	-0.000021
1525	1.5164e+02	4.8321	3.208434	0.000233	2.333845	0.395364	-0.000023
1526	1.5174e+02	4.8217	3.188066	0.000205	2.047232	0.346811	-0.000020
1527	1.5184e+02	4.8129	3.166070	0.000221	2.211011	0.374555	-0.000022
1528	1.5194e+02	4.8008	3.145296	0.000209	2.088177	0.353747	-0.000021
1529	1.5204e+02	4.7950	3.121262	0.000242	2.415734	0.409236	-0.000024
1530	1.5214e+02	4.7814	3.101303	0.000201	2.006287	0.339874	-0.000020
1531	1.5224e+02	4.7709	3.080528	0.000209	2.088177	0.353747	-0.000021
1532	1.5233e+02	4.7598	3.058532	0.000221	2.211011	0.374555	-0.000022
1533	1.5243e+02	4.7523	3.034091	0.000246	2.456679	0.416173	-0.000025
1534	1.5253e+02	4.7433	3.013724	0.000205	2.047232	0.346811	-0.000020
1535	1.5263e+02	4.7341	2.992542	0.000213	2.129121	0.360683	-0.000021
1536	1.5273e+02	4.7215	2.969324	0.000233	2.333845	0.395364	-0.000023
1537	1.5283e+02	4.7157	2.947734	0.000217	2.170066	0.367619	-0.000022
1538	1.5293e+02	4.7013	2.926145	0.000217	2.170066	0.367619	-0.000022
1539	1.5303e+02	4.6938	2.901297	0.000250	2.497623	0.423109	-0.000025
1540	1.5313e+02	4.6827	2.878893	0.000225	2.251955	0.381492	-0.000023
1541	1.5323e+02	4.6722	2.851602	0.000274	2.743291	0.464726	-0.000027
1542	1.5333e+02	4.6627	2.827568	0.000242	2.415734	0.409236	-0.000024
1543	1.5343e+02	4.6550	2.808831	0.000188	1.883454	0.319066	-0.000019
1544	1.5353e+02	4.6401	2.781131	0.000278	2.784236	0.471662	-0.000028
1545	1.5363e+02	4.6320	2.757505	0.000237	2.374789	0.402300	-0.000024
1546	1.5373e+02	4.6230	2.735102	0.000225	2.251955	0.381492	-0.000023
1547	1.5383e+02	4.6143	2.712698	0.000225	2.251955	0.381492	-0.000023
1548	1.5393e+02	4.6035	2.689072	0.000237	2.374789	0.402300	-0.000024
1549	1.5403e+02	4.5918	2.665853	0.000233	2.333845	0.395364	-0.000023
1550	1.5413e+02	4.5848	2.641005	0.000250	2.497623	0.423109	-0.000025
1551	1.5422e+02	4.5734	2.617380	0.000237	2.374789	0.402300	-0.000024
1552	1.5432e+02	4.5646	2.591717	0.000258	2.579512	0.436981	-0.000026
1553	1.5442e+02	4.5528	2.570943	0.000209	2.088177	0.353747	-0.000021
1554	1.5452e+02	4.5419	2.549353	0.000217	2.170066	0.367619	-0.000022
1555	1.5462e+02	4.5304	2.524098	0.000254	2.538568	0.430045	-0.000025
1556	1.5472e+02	4.5235	2.501694	0.000225	2.251955	0.381492	-0.000023
1557	1.5482e+02	4.5127	2.478883	0.000229	2.292900	0.388428	-0.000023
1558	1.5492e+02	4.5047	2.454443	0.000246	2.456679	0.416173	-0.000025
1559	1.5502e+02	4.4938	2.433668	0.000209	2.088177	0.353747	-0.000021
1560	1.5512e+02	4.4868	2.411672	0.000221	2.211011	0.374555	-0.000022
1561	1.5522e+02	4.4747	2.388453	0.000233	2.333845	0.395364	-0.000023
1562	1.5532e+02	4.4617	2.368086	0.000205	2.047232	0.346811	-0.000020
1563	1.5542e+02	4.4531	2.344460	0.000237	2.374789	0.402300	-0.000024
1564	1.5552e+02	4.4442	2.323278	0.000213	2.129121	0.360683	-0.000021
1565	1.5562e+02	4.4343	2.302504	0.000209	2.088177	0.353747	-0.000021
1566	1.5572e+02	4.4228	2.279285	0.000233	2.333845	0.395364	-0.000023
1567	1.5582e+02	4.4149	2.258918	0.000205	2.047232	0.346811	-0.000020
1568	1.5592e+02	4.4047	2.237329	0.000217	2.170066	0.367619	-0.000022
1569	1.5602e+02	4.3920	2.210444	0.000270	2.702346	0.457790	-0.000027
1570	1.5612e+02	4.3822	2.193743	0.000168	1.678730	0.284385	-0.000017
1571	1.5622e+02	4.3759	2.170525	0.000233	2.333845	0.395364	-0.000023
1572	1.5631e+02	4.3645	2.148528	0.000221	2.211011	0.374555	-0.000022
1573	1.5641e+02	4.3543	2.128569	0.000201	2.006287	0.339874	-0.000020
1574	1.5651e+02	4.3453	2.104535	0.000242	2.415734	0.409236	-0.000024
1575	1.5661e+02	4.3348	2.080909	0.000237	2.374789	0.402300	-0.000024
1576	1.5671e+02	4.3266	2.056469	0.000246	2.456679	0.416173	-0.000025
1577	1.5681e+02	4.3136	2.033250	0.000233	2.333845	0.395364	-0.000023
1578	1.5691e+02	4.3047	2.011661	0.000217	2.170066	0.367619	-0.000022
1579	1.5701e+02	4.2959	1.988035	0.000237	2.374789	0.402300	-0.000024
1580	1.5711e+02	4.2812	1.964002	0.000242	2.415734	0.409236	-0.000024
1581	1.5721e+02	4.2731	1.941191	0.000229	2.292900	0.388428	-0.000023
1582	1.5731e+02	4.2651	1.919602	0.000217	2.170066	0.367619	-0.000022
1583	1.5741e+02	4.2564	1.896383	0.000233	2.333845	0.395364	-0.000023
1584	1.5751e+02	4.2436	1.869499	0.000270	2.702346	0.457790	-0.000027
1585	1.5761e+02	4.2355	1.849132	0.000205	2.047232	0.346811	-0.000020
1586	1.5771e+02	4.2252	1.823062	0.000262	2.620457	0.443917	-0.000026
1587	1.5781e+02	4.2126	1.804324	0.000188	1.883454	0.319066	-0.000019
1588	1.5791e+02	4.2065	1.779883	0.000246	2.456679	0.416173	-0.000025
1589	1.5801e+02	4.1957	1.756665	0.000233	2.333845	0.395364	-0.000023
1590	1.5811e+02	4.1855	1.733854	0.000229	2.292900	0.388428	-0.000023
1591	1.5821e+02	4.1769	1.709820	0.000242	2.415734	0.409236	-0.000024
1592	1.5830e+02	4.1648	1.687824	0.000221	2.211011	0.374555	-0.000022
1593	1.5840e+02	4.1553	1.665013	0.000229	2.292900	0.388428	-0.000023
1594	1.5850e+02	4.1474	1.646682	0.000184	1.842509	0.312129	-0.000018
1595	1.5860e+02	4.1354	1.623464	0.000233	2.333845	0.395364	-0.000023
1596	1.5870e+02	4.1248	1.604726	0.000188	1.883454	0.319066	-0.000019
1597	1.5880e+02	4.1139	1.581100	0.000237	2.374789	0.402300	-0.000024
1598	1.5890e+02	4.1055	1.559104	0.000221	2.211011	0.374555	-0.000022
1599	1.5900e+02	4.0952	1.539959	0.000192	1.924398	0.326002	-0.000019
1600	1.5910e+02	4.0851	1.519591	0.000205	2.047232	0.346811	-0.000020
1601	1.5920e+02	4.0771	1.499632	0.000201	2.006287	0.339874	-0.000020
1602	1.5930e+02	4.0653	1.477635	0.000221	2.211011	0.374555	-0.000022
1603	1.5940e+02	4.0542	1.455231	0.000225	2.251955	0.381492	-0.000023
1604	1.5950e+02	4.0432	1.436494	0.000188	1.883454	0.319066	-0.000019
1605	1.5960e+02	4.0374	1.416941	0.000197	1.965343	0.332938	-0.000020
1606	1.5970e+02	4.0281	1.394945	0.000221	2.211011	0.374555	-0.000022
1607	1.5980e+02	4.0179	1.374577	0.000205	2.047232	0.346811	-0.000020
1608	1.5990e+02	4.0042	1.356654	0.000180	1.801564	0.305193	-0.000018
1609	1.6000e+02	3.9960	1.333436	0.000233	2.333845	0.395364	-0.000023
1610	1.6010e+02	3.9857	1.310217	0.000233	2.333845	0.395364	-0.000023
1611	1.6019e+02	3.9772	1.288628	0.000217	2.170066	0.367619	-0.000022
1612	1.6029e+02	3.9669	1.270298	0.000184	1.842509	0.312129	-0.000018
1613	1.6039e+02	3.9553	1.247079	0.000233	2.333845	0.395364	-0.000023
1614	1.6049e+02	3.9486	1.227527	0.000197	1.965343	0.332938	-0.000020
1615	1.6059e+02	3.9359	1.205938	0.000217	2.170066	0.367619	-0.000022
1616	1.6069e+02	3.9280	1.186793	0.000192	1.924398	0.326002	-0.000019
1617	1.6079e+02	3.9144	1.162352	0.000246	2.456679	0.416173	-0.000025
1618	1.6089e+02	3.9050	1.143207	0.000192	1.924398	0.326002	-0.000019
1619	1.6099e+02	3.8958	1.121618	0.000217	2.170066	0.367619	-0.000022
1620	1.6109e+02	3.8819	1.102473	0.000192	1.924398	0.326002	-0.000019
1621	1.6119e+02	3.8755	1.084142	0.000184	1.842509	0.312129	-0.000018
1622	1.6129e+02	3.8674	1.064182	0.000201	2.006287	0.339874	-0.000020
1623	1.6139e+02	3.8551	1.044630	0.000197	1.965343	0.332938	-0.000020
1624	1.6149e+02	3.8441	1.028336	0.000164	1.637786	0.277448	-0.000016
1625	1.6159e+02	3.8349	1.007969	0.000205	2.047232	0.346811	-0.000020
1626	1.6169e+02	3.8258	0.985973	0.000221	2.211011	0.374555	-0.000022
1627	1.6179e+02	3.8171	0.970086	0.000160	1.596841	0.270512	-0.000016
1628	1.6189e+02	3.8046	0.950941	0.000192	1.924398	0.326002	-0.000019
1629	1.6199e+02	3.7959	0.929759	0.000213	2.129121	0.360683	-0.000021
1630	1.6209e+02	3.7862	0.909392	0.000205	2.047232	0.346811	-0.000020
1631	1.6219e+02	3.7783	0.893913	0.000156	1.555896	0.263576	-0.000016
1632	1.6228e+02	3.7663	0.870695	0.000233	2.333845	0.395364	-0.000023
1633	1.6238e+02	3.7579	0.853586	0.000172	1.719675	0.291321	-0.000017
1634	1.6248e+02	3.7502	0.836478	0.000172	1.719675	0.291321	-0.000017
1635	1.6258e+02	3.7372	0.812037	0.000246	2.456679	0.416173	-0.000025
1636	1.6268e+02	3.7288	0.796151	0.000160	1.596841	0.270512	-0.000016
1637	1.6278e+02	3.7172	0.779857	0.000164	1.637786	0.277448	-0.000016
1638	1.6288e+02	3.7070	0.758268	0.000217	2.170066	0.367619	-0.000022
1639	1.6298e+02	3.6964	0.736679	0.000217	2.170066	0.367619	-0.000022
1640	1.6308e+02	3.6861	0.714683	0.000221	2.211011	0.374555	-0.000022
1641	1.6318e+02	3.6774	0.697574	0.000172	1.719675	0.291321	-0.000017
1642	1.6328e+02	3.6683	0.678022	0.000197	1.965343	0.332938	-0.000020
1643	1.6338e+02	3.6611	0.660099	0.000180	1.801564	0.305193	-0.000018
1644	1.6348e+02	3.6471	0.638509	0.000217	2.170066	0.367619	-0.000022
1645	1.6358e+02	3.6345	0.616513	0.000221	2.211011	0.374555	-0.000022
1646	1.6368e+02	3.6289	0.595331	0.000213	2.129121	0.360683	-0.000021
1647	1.6378e+02	3.6174	0.577408	0.000180	1.801564	0.305193	-0.000018
1648	1.6388e+02	3.6073	0.555004	0.000225	2.251955	0.381492	-0.000023
1649	1.6398e+02	3.5998	0.535452	0.000197	1.965343	0.332938	-0.000020
1650	1.6408e+02	3.5876	0.509789	0.000258	2.579512	0.436981	-0.000026
1651	1.6418e+02	3.5789	0.486163	0.000237	2.374789	0.402300	-0.000024
1652	1.6427e+02	3.5651	0.467018	0.000192	1.924398	0.326002	-0.000019
1653	1.6437e+02	3.5584	0.446651	0.000205	2.047232	0.346811	-0.000020
1654	1.6447e+02	3.5471	0.423840	0.000229	2.292900	0.388428	-0.000023
1655	1.6457e+02	3.5372	0.403473	0.000205	2.047232	0.346811	-0.000020
1656	1.6467e+02	3.5285	0.384735	0.000188	1.883454	0.319066	-0.000019
1657	1.6477e+02	3.5161	0.363553	0.000213	2.129121	0.360683	-0.000021
1658	1.6487e+02	3.5069	0.341149	0.000225	2.251955	0.381492	-0.000023
1659	1.6497e+02	3.4957	0.324041	0.000172	1.719675	0.291321	-0.000017
1660	1.6507e+02	3.4913	0.305303	0.000188	1.883454	0.319066	-0.000019
1661	1.6517e+02	3.4769	0.282492	0.000229	2.292900	0.388428	-0.000023
1662	1.6527e+02	3.4692	0.260903	0.000217	2.170066	0.367619	-0.000022
1663	1.6537e+02	3.4602	0.242572	0.000184	1.842509	0.312129	-0.000018
1664	1.6547e+02	3.4496	0.219354	0.000233	2.333845	0.395364	-0.000023
1665	1.6557e+02	3.4386	0.201431	0.000180	1.801564	0.305193	-0.000018
1666	1.6567e+02	3.4310	0.181064	0.000205	2.047232	0.346811	-0.000020
1667	1.6577e+02	3.4194	0.159067	0.000221	2.211011	0.374555	-0.000022
1668	1.6587e+02	3.4081	0.141959	0.000172	1.719675	0.291321	-0.000017
1669	1.6597e+02	3.3987	0.121184	0.000209	2.088177	0.353747	-0.000021
1670	1.6607e+02	3.3876	0.100003	0.000213	2.129121	0.360683	-0.000021
1671	1.6616e+02	3.3793	0.080857	0.000192	1.924398	0.326002	-0.000019
1672	1.6626e+02	3.3684	0.059676	0.000213	2.129121	0.360683	-0.000021
1673	1.6636e+02	3.3611	0.040123	0.000197	1.965343	0.332938	-0.000020
1674	1.6646e+02	3.3478	0.019349	0.000209	2.088177	0.353747	-0.000021
1675	1.6656e+02	3.3397	-0.005906	0.000254	2.538568	0.430045	-0.000025
1676	1.6666e+02	3.3323	-0.025052	0.000192	1.924398	0.326002	-0.000019
1677	1.6676e+02	3.3183	-0.048270	0.000233	2.333845	0.395364	-0.000023
1678	1.6686e+02	3.3106	-0.072303	0.000242	2.415734	0.409236	-0.000024
1679	1.6696e+02	3.2977	-0.091448	0.000192	1.924398	0.326002	-0.000019
1680	1.6706e+02	3.2877	-0.115889	0.000246	2.456679	0.416173	-0.000025
1681	1.6716e+02	3.2789	-0.138700	0.000229	2.292900	0.388428	-0.000023
1682	1.6726e+02	3.2687	-0.159475	0.000209	2.088177	0.353747	-0.000021
1683	1.6736e+02	3.2607	-0.184730	0.000254	2.538568	0.430045	-0.000025
1684	1.6746e+02	3.2500	-0.208763	0.000242	2.415734	0.409236	-0.000024
1685	1.6756e+02	3.2388	-0.228316	0.000197	1.965343	0.332938	-0.000020
1686	1.6766e+02	3.2301	-0.253978	0.000258	2.579512	0.436981	-0.000026
1687	1.6776e+02	3.2175	-0.273531	0.000197	1.965343	0.332938	-0.000020
1688	1.6786e+02	3.2104	-0.296342	0.000229	2.292900	0.388428	-0.000023
1689	1.6796e+02	3.1995	-0.322004	0.000258	2.579512	0.436981	-0.000026
1690	1.6806e+02	3.1889	-0.341964	0.000201	2.006287	0.339874	-0.000020
1691	1.6816e+02	3.1818	-0.364368	0.000225	2.251955	0.381492	-0.000023
1692	1.6825e+02	3.1702	-0.390438	0.000262	2.620457	0.443917	-0.000026
1693	1.6835e+02	3.1615	-0.412434	0.000221	2.211011	0.374555	-0.000022
1694	1.6845e+02	3.1512	-0.433616	0.000213	2.129121	0.360683	-0.000021
1695	1.6855e+02	3.1407	-0.459279	0.000258	2.579512	0.436981	-0.000026
1696	1.6865e+02	3.1301	-0.484127	0.000250	2.497623	0.423109	-0.000025
1697	1.6875e+02	3.1209	-0.506530	0.000225	2.251955	0.381492	-0.000023
1698	1.6885e+02	3.1121	-0.530564	0.000242	2.415734	0.409236	-0.000024
1699	1.6895e+02	3.1021	-0.550931	0.000205	2.047232	0.346811	-0.000020
1700	1.6905e+02	3.0917	-0.575779	0.000250	2.497623	0.423109	-0.000025
1701	1.6915e+02	3.0769	-0.600627	0.000250	2.497623	0.423109	-0.000025
1702	1.6925e+02	3.0692	-0.623438	0.000229	2.292900	0.388428	-0.000023
1703	1.6935e+02	3.0610	-0.646656	0.000233	2.333845	0.395364	-0.000023
1704	1.6945e+02	3.0520	-0.671504	0.000250	2.497623	0.423109	-0.000025
1705	1.6955e+02	3.0395	-0.691871	0.000205	2.047232	0.346811	-0.000020
1706	1.6965e+02	3.0320	-0.719163	0.000274	2.743291	0.464726	-0.000027
1707	1.6975e+02	3.0224	-0.742789	0.000237	2.374789	0.402300	-0.000024
1708	1.6985e+02	3.0108	-0.770488	0.000278	2.784236	0.471662	-0.000028
1709	1.6995e+02	3.0014	-0.793707	0.000233	2.333845	0.395364	-0.000023
1710	1.7005e+02	2.9913	-0.826702	0.000332	3.316516	0.561833	-0.000033
1711	1.7015e+02	2.9837	-0.846661	0.000201	2.006287	0.339874	-0.000020
1712	1.7024e+02	2.9733	-0.870695	0.000242	2.415734	0.409236	-0.000024
1713	1.7034e+02	2.9627	-0.897172	0.000266	2.661402	0.450854	-0.000027
1714	1.7044e+02	2.9501	-0.921205	0.000242	2.415734	0.409236	-0.000024
1715	1.7054e+02	2.9423	-0.946868	0.000258	2.579512	0.436981	-0.000026
1716	1.7064e+02	2.9296	-0.974974	0.000283	2.825180	0.478599	-0.000028
1717	1.7074e+02	2.9218	-0.997786	0.000229	2.292900	0.388428	-0.000023
1718	1.7084e+02	2.9116	-1.023448	0.000258	2.579512	0.436981	-0.000026
1719	1.7094e+02	2.9002	-1.047889	0.000246	2.456679	0.416173	-0.000025
1720	1.7104e+02	2.8901	-1.075588	0.000278	2.784236	0.471662	-0.000028
1721	1.7114e+02	2.8818	-1.099214	0.000237	2.374789	0.402300	-0.000024
1722	1.7124e+02	2.8720	-1.124062	0.000250	2.497623	0.423109	-0.000025
1723	1.7134e+02	2.8606	-1.145651	0.000217	2.170066	0.367619	-0.000022
1724	1.7144e+02	2.8516	-1.174572	0.000291	2.907070	0.492471	-0.000029
1725	1.7154e+02	2.8412	-1.200642	0.000262	2.620457	0.443917	-0.000026
1726	1.7164e+02	2.8327	-1.224268	0.000237	2.374789	0.402300	-0.000024
1727	1.7174e+02	2.8204	-1.248301	0.000242	2.415734	0.409236	-0.000024
1728	1.7184e+02	2.8128	-1.272334	0.000242	2.415734	0.409236	-0.000024
1729	1.7194e+02	2.7996	-1.291887	0.000197	1.965343	0.332938	-0.000020
1730	1.7204e+02	2.7905	-1.320401	0.000287	2.866125	0.485535	-0.000029
1731	1.7213e+02	2.7837	-1.341583	0.000213	2.129121	0.360683	-0.000021
1732	1.7223e+02	2.7709	-1.364801	0.000233	2.333845	0.395364	-0.000023
1733	1.7233e+02	2.7629	-1.389649	0.000250	2.497623	0.423109	-0.000025
1734	1.7243e+02	2.7526	-1.410016	0.000205	2.047232	0.346811	-0.000020
1735	1.7253e+02	2.7416	-1.437716	0.000278	2.784236	0.471662	-0.000028
1736	1.7263e+02	2.7317	-1.458897	0.000213	2.129121	0.360683	-0.000021
1737	1.7273e+02	2.7244	-1.478450	0.000197	1.965343	0.332938	-0.000020
1738	1.7283e+02	2.7105	-1.508186	0.000299	2.988959	0.506343	-0.000030
1739	1.7293e+02	2.7013	-1.528146	0.000201	2.006287	0.339874	-0.000020
1740	1.7303e+02	2.6926	-1.557474	0.000295	2.948014	0.499407	-0.000029
1741	1.7313e+02	2.6813	-1.579471	0.000221	2.211011	0.374555	-0.000022
1742	1.7323e+02	2.6719	-1.603911	0.000246	2.456679	0.416173	-0.000025
1743	1.7333e+02	2.6638	-1.630389	0.000266	2.661402	0.450854	-0.000027
1744	1.7343e+02	2.6525	-1.655644	0.000254	2.538568	0.430045	-0.000025
1745	1.7353e+02	2.6429	-1.679677	0.000242	2.415734	0.409236	-0.000024
1746	1.7363e+02	2.6322	-1.704932	0.000254	2.538568	0.430045	-0.000025
1747	1.7373e+02	2.6241	-1.731410	0.000266	2.661402	0.450854	-0.000027
1748	1.7383e+02	2.6134	-1.752184	0.000209	2.088177	0.353747	-0.000021
1749	1.7393e+02	2.6025	-1.777847	0.000258	2.579512	0.436981	-0.000026
1750	1.7403e+02	2.5925	-1.803102	0.000254	2.538568	0.430045	-0.000025
1751	1.7413e+02	2.5832	-1.827950	0.000250	2.497623	0.423109	-0.000025
1752	1.7422e+02	2.5734	-1.852390	0.000246	2.456679	0.416173	-0.000025
1753	1.7432e+02	2.5629	-1.873165	0.000209	2.088177	0.353747	-0.000021
1754	1.7442e+02	2.5549	-1.901271	0.000283	2.825180	0.478599	-0.000028
1755	1.7452e+02	2.5456	-1.930600	0.000295	2.948014	0.499407	-0.000029
1756	1.7462e+02	2.5343	-1.958299	0.000278	2.784236	0.471662	-0.000028
1757	1.7472e+02	2.5251	-1.976630	0.000184	1.842509	0.312129	-0.000018
1758	1.7482e+02	2.5127	-2.001885	0.000254	2.538568	0.430045	-0.000025
1759	1.7492e+02	2.5037	-2.022659	0.000209	2.088177	0.353747	-0.000021
1760	1.7502e+02	2.4949	-2.046693	0.000242	2.415734	0.409236	-0.000024
1761	1.7512e+02	2.4856	-2.066652	0.000201	2.006287	0.339874	-0.000020
1762	1.7522e+02	2.4706	-2.089871	0.000233	2.333845	0.395364	-0.000023
1763	1.7532e+02	2.4639	-2.115534	0.000258	2.579512	0.436981	-0.000026
1764	1.7542e+02	2.4547	-2.139159	0.000237	2.374789	0.402300	-0.000024
1765	1.7552e+02	2.4462	-2.164007	0.000250	2.497623	0.423109	-0.000025
1766	1.7562e+02	2.4346	-2.187226	0.000233	2.333845	0.395364	-0.000023
1767	1.7572e+02	2.4248	-2.211259	0.000242	2.415734	0.409236	-0.000024
1768	1.7582e+02	2.4141	-2.230404	0.000192	1.924398	0.326002	-0.000019
1769	1.7592e+02	2.4041	-2.252808	0.000225	2.251955	0.381492	-0.000023
1770	1.7602e+02	2.3950	-2.276027	0.000233	2.333845	0.395364	-0.000023
1771	1.7612e+02	2.3872	-2.298023	0.000221	2.211011	0.374555	-0.000022
1772	1.7621e+02	2.3726	-2.322464	0.000246	2.456679	0.416173	-0.000025
1773	1.7631e+02	2.3631	-2.344460	0.000221	2.211011	0.374555	-0.000022
1774	1.7641e+02	2.3534	-2.368493	0.000242	2.415734	0.409236	-0.000024
1775	1.7651e+02	2.3441	-2.389675	0.000213	2.129121	0.360683	-0.000021
1776	1.7661e+02	2.3336	-2.414116	0.000246	2.456679	0.416173	-0.000025
1777	1.7671e+02	2.3257	-2.434075	0.000201	2.006287	0.339874	-0.000020
1778	1.7681e+02	2.3148	-2.458109	0.000242	2.415734	0.409236	-0.000024
1779	1.7691e+02	2.3067	-2.482549	0.000246	2.456679	0.416173	-0.000025
1780	1.7701e+02	2.2915	-2.505360	0.000229	2.292900	0.388428	-0.000023
1781	1.7711e+02	2.2829	-2.524913	0.000197	1.965343	0.332938	-0.000020
1782	1.7721e+02	2.2749	-2.550983	0.000262	2.620457	0.443917	-0.000026
1783	1.7731e+02	2.2645	-2.572165	0.000213	2.129121	0.360683	-0.000021
1784	1.7741e+02	2.2549	-2.593346	0.000213	2.129121	0.360683	-0.000021
1785	1.7751e+02	2.2439	-2.614936	0.000217	2.170066	0.367619	-0.000022
1786	1.7761e+02	2.2356	-2.638154	0.000233	2.333845	0.395364	-0.000023
1787	1.7771e+02	2.2258	-2.663409	0.000254	2.538568	0.430045	-0.000025
1788	1.7781e+02	2.2140	-2.682554	0.000192	1.924398	0.326002	-0.000019
1789	1.7791e+02	2.2038	-2.709439	0.000270	2.702346	0.457790	-0.000027
1790	1.7801e+02	2.1961	-2.727362	0.000180	1.801564	0.305193	-0.000018
1791	1.7810e+02	2.1836	-2.746914	0.000197	1.965343	0.332938	-0.000020
1792	1.7820e+02	2.1748	-2.770540	0.000237	2.374789	0.402300	-0.000024
1793	1.7830e+02	2.1632	-2.786834	0.000164	1.637786	0.277448	-0.000016
1794	1.7840e+02	2.1558	-2.806387	0.000197	1.965343	0.332938	-0.000020
1795	1.7850e+02	2.1467	-2.830012	0.000237	2.374789	0.402300	-0.000024
1796	1.7860e+02	2.1334	-2.850380	0.000205	2.047232	0.346811	-0.000020
1797	1.7870e+02	2.1253	-2.876042	0.000258	2.579512	0.436981	-0.000026
1798	1.7880e+02	2.1149	-2.891114	0.000151	1.514952	0.256640	-0.000015
1799	1.7890e+02	2.1064	-2.913925	0.000229	2.292900	0.388428	-0.000023
1800	1.7900e+02	2.0951	-2.937143	0.000233	2.333845	0.395364	-0.000023
1801	1.7910e+02	2.0855	-2.955067	0.000180	1.801564	0.305193	-0.000018
1802	1.7920e+02	2.0750	-2.975026	0.000201	2.006287	0.339874	-0.000020
1803	1.7930e+02	2.0646	-2.998652	0.000237	2.374789	0.402300	-0.000024
1804	1.7940e+02	2.0564	-3.018205	0.000197	1.965343	0.332938	-0.000020
1805	1.7950e+02	2.0493	-3.041016	0.000229	2.292900	0.388428	-0.000023
1806	1.7960e+02	2.0333	-3.063012	0.000221	2.211011	0.374555	-0.000022
1807	1.7970e+02	2.0241	-3.080528	0.000176	1.760620	0.298257	-0.000018
1808	1.7980e+02	2.0169	-3.104969	0.000246	2.456679	0.416173	-0.000025
1809	1.7990e+02	2.0078	-3.124928	0.000201	2.006287	0.339874	-0.000020
1810	1.8000e+02	1.9941	-3.152220	0.000274	2.743291	0.464726	-0.000027
1811	1.8009e+02	1.9844	-3.173402	0.000213	2.129121	0.360683	-0.000021
1812	1.8019e+02	1.9752	-3.193362	0.000201	2.006287	0.339874	-0.000020
1813	1.8029e+02	1.9679	-3.216580	0.000233	2.333845	0.395364	-0.000023
1814	1.8039e+02	1.9580	-3.241021	0.000246	2.456679	0.416173	-0.000025
1815	1.8049e+02	1.9478	-3.260573	0.000197	1.965343	0.332938	-0.000020
1816	1.8059e+02	1.9351	-3.291124	0.000307	3.070848	0.520216	-0.000031
1817	1.8069e+02	1.9259	-3.309047	0.000180	1.801564	0.305193	-0.000018
1818	1.8079e+02	1.9160	-3.333080	0.000242	2.415734	0.409236	-0.000024
1819	1.8089e+02	1.9057	-3.357114	0.000242	2.415734	0.409236	-0.000024
1820	1.8099e+02	1.8955	-3.379110	0.000221	2.211011	0.374555	-0.000022
1821	1.8109e+02	1.8852	-3.403143	0.000242	2.415734	0.409236	-0.000024
1822	1.8119e+02	1.8769	-3.424733	0.000217	2.170066	0.367619	-0.000022
1823	1.8129e+02	1.8660	-3.444285	0.000197	1.965343	0.332938	-0.000020
1824	1.8139e+02	1.8580	-3.471577	0.000274	2.743291	0.464726	-0.000027
1825	1.8149e+02	1.8471	-3.490722	0.000192	1.924398	0.326002	-0.000019
1826	1.8159e+02	1.8381	-3.515163	0.000246	2.456679	0.416173	-0.000025
1827	1.8169e+02	1.8264	-3.537159	0.000221	2.211011	0.374555	-0.000022
1828	1.8179e+02	1.8157	-3.557526	0.000205	2.047232	0.346811	-0.000020
1829	1.8189e+02	1.8075	-3.578301	0.000209	2.088177	0.353747	-0.000021
1830	1.8199e+02	1.7971	-3.599890	0.000217	2.170066	0.367619	-0.000022
1831	1.8209e+02	1.7847	-3.625552	0.000258	2.579512	0.436981	-0.000026
1832	1.8218e+02	1.7741	-3.648364	0.000229	2.292900	0.388428	-0.000023
1833	1.8228e+02	1.7651	-3.669138	0.000209	2.088177	0.353747	-0.000021
1834	1.8238e+02	1.7565	-3.689505	0.000205	2.047232	0.346811	-0.000020
1835	1.8248e+02	1.7455	-3.715575	0.000262	2.620457	0.443917	-0.000026
1836	1.8258e+02	1.7397	-3.732683	0.000172	1.719675	0.291321	-0.000017
1837	1.8268e+02	1.7283	-3.757531	0.000250	2.497623	0.423109	-0.000025
1838	1.8278e+02	1.7165	-3.778306	0.000209	2.088177	0.353747	-0.000021
1839	1.8288e+02	1.7077	-3.803154	0.000250	2.497623	0.423109	-0.000025
1840	1.8298e+02	1.6968	-3.823928	0.000209	2.088177	0.353747	-0.000021
1841	1.8308e+02	1.6866	-3.847961	0.000242	2.415734	0.409236	-0.000024
1842	1.8318e+02	1.6779	-3.868736	0.000209	2.088177	0.353747	-0.000021
1843	1.8328e+02	1.6687	-3.895620	0.000270	2.702346	0.457790	-0.000027
1844	1.8338e+02	1.6572	-3.918432	0.000229	2.292900	0.388428	-0.000023
1845	1.8348e+02	1.6474	-3.940428	0.000221	2.211011	0.374555	-0.000022
1846	1.8358e+02	1.6405	-3.965683	0.000254	2.538568	0.430045	-0.000025
1847	1.8368e+02	1.6286	-3.991346	0.000258	2.579512	0.436981	-0.000026
1848	1.8378e+02	1.6190	-4.011713	0.000205	2.047232	0.346811	-0.000020
1849	1.8388e+02	1.6065	-4.040634	0.000291	2.907070	0.492471	-0.000029
1850	1.8398e+02	1.5969	-4.064260	0.000237	2.374789	0.402300	-0.000024
1851	1.8407e+02	1.5907	-4.087479	0.000233	2.333845	0.395364	-0.000023
1852	1.8417e+02	1.5760	-4.110697	0.000233	2.333845	0.395364	-0.000023
1853	1.8427e+02	1.5679	-4.132694	0.000221	2.211011	0.374555	-0.000022
1854	1.8437e+02	1.5607	-4.159578	0.000270	2.702346	0.457790	-0.000027
1855	1.8447e+02	1.5467	-4.188907	0.000295	2.948014	0.499407	-0.000029
1856	1.8457e+02	1.5372	-4.211718	0.000229	2.292900	0.388428	-0.000023
1857	1.8467e+02	1.5279	-4.235344	0.000237	2.374789	0.402300	-0.000024
1858	1.8477e+02	1.5189	-4.259377	0.000242	2.415734	0.409236	-0.000024
1859	1.8487e+02	1.5098	-4.287891	0.000287	2.866125	0.485535	-0.000029
1860	1.8497e+02	1.4982	-4.308666	0.000209	2.088177	0.353747	-0.000021
1861	1.8507e+02	1.4871	-4.332292	0.000237	2.374789	0.402300	-0.000024
1862	1.8517e+02	1.4799	-4.357547	0.000254	2.538568	0.430045	-0.000025
1863	1.8527e+02	1.4684	-4.386061	0.000287	2.866125	0.485535	-0.000029
1864	1.8537e+02	1.4596	-4.409279	0.000233	2.333845	0.395364	-0.000023
1865	1.8547e+02	1.4456	-4.437386	0.000283	2.825180	0.478599	-0.000028
1866	1.8557e+02	1.4373	-4.458568	0.000213	2.129121	0.360683	-0.000021
1867	1.8567e+02	1.4294	-4.486675	0.000283	2.825180	0.478599	-0.000028
1868	1.8577e+02	1.4179	-4.510708	0.000242	2.415734	0.409236	-0.000024
1869	1.8587e+02	1.4086	-4.536778	0.000262	2.620457	0.443917	-0.000026
1870	1.8597e+02	1.3984	-4.562440	0.000258	2.579512	0.436981	-0.000026
1871	1.8606e+02	1.3873	-4.588918	0.000266	2.661402	0.450854	-0.000027
1872	1.8616e+02	1.3779	-4.613358	0.000246	2.456679	0.416173	-0.000025
1873	1.8626e+02	1.3692	-4.638613	0.000254	2.538568	0.430045	-0.000025
1874	1.8636e+02	1.3593	-4.669571	0.000311	3.111793	0.527152	-0.000031
1875	1.8646e+02	1.3473	-4.691975	0.000225	2.251955	0.381492	-0.000023
1876	1.8656e+02	1.3408	-4.718452	0.000266	2.661402	0.450854	-0.000027
1877	1.8666e+02	1.3293	-4.751040	0.000328	3.275571	0.554897	-0.000033
1878	1.8676e+02	1.3191	-4.777110	0.000262	2.620457	0.443917	-0.000026
1879	1.8686e+02	1.3085	-4.803994	0.000270	2.702346	0.457790	-0.000027
1880	1.8696e+02	1.2978	-4.833730	0.000299	2.988959	0.506343	-0.000030
1881	1.8706e+02	1.2949	-4.854505	0.000209	2.088177	0.353747	-0.000021
1882	1.8716e+02	1.2777	-4.881797	0.000274	2.743291	0.464726	-0.000027
1883	1.8726e+02	1.2663	-4.913977	0.000323	3.234627	0.547961	-0.000032
1884	1.8736e+02	1.2575	-4.940047	0.000262	2.620457	0.443917	-0.000026
1885	1.8746e+02	1.2476	-4.963673	0.000237	2.374789	0.402300	-0.000024
1886	1.8756e+02	1.2386	-4.994631	0.000311	3.111793	0.527152	-0.000031
1887	1.8766e+02	1.2305	-5.019886	0.000254	2.538568	0.430045	-0.000025
1888	1.8776e+02	1.2191	-5.045956	0.000262	2.620457	0.443917	-0.000026
1889	1.8786e+02	1.2114	-5.072026	0.000262	2.620457	0.443917	-0.000026
1890	1.8796e+02	1.2001	-5.100540	0.000287	2.866125	0.485535	-0.000029
1891	1.8806e+02	1.1918	-5.124980	0.000246	2.456679	0.416173	-0.000025
1892	1.8815e+02	1.1800	-5.151458	0.000266	2.661402	0.450854	-0.000027
1893	1.8825e+02	1.1670	-5.179157	0.000278	2.784236	0.471662	-0.000028
1894	1.8835e+02	1.1576	-5.206449	0.000274	2.743291	0.464726	-0.000027
1895	1.8845e+02	1.1504	-5.230482	0.000242	2.415734	0.409236	-0.000024
1896	1.8855e+02	1.1378	-5.255737	0.000254	2.538568	0.430045	-0.000025
1897	1.8865e+02	1.1282	-5.283437	0.000278	2.784236	0.471662	-0.000028
1898	1.8875e+02	1.1201	-5.307062	0.000237	2.374789	0.402300	-0.000024
1899	1.8885e+02	1.1097	-5.329874	0.000229	2.292900	0.388428	-0.000023
1900	1.8895e+02	1.1047	-5.362054	0.000323	3.234627	0.547961	-0.000032
1901	1.8905e+02	1.0900	-5.382013	0.000201	2.006287	0.339874	-0.000020
1902	1.8915e+02	1.0841	-5.406454	0.000246	2.456679	0.416173	-0.000025
1903	1.8925e+02	1.0711	-5.433746	0.000274	2.743291	0.464726	-0.000027
1904	1.8935e+02	1.0629	-5.461445	0.000278	2.784236	0.471662	-0.000028
1905	1.8945e+02	1.0515	-5.483034	0.000217	2.170066	0.367619	-0.000022
1906	1.8955e+02	1.0390	-5.511141	0.000283	2.825180	0.478599	-0.000028
1907	1.8965e+02	1.0339	-5.538840	0.000278	2.784236	0.471662	-0.000028
1908	1.8975e+02	1.0186	-5.560429	0.000217	2.170066	0.367619	-0.000022
1909	1.8985e+02	1.0137	-5.588129	0.000278	2.784236	0.471662	-0.000028
1910	1.8995e+02	1.0010	-5.615421	0.000274	2.743291	0.464726	-0.000027
1911	1.9004e+02	0.9901	-5.642305	0.000270	2.702346	0.457790	-0.000027
1912	1.9014e+02	0.9810	-5.667153	0.000250	2.497623	0.423109	-0.000025
1913	1.9024e+02	0.9715	-5.698111	0.000311	3.111793	0.527152	-0.000031
1914	1.9034e+02	0.9605	-5.724589	0.000266	2.661402	0.450854	-0.000027
1915	1.9044e+02	0.9488	-5.749029	0.000246	2.456679	0.416173	-0.000025
1916	1.9054e+02	0.9428	-5.771840	0.000229	2.292900	0.388428	-0.000023
1917	1.9064e+02	0.9306	-5.799132	0.000274	2.743291	0.464726	-0.000027
1918	1.9074e+02	0.9190	-5.828461	0.000295	2.948014	0.499407	-0.000029
1919	1.9084e+02	0.9117	-5.854123	0.000258	2.579512	0.436981	-0.000026
1920	1.9094e+02	0.9009	-5.883452	0.000295	2.948014	0.499407	-0.000029
1921	1.9104e+02	0.8913	-5.909115	0.000258	2.579512	0.436981	-0.000026
1922	1.9114e+02	0.8811	-5.935999	0.000270	2.702346	0.457790	-0.000027
1923	1.9124e+02	0.8706	-5.965328	0.000295	2.948014	0.499407	-0.000029
1924	1.9134e+02	0.8645	-5.990583	0.000254	2.538568	0.430045	-0.000025
1925	1.9144e+02	0.8532	-6.018690	0.000283	2.825180	0.478599	-0.000028
1926	1.9154e+02	0.8424	-6.040279	0.000217	2.170066	0.367619	-0.000022
1927	1.9164e+02	0.8315	-6.067978	0.000278	2.784236	0.471662	-0.000028
1928	1.9174e+02	0.8215	-6.094048	0.000262	2.620457	0.443917	-0.000026
1929	1.9184e+02	0.8128	-6.116045	0.000221	2.211011	0.374555	-0.000022
1930	1.9194e+02	0.8009	-6.141300	0.000254	2.538568	0.430045	-0.000025
1931	1.9203e+02	0.7902	-6.164519	0.000233	2.333845	0.395364	-0.000023
1932	1.9213e+02	0.7823	-6.191403	0.000270	2.702346	0.457790	-0.000027
1933	1.9223e+02	0.7732	-6.216251	0.000250	2.497623	0.423109	-0.000025
1934	1.9233e+02	0.7616	-6.243543	0.000274	2.743291	0.464726	-0.000027
1935	1.9243e+02	0.7539	-6.263503	0.000201	2.006287	0.339874	-0.000020
1936	1.9253e+02	0.7437	-6.286314	0.000229	2.292900	0.388428	-0.000023
1937	1.9263e+02	0.7327	-6.315235	0.000291	2.907070	0.492471	-0.000029
1938	1.9273e+02	0.7211	-6.335602	0.000205	2.047232	0.346811	-0.000020
1939	1.9283e+02	0.7117	-6.364931	0.000295	2.948014	0.499407	-0.000029
1940	1.9293e+02	0.7043	-6.388964	0.000242	2.415734	0.409236	-0.000024
1941	1.9303e+02	0.6896	-6.410553	0.000217	2.170066	0.367619	-0.000022
1942	1.9313e+02	0.6844	-6.437845	0.000274	2.743291	0.464726	-0.000027
1943	1.9323e+02	0.6731	-6.461471	0.000237	2.374789	0.402300	-0.000024
1944	1.9333e+02	0.6630	-6.485504	0.000242	2.415734	0.409236	-0.000024
1945	1.9343e+02	0.6506	-6.508723	0.000233	2.333845	0.395364	-0.000023
1946	1.9353e+02	0.6439	-6.532756	0.000242	2.415734	0.409236	-0.000024
1947	1.9363e+02	0.6332	-6.553531	0.000209	2.088177	0.353747	-0.000021
1948	1.9373e+02	0.6208	-6.585303	0.000319	3.193682	0.541024	-0.000032
1949	1.9383e+02	0.6136	-6.606485	0.000213	2.129121	0.360683	-0.000021
1950	1.9393e+02	0.6046	-6.629296	0.000229	2.292900	0.388428	-0.000023
1951	1.9403e+02	0.5925	-6.656588	0.000274	2.743291	0.464726	-0.000027
1952	1.9412e+02	0.5817	-6.681029	0.000246	2.456679	0.416173	-0.000025
1953	1.9422e+02	0.5726	-6.703025	0.000221	2.211011	0.374555	-0.000022
1954	1.9432e+02	0.5636	-6.724615	0.000217	2.170066	0.367619	-0.000022
1955	1.9442e+02	0.5542	-6.751906	0.000274	2.743291	0.464726	-0.000027
1956	1.9452e+02	0.5445	-6.776754	0.000250	2.497623	0.423109	-0.000025
1957	1.9462e+02	0.5308	-6.797936	0.000213	2.129121	0.360683	-0.000021
1958	1.9472e+02	0.5203	-6.820340	0.000225	2.251955	0.381492	-0.000023
1959	1.9482e+02	0.5116	-6.843151	0.000229	2.292900	0.388428	-0.000023
1960	1.9492e+02	0.5038	-6.865555	0.000225	2.251955	0.381492	-0.000023
1961	1.9502e+02	0.4933	-6.888774	0.000233	2.333845	0.395364	-0.000023
1962	1.9512e+02	0.4832	-6.912399	0.000237	2.374789	0.402300	-0.000024
1963	1.9522e+02	0.4733	-6.929100	0.000168	1.678730	0.284385	-0.000017
1964	1.9532e+02	0.4638	-6.954763	0.000258	2.579512	0.436981	-0.000026
1965	1.9542e+02	0.4539	-6.981648	0.000270	2.702346	0.457790	-0.000027
1966	1.9552e+02	0.4446	-7.001607	0.000201	2.006287	0.339874	-0.000020
1967	1.9562e+02	0.4331	-7.025233	0.000237	2.374789	0.402300	-0.000024
1968	1.9572e+02	0.4230	-7.046415	0.000213	2.129121	0.360683	-0.000021
1969	1.9582e+02	0.4119	-7.065968	0.000197	1.965343	0.332938	-0.000020
1970	1.9592e+02	0.4023	-7.091630	0.000258	2.579512	0.436981	-0.000026
1971	1.9601e+02	0.3957	-7.116478	0.000250	2.497623	0.423109	-0.000025
1972	1.9611e+02	0.3855	-7.136438	0.000201	2.006287	0.339874	-0.000020
1973	1.9621e+02	0.3748	-7.161693	0.000254	2.538568	0.430045	-0.000025
1974	1.9631e+02	0.3637	-7.182060	0.000205	2.047232	0.346811	-0.000020
1975	1.9641e+02	0.3545	-7.204871	0.000229	2.292900	0.388428	-0.000023
1976	1.9651e+02	0.3425	-7.229312	0.000246	2.456679	0.416173	-0.000025
1977	1.9661e+02	0.3350	-7.252938	0.000237	2.374789	0.402300	-0.000024
1978	1.9671e+02	0.3236	-7.278193	0.000254	2.538568	0.430045	-0.000025
1979	1.9681e+02	0.3153	-7.302226	0.000242	2.415734	0.409236	-0.000024
1980	1.9691e+02	0.3030	-7.321779	0.000197	1.965343	0.332938	-0.000020
1981	1.9701e+02	0.2963	-7.353551	0.000319	3.193682	0.541024	-0.000032
1982	1.9711e+02	0.2882	-7.375548	0.000221	2.211011	0.374555	-0.000022
1983	1.9721e+02	0.2753	-7.401618	0.000262	2.620457	0.443917	-0.000026
1984	1.9731e+02	0.2666	-7.424836	0.000233	2.333845	0.395364	-0.000023
1985	1.9741e+02	0.2529	-7.448055	0.000233	2.333845	0.395364	-0.000023
1986	1.9751e+02	0.2446	-7.475347	0.000274	2.743291	0.464726	-0.000027
1987	1.9761e+02	0.2372	-7.494492	0.000192	1.924398	0.326002	-0.000019
1988	1.9771e+02	0.2225	-7.525857	0.000315	3.152737	0.534088	-0.000032
1989	1.9781e+02	0.2134	-7.547854	0.000221	2.211011	0.374555	-0.000022
1990	1.9791e+02	0.2029	-7.571887	0.000242	2.415734	0.409236	-0.000024
1991	1.9800e+02	0.1930	-7.596328	0.000246	2.456679	0.416173	-0.000025
1992	1.9810e+02	0.1831	-7.618731	0.000225	2.251955	0.381492	-0.000023
1993	1.9820e+02	0.1754	-7.645209	0.000266	2.661402	0.450854	-0.000027
1994	1.9830e+02	0.1651	-7.668020	0.000229	2.292900	0.388428	-0.000023
1995	1.9840e+02	0.1559	-7.691646	0.000237	2.374789	0.402300	-0.000024
1996	1.9850e+02	0.1460	-7.713642	0.000221	2.211011	0.374555	-0.000022
1997	1.9860e+02	0.1350	-7.738083	0.000246	2.456679	0.416173	-0.000025
1998	1.9870e+02	0.1248	-7.762523	0.000246	2.456679	0.416173	-0.000025
1999	1.9880e+02	0.1119	-7.783298	0.000209	2.088177	0.353747	-0.000021
2000	1.9890e+02	0.1069	-7.808553	0.000254	2.538568	0.430045	-0.000025
2001	1.9900e+02	0.0944	-7.835438	0.000270	2.702346	0.457790	-0.000027
2002	1.9910e+02	0.0864	-7.857027	0.000217	2.170066	0.367619	-0.000022
2003	1.9920e+02	0.0740	-7.879838	0.000229	2.292900	0.388428	-0.000023
2004	1.9930e+02	0.0654	-7.907130	0.000274	2.743291	0.464726	-0.000027
2005	1.9940e+02	0.0548	-7.926275	0.000192	1.924398	0.326002	-0.000019
2006	1.9950e+02	0.0458	-7.947457	0.000213	2.129121	0.360683	-0.000021
2007	1.9960e+02	0.0343	-7.975971	0.000287	2.866125	0.485535	-0.000029
2008	1.9970e+02	0.0244	-8.000819	0.000250	2.497623	0.423109	-0.000025
2009	1.9980e+02	0.0146	-8.024445	0.000237	2.374789	0.402300	-0.000024
2010	1.9990e+02	0.0067	-8.046441	0.000221	2.211011	0.374555	-0.000022
2011	2.0000e+02	-0.0042	-8.074955	0.000221	2.211011	0.374555	-0.000029

PMax (uC/cm2):	2.34e+01
Pr (uC/cm2):	3.66e+00
-Pr (uC/cm2):	0.00e+00
PLoss (uC/cm2):	0.00e+00
C (Max-Eff) (nF):	2.34e-01
K (Eff):	3.97e+02
Vert. (+/-Pr) Shift (uC/cm2):	1.83e+00
Offset (uC/cm2):	1.17e+01

A (Loop Area - uC/cm2·Volts):	-3.49e-02



Hysteresis Version: 5.48.1 - Radiant Technologies, Inc., 1999 - 9/12/24

