»»»»»»»»»»»»»»»»»»»»»»»»»»»»»»»»»»»» Hysteresis ««««««««««««««««««««««««««««««««««««
»»»  Executed Version:	5.48.1
»»»  Vision Version:	5.48.4 (R)
»»»  Vision Compiled:	9/18/24
»»»  Driver Version:	5.47.0
»»»  Windows Version:	Windows 8 or 8.1
»»»  Processor Information:	x86 (AMD or Intel) - 32 Processors
»»»  Tester Name:	PMF21124-494 (100V)
»»»  Tester S/N:	PMF21124-494
»»»  Internal Amp Type:	100V RevK 270k
»»»  Internal Amp S/N:	iAB2-596/K     
»»»  Execution Count:	1
»»»»»»»»»»»»»»»»»»»»»»»»»»»»»»»»»»»»»»»»»»««««««««««««««««««««««««««««««««««««««««««

Stored:	6/26/2025 - 12:46:2
Configured:	06/26/25 10:24:47 AM
Executed:	06/26/25 12:45:11 PM

»»»»»»»»»»»»»»»»»»»»»»»»»»»»»»»»»»» Sample Info ««««««««««««««««««««««««««««««««««««
Sample Name:	
Lot Name:	
Wafer Name:	
Die Row/Column:	0/0
Capacitor Number:	0
Sample Area (cm2):	1.00e-04
Sample Thickness (microns):	1.50e-01

Amplifier:	Internal

»»»»»»»»»»»»»»»»»»»»»»»»»»»»»»»»»»» Tester Info «««««««««««««««««««««««««««««««««««
Tester Name:	PMF21124-494 (100V)
Tester Serial Number:	PMF21124-494
Return Signal Amp. Level:	1.9 [Index: 2]

»»»»»»»»»»»»»»»»»»»»»»»»»»»»»»»» Hysteresis Info ««««««««««««««««««««««««««««««««««
Task Name:	Hyst-562
Volts:	10.00
Field:	666.67 (kV/cm)
DCBias:	0.00
DCField:	0.00 (kV/cm)
Hysteresis Period (ms):	2.00e+02
Preset:	Enabled
Preset Delay (ms):	1.00e+03
Profile:	Standard Monopolar

»»»»»»»»»»»»»»»»»»»»»»»»»»»»»»»»»»»»»» Data «««««««««««««««««««««««««««««««««««««««
Points:	2011

Valid Data

Point	Time (ms)	Drive Voltage	Measured Polarization (uC/cm2)	Capacitance (uF)	Normalized Capacitance (uF/cm2)	Dielectric Constant	Instantaneous Current (mA)
   1	0.0000e+00	-0.0037	-22.043750	0.000197	1.965650	0.332990	0.000020
   2	9.9500e-02	0.0051	-22.024197	0.000197	1.965650	0.332990	0.000020
   3	1.9900e-01	0.0162	-21.998534	0.000258	2.579916	0.437050	0.000026
   4	2.9850e-01	0.0272	-21.971650	0.000270	2.702769	0.457861	0.000027
   5	3.9800e-01	0.0352	-21.944358	0.000274	2.743720	0.464799	0.000027
   6	4.9750e-01	0.0475	-21.915844	0.000287	2.866573	0.485611	0.000029
   7	5.9700e-01	0.0559	-21.889774	0.000262	2.620867	0.443987	0.000026
   8	6.9650e-01	0.0663	-21.865741	0.000242	2.416112	0.409300	0.000024
   9	7.9600e-01	0.0748	-21.835597	0.000303	3.030378	0.513360	0.000030
  10	8.9550e-01	0.0887	-21.809120	0.000266	2.661818	0.450924	0.000027
  11	9.9500e-01	0.0960	-21.784272	0.000250	2.498014	0.423175	0.000025
  12	1.0945e+00	0.1054	-21.762276	0.000221	2.211357	0.374614	0.000022
  13	1.1940e+00	0.1170	-21.732947	0.000295	2.948475	0.499485	0.000029
  14	1.2935e+00	0.1235	-21.708099	0.000250	2.498014	0.423175	0.000025
  15	1.3930e+00	0.1352	-21.678771	0.000295	2.948475	0.499485	0.000029
  16	1.4925e+00	0.1439	-21.652293	0.000266	2.661818	0.450924	0.000027
  17	1.5920e+00	0.1551	-21.625001	0.000274	2.743720	0.464799	0.000027
  18	1.6915e+00	0.1622	-21.598524	0.000266	2.661818	0.450924	0.000027
  19	1.7910e+00	0.1754	-21.569195	0.000295	2.948475	0.499485	0.000029
  20	1.8905e+00	0.1838	-21.545977	0.000233	2.334210	0.395426	0.000023
  21	1.9900e+00	0.1946	-21.521536	0.000246	2.457063	0.416238	0.000025
  22	2.0895e+00	0.2065	-21.496688	0.000250	2.498014	0.423175	0.000025
  23	2.1890e+00	0.2149	-21.470211	0.000266	2.661818	0.450924	0.000027
  24	2.2885e+00	0.2235	-21.443734	0.000266	2.661818	0.450924	0.000027
  25	2.3880e+00	0.2346	-21.419293	0.000246	2.457063	0.416238	0.000025
  26	2.4875e+00	0.2432	-21.394853	0.000246	2.457063	0.416238	0.000025
  27	2.5870e+00	0.2548	-21.369598	0.000254	2.538965	0.430112	0.000025
  28	2.6865e+00	0.2647	-21.343528	0.000262	2.620867	0.443987	0.000026
  29	2.7860e+00	0.2722	-21.317050	0.000266	2.661818	0.450924	0.000027
  30	2.8855e+00	0.2871	-21.293832	0.000233	2.334210	0.395426	0.000023
  31	2.9850e+00	0.2957	-21.264503	0.000295	2.948475	0.499485	0.000029
  32	3.0845e+00	0.3031	-21.240877	0.000238	2.375161	0.402363	0.000024
  33	3.1840e+00	0.3117	-21.219696	0.000213	2.129455	0.360739	0.000021
  34	3.2835e+00	0.3236	-21.193626	0.000262	2.620867	0.443987	0.000026
  35	3.3830e+00	0.3351	-21.167963	0.000258	2.579916	0.437050	0.000026
  36	3.4825e+00	0.3435	-21.142708	0.000254	2.538965	0.430112	0.000025
  37	3.5820e+00	0.3557	-21.112157	0.000307	3.071329	0.520297	0.000031
  38	3.6815e+00	0.3623	-21.087717	0.000246	2.457063	0.416238	0.000025
  39	3.7810e+00	0.3735	-21.064905	0.000229	2.293259	0.388489	0.000023
  40	3.8805e+00	0.3845	-21.040057	0.000250	2.498014	0.423175	0.000025
  41	3.9800e+00	0.3946	-21.015210	0.000250	2.498014	0.423175	0.000025
  42	4.0795e+00	0.4046	-20.991991	0.000233	2.334210	0.395426	0.000023
  43	4.1790e+00	0.4136	-20.964292	0.000278	2.784671	0.471736	0.000028
  44	4.2785e+00	0.4227	-20.941481	0.000229	2.293259	0.388489	0.000023
  45	4.3780e+00	0.4353	-20.915003	0.000266	2.661818	0.450924	0.000027
  46	4.4775e+00	0.4453	-20.890563	0.000246	2.457063	0.416238	0.000025
  47	4.5770e+00	0.4538	-20.864085	0.000266	2.661818	0.450924	0.000027
  48	4.6765e+00	0.4629	-20.843311	0.000209	2.088503	0.353802	0.000021
  49	4.7760e+00	0.4774	-20.811946	0.000315	3.153231	0.534172	0.000032
  50	4.8755e+00	0.4820	-20.785468	0.000266	2.661818	0.450924	0.000027
  51	4.9750e+00	0.4945	-20.756954	0.000287	2.866573	0.485611	0.000029
  52	5.0745e+00	0.5031	-20.729255	0.000278	2.784671	0.471736	0.000028
  53	5.1740e+00	0.5126	-20.706444	0.000229	2.293259	0.388489	0.000023
  54	5.2735e+00	0.5244	-20.677930	0.000287	2.866573	0.485611	0.000029
  55	5.3730e+00	0.5347	-20.651860	0.000262	2.620867	0.443987	0.000026
  56	5.4725e+00	0.5407	-20.624161	0.000278	2.784671	0.471736	0.000028
  57	5.5720e+00	0.5519	-20.603794	0.000205	2.047552	0.346865	0.000020
  58	5.6715e+00	0.5615	-20.576909	0.000270	2.702769	0.457861	0.000027
  59	5.7710e+00	0.5747	-20.550432	0.000266	2.661818	0.450924	0.000027
  60	5.8705e+00	0.5795	-20.523954	0.000266	2.661818	0.450924	0.000027
  61	5.9700e+00	0.5923	-20.495033	0.000291	2.907524	0.492548	0.000029
  62	6.0695e+00	0.6029	-20.471815	0.000233	2.334210	0.395426	0.000023
  63	6.1690e+00	0.6129	-20.448189	0.000238	2.375161	0.402363	0.000024
  64	6.2685e+00	0.6255	-20.418860	0.000295	2.948475	0.499485	0.000029
  65	6.3680e+00	0.6352	-20.391568	0.000274	2.743720	0.464799	0.000027
  66	6.4675e+00	0.6434	-20.368757	0.000229	2.293259	0.388489	0.000023
  67	6.5670e+00	0.6540	-20.339836	0.000291	2.907524	0.492548	0.000029
  68	6.6665e+00	0.6638	-20.319061	0.000209	2.088503	0.353802	0.000021
  69	6.7660e+00	0.6700	-20.294621	0.000246	2.457063	0.416238	0.000025
  70	6.8655e+00	0.6839	-20.272624	0.000221	2.211357	0.374614	0.000022
  71	6.9650e+00	0.6897	-20.247369	0.000254	2.538965	0.430112	0.000025
  72	7.0645e+00	0.6997	-20.223743	0.000238	2.375161	0.402363	0.000024
  73	7.1640e+00	0.7122	-20.198895	0.000250	2.498014	0.423175	0.000025
  74	7.2635e+00	0.7222	-20.174862	0.000242	2.416112	0.409300	0.000024
  75	7.3630e+00	0.7320	-20.149199	0.000258	2.579916	0.437050	0.000026
  76	7.4625e+00	0.7419	-20.128017	0.000213	2.129455	0.360739	0.000021
  77	7.5620e+00	0.7516	-20.102762	0.000254	2.538965	0.430112	0.000025
  78	7.6615e+00	0.7635	-20.076285	0.000266	2.661818	0.450924	0.000027
  79	7.7610e+00	0.7735	-20.051844	0.000246	2.457063	0.416238	0.000025
  80	7.8605e+00	0.7833	-20.031070	0.000209	2.088503	0.353802	0.000021
  81	7.9600e+00	0.7904	-20.005407	0.000258	2.579916	0.437050	0.000026
  82	8.0595e+00	0.8018	-19.978115	0.000274	2.743720	0.464799	0.000027
  83	8.1590e+00	0.8114	-19.955712	0.000225	2.252308	0.381551	0.000023
  84	8.2585e+00	0.8222	-19.932493	0.000233	2.334210	0.395426	0.000023
  85	8.3580e+00	0.8327	-19.908460	0.000242	2.416112	0.409300	0.000024
  86	8.4575e+00	0.8424	-19.889315	0.000192	1.924699	0.326053	0.000019
  87	8.5570e+00	0.8527	-19.862023	0.000274	2.743720	0.464799	0.000027
  88	8.6565e+00	0.8637	-19.842878	0.000192	1.924699	0.326053	0.000019
  89	8.7560e+00	0.8719	-19.824955	0.000180	1.801846	0.305241	0.000018
  90	8.8555e+00	0.8808	-19.799699	0.000254	2.538965	0.430112	0.000025
  91	8.9550e+00	0.8912	-19.779332	0.000205	2.047552	0.346865	0.000020
  92	9.0545e+00	0.9007	-19.754484	0.000250	2.498014	0.423175	0.000025
  93	9.1540e+00	0.9084	-19.734525	0.000201	2.006601	0.339927	0.000020
  94	9.2535e+00	0.9209	-19.712121	0.000225	2.252308	0.381551	0.000023
  95	9.3530e+00	0.9325	-19.685236	0.000270	2.702769	0.457861	0.000027
  96	9.4525e+00	0.9431	-19.665276	0.000201	2.006601	0.339927	0.000020
  97	9.5520e+00	0.9507	-19.640836	0.000246	2.457063	0.416238	0.000025
  98	9.6515e+00	0.9599	-19.620469	0.000205	2.047552	0.346865	0.000020
  99	9.7510e+00	0.9705	-19.601731	0.000188	1.883748	0.319116	0.000019
 100	9.8505e+00	0.9824	-19.575254	0.000266	2.661818	0.450924	0.000027
 101	9.9500e+00	0.9914	-19.556516	0.000188	1.883748	0.319116	0.000019
 102	1.0050e+01	1.0008	-19.532075	0.000246	2.457063	0.416238	0.000025
 103	1.0149e+01	1.0093	-19.507635	0.000246	2.457063	0.416238	0.000025
 104	1.0248e+01	1.0191	-19.488490	0.000192	1.924699	0.326053	0.000019
 105	1.0348e+01	1.0345	-19.463234	0.000254	2.538965	0.430112	0.000025
 106	1.0447e+01	1.0430	-19.440016	0.000233	2.334210	0.395426	0.000023
 107	1.0547e+01	1.0548	-19.417205	0.000229	2.293259	0.388489	0.000023
 108	1.0646e+01	1.0612	-19.391135	0.000262	2.620867	0.443987	0.000026
 109	1.0746e+01	1.0714	-19.364658	0.000266	2.661818	0.450924	0.000027
 110	1.0845e+01	1.0829	-19.342254	0.000225	2.252308	0.381551	0.000023
 111	1.0945e+01	1.0900	-19.316591	0.000258	2.579916	0.437050	0.000026
 112	1.1044e+01	1.1016	-19.294187	0.000225	2.252308	0.381551	0.000023
 113	1.1144e+01	1.1096	-19.268525	0.000258	2.579916	0.437050	0.000026
 114	1.1243e+01	1.1227	-19.241640	0.000270	2.702769	0.457861	0.000027
 115	1.1343e+01	1.1306	-19.223310	0.000184	1.842797	0.312178	0.000018
 116	1.1443e+01	1.1382	-19.197240	0.000262	2.620867	0.443987	0.000026
 117	1.1542e+01	1.1502	-19.176465	0.000209	2.088503	0.353802	0.000021
 118	1.1642e+01	1.1602	-19.153247	0.000233	2.334210	0.395426	0.000023
 119	1.1741e+01	1.1681	-19.129621	0.000238	2.375161	0.402363	0.000024
 120	1.1841e+01	1.1826	-19.101107	0.000287	2.866573	0.485611	0.000029
 121	1.1940e+01	1.1893	-19.080332	0.000209	2.088503	0.353802	0.000021
 122	1.2040e+01	1.2028	-19.053855	0.000266	2.661818	0.450924	0.000027
 123	1.2139e+01	1.2092	-19.029415	0.000246	2.457063	0.416238	0.000025
 124	1.2239e+01	1.2183	-19.003752	0.000258	2.579916	0.437050	0.000026
 125	1.2338e+01	1.2289	-18.984607	0.000192	1.924699	0.326053	0.000019
 126	1.2438e+01	1.2395	-18.959759	0.000250	2.498014	0.423175	0.000025
 127	1.2537e+01	1.2499	-18.933282	0.000266	2.661818	0.450924	0.000027
 128	1.2636e+01	1.2586	-18.910471	0.000229	2.293259	0.388489	0.000023
 129	1.2736e+01	1.2694	-18.886845	0.000238	2.375161	0.402363	0.000024
 130	1.2835e+01	1.2788	-18.864441	0.000225	2.252308	0.381551	0.000023
 131	1.2935e+01	1.2899	-18.838778	0.000258	2.579916	0.437050	0.000026
 132	1.3034e+01	1.3002	-18.820041	0.000188	1.883748	0.319116	0.000019
 133	1.3134e+01	1.3093	-18.795600	0.000246	2.457063	0.416238	0.000025
 134	1.3233e+01	1.3198	-18.773196	0.000225	2.252308	0.381551	0.000023
 135	1.3333e+01	1.3281	-18.753236	0.000201	2.006601	0.339927	0.000020
 136	1.3432e+01	1.3432	-18.723908	0.000295	2.948475	0.499485	0.000029
 137	1.3532e+01	1.3482	-18.707614	0.000164	1.638042	0.277492	0.000016
 138	1.3632e+01	1.3577	-18.677063	0.000307	3.071329	0.520297	0.000031
 139	1.3731e+01	1.3665	-18.659548	0.000176	1.760895	0.298304	0.000018
 140	1.3831e+01	1.3765	-18.631848	0.000278	2.784671	0.471736	0.000028
 141	1.3930e+01	1.3879	-18.609037	0.000229	2.293259	0.388489	0.000023
 142	1.4030e+01	1.3985	-18.585004	0.000242	2.416112	0.409300	0.000024
 143	1.4129e+01	1.4101	-18.562600	0.000225	2.252308	0.381551	0.000023
 144	1.4229e+01	1.4238	-18.540604	0.000221	2.211357	0.374614	0.000022
 145	1.4328e+01	1.4291	-18.515348	0.000254	2.538965	0.430112	0.000025
 146	1.4428e+01	1.4395	-18.494574	0.000209	2.088503	0.353802	0.000021
 147	1.4527e+01	1.4492	-18.470133	0.000246	2.457063	0.416238	0.000025
 148	1.4627e+01	1.4598	-18.447729	0.000225	2.252308	0.381551	0.000023
 149	1.4726e+01	1.4672	-18.425326	0.000225	2.252308	0.381551	0.000023
 150	1.4825e+01	1.4773	-18.397626	0.000278	2.784671	0.471736	0.000028
 151	1.4925e+01	1.4909	-18.376852	0.000209	2.088503	0.353802	0.000021
 152	1.5024e+01	1.4997	-18.350782	0.000262	2.620867	0.443987	0.000026
 153	1.5124e+01	1.5092	-18.325934	0.000250	2.498014	0.423175	0.000025
 154	1.5223e+01	1.5194	-18.299049	0.000270	2.702769	0.457861	0.000027
 155	1.5323e+01	1.5273	-18.279904	0.000192	1.924699	0.326053	0.000019
 156	1.5422e+01	1.5368	-18.250168	0.000299	2.989427	0.506423	0.000030
 157	1.5522e+01	1.5468	-18.228172	0.000221	2.211357	0.374614	0.000022
 158	1.5621e+01	1.5586	-18.200473	0.000278	2.784671	0.471736	0.000028
 159	1.5721e+01	1.5668	-18.176847	0.000238	2.375161	0.402363	0.000024
 160	1.5820e+01	1.5766	-18.149962	0.000270	2.702769	0.457861	0.000027
 161	1.5920e+01	1.5877	-18.125522	0.000246	2.457063	0.416238	0.000025
 162	1.6020e+01	1.5988	-18.102710	0.000229	2.293259	0.388489	0.000023
 163	1.6119e+01	1.6080	-18.077862	0.000250	2.498014	0.423175	0.000025
 164	1.6218e+01	1.6174	-18.051793	0.000262	2.620867	0.443987	0.000026
 165	1.6318e+01	1.6286	-18.025315	0.000266	2.661818	0.450924	0.000027
 166	1.6418e+01	1.6397	-18.002097	0.000233	2.334210	0.395426	0.000023
 167	1.6517e+01	1.6451	-17.976027	0.000262	2.620867	0.443987	0.000026
 168	1.6616e+01	1.6582	-17.951179	0.000250	2.498014	0.423175	0.000025
 169	1.6716e+01	1.6670	-17.921443	0.000299	2.989427	0.506423	0.000030
 170	1.6816e+01	1.6771	-17.894966	0.000266	2.661818	0.450924	0.000027
 171	1.6915e+01	1.6949	-17.867266	0.000278	2.784671	0.471736	0.000028
 172	1.7015e+01	1.6961	-17.844048	0.000233	2.334210	0.395426	0.000023
 173	1.7114e+01	1.7038	-17.815941	0.000283	2.825622	0.478673	0.000028
 174	1.7213e+01	1.7145	-17.788242	0.000278	2.784671	0.471736	0.000028
 175	1.7313e+01	1.7272	-17.758506	0.000299	2.989427	0.506423	0.000030
 176	1.7413e+01	1.7358	-17.730807	0.000278	2.784671	0.471736	0.000028
 177	1.7512e+01	1.7457	-17.705144	0.000258	2.579916	0.437050	0.000026
 178	1.7611e+01	1.7569	-17.682333	0.000229	2.293259	0.388489	0.000023
 179	1.7711e+01	1.7674	-17.652189	0.000303	3.030378	0.513360	0.000030
 180	1.7811e+01	1.7777	-17.630600	0.000217	2.170406	0.367677	0.000022
 181	1.7910e+01	1.7872	-17.600864	0.000299	2.989427	0.506423	0.000030
 182	1.8009e+01	1.7979	-17.572350	0.000287	2.866573	0.485611	0.000029
 183	1.8109e+01	1.8078	-17.544244	0.000283	2.825622	0.478673	0.000028
 184	1.8209e+01	1.8139	-17.521025	0.000233	2.334210	0.395426	0.000023
 185	1.8308e+01	1.8246	-17.491289	0.000299	2.989427	0.506423	0.000030
 186	1.8407e+01	1.8368	-17.465219	0.000262	2.620867	0.443987	0.000026
 187	1.8507e+01	1.8461	-17.437113	0.000283	2.825622	0.478673	0.000028
 188	1.8607e+01	1.8574	-17.412672	0.000246	2.457063	0.416238	0.000025
 189	1.8706e+01	1.8680	-17.387417	0.000254	2.538965	0.430112	0.000025
 190	1.8805e+01	1.8768	-17.360532	0.000270	2.702769	0.457861	0.000027
 191	1.8905e+01	1.8863	-17.336499	0.000242	2.416112	0.409300	0.000024
 192	1.9005e+01	1.8958	-17.307578	0.000291	2.907524	0.492548	0.000029
 193	1.9104e+01	1.9072	-17.284766	0.000229	2.293259	0.388489	0.000023
 194	1.9203e+01	1.9124	-17.257475	0.000274	2.743720	0.464799	0.000027
 195	1.9303e+01	1.9262	-17.230590	0.000270	2.702769	0.457861	0.000027
 196	1.9402e+01	1.9389	-17.207371	0.000233	2.334210	0.395426	0.000023
 197	1.9502e+01	1.9436	-17.183746	0.000238	2.375161	0.402363	0.000024
 198	1.9602e+01	1.9557	-17.155232	0.000287	2.866573	0.485611	0.000029
 199	1.9701e+01	1.9659	-17.127532	0.000278	2.784671	0.471736	0.000028
 200	1.9800e+01	1.9761	-17.102277	0.000254	2.538965	0.430112	0.000025
 201	1.9900e+01	1.9865	-17.078244	0.000242	2.416112	0.409300	0.000024
 202	2.0000e+01	1.9973	-17.060321	0.000180	1.801846	0.305241	0.000018
 203	2.0099e+01	2.0083	-17.029363	0.000311	3.112280	0.527234	0.000031
 204	2.0198e+01	2.0156	-17.005329	0.000242	2.416112	0.409300	0.000024
 205	2.0298e+01	2.0240	-16.978852	0.000266	2.661818	0.450924	0.000027
 206	2.0398e+01	2.0345	-16.953190	0.000258	2.579916	0.437050	0.000026
 207	2.0497e+01	2.0455	-16.929971	0.000233	2.334210	0.395426	0.000023
 208	2.0596e+01	2.0573	-16.907975	0.000221	2.211357	0.374614	0.000022
 209	2.0696e+01	2.0663	-16.881905	0.000262	2.620867	0.443987	0.000026
 210	2.0796e+01	2.0754	-16.855427	0.000266	2.661818	0.450924	0.000027
 211	2.0895e+01	2.0846	-16.828950	0.000266	2.661818	0.450924	0.000027
 212	2.0994e+01	2.0956	-16.808583	0.000205	2.047552	0.346865	0.000020
 213	2.1094e+01	2.1050	-16.782513	0.000262	2.620867	0.443987	0.000026
 214	2.1194e+01	2.1138	-16.758073	0.000246	2.457063	0.416238	0.000025
 215	2.1293e+01	2.1261	-16.729151	0.000291	2.907524	0.492548	0.000029
 216	2.1392e+01	2.1384	-16.704711	0.000246	2.457063	0.416238	0.000025
 217	2.1492e+01	2.1466	-16.677419	0.000274	2.743720	0.464799	0.000027
 218	2.1591e+01	2.1538	-16.649312	0.000283	2.825622	0.478673	0.000028
 219	2.1691e+01	2.1661	-16.624464	0.000250	2.498014	0.423175	0.000025
 220	2.1791e+01	2.1770	-16.600838	0.000238	2.375161	0.402363	0.000024
 221	2.1890e+01	2.1841	-16.572324	0.000287	2.866573	0.485611	0.000029
 222	2.1989e+01	2.1941	-16.546254	0.000262	2.620867	0.443987	0.000026
 223	2.2089e+01	2.2063	-16.520185	0.000262	2.620867	0.443987	0.000026
 224	2.2189e+01	2.2147	-16.501447	0.000188	1.883748	0.319116	0.000019
 225	2.2288e+01	2.2250	-16.471711	0.000299	2.989427	0.506423	0.000030
 226	2.2387e+01	2.2330	-16.447270	0.000246	2.457063	0.416238	0.000025
 227	2.2487e+01	2.2428	-16.418349	0.000291	2.907524	0.492548	0.000029
 228	2.2587e+01	2.2523	-16.391464	0.000270	2.702769	0.457861	0.000027
 229	2.2686e+01	2.2652	-16.366209	0.000254	2.538965	0.430112	0.000025
 230	2.2785e+01	2.2733	-16.340546	0.000258	2.579916	0.437050	0.000026
 231	2.2885e+01	2.2850	-16.316106	0.000246	2.457063	0.416238	0.000025
 232	2.2985e+01	2.2956	-16.287999	0.000283	2.825622	0.478673	0.000028
 233	2.3084e+01	2.3016	-16.266410	0.000217	2.170406	0.367677	0.000022
 234	2.3183e+01	2.3141	-16.241562	0.000250	2.498014	0.423175	0.000025
 235	2.3283e+01	2.3277	-16.213863	0.000278	2.784671	0.471736	0.000028
 236	2.3383e+01	2.3341	-16.192681	0.000213	2.129455	0.360739	0.000021
 237	2.3482e+01	2.3417	-16.171092	0.000217	2.170406	0.367677	0.000022
 238	2.3581e+01	2.3556	-16.151132	0.000201	2.006601	0.339927	0.000020
 239	2.3681e+01	2.3629	-16.123026	0.000283	2.825622	0.478673	0.000028
 240	2.3780e+01	2.3750	-16.096956	0.000262	2.620867	0.443987	0.000026
 241	2.3880e+01	2.3832	-16.072922	0.000242	2.416112	0.409300	0.000024
 242	2.3980e+01	2.3940	-16.051741	0.000213	2.129455	0.360739	0.000021
 243	2.4079e+01	2.4046	-16.026893	0.000250	2.498014	0.423175	0.000025
 244	2.4178e+01	2.4135	-16.004489	0.000225	2.252308	0.381551	0.000023
 245	2.4278e+01	2.4230	-15.981270	0.000233	2.334210	0.395426	0.000023
 246	2.4378e+01	2.4371	-15.956015	0.000254	2.538965	0.430112	0.000025
 247	2.4477e+01	2.4446	-15.932389	0.000238	2.375161	0.402363	0.000024
 248	2.4576e+01	2.4552	-15.907134	0.000254	2.538965	0.430112	0.000025
 249	2.4676e+01	2.4645	-15.888396	0.000188	1.883748	0.319116	0.000019
 250	2.4776e+01	2.4754	-15.859475	0.000291	2.907524	0.492548	0.000029
 251	2.4875e+01	2.4832	-15.839108	0.000205	2.047552	0.346865	0.000020
 252	2.4974e+01	2.4914	-15.815075	0.000242	2.416112	0.409300	0.000024
 253	2.5074e+01	2.5039	-15.791856	0.000233	2.334210	0.395426	0.000023
 254	2.5174e+01	2.5140	-15.771896	0.000201	2.006601	0.339927	0.000020
 255	2.5273e+01	2.5246	-15.750307	0.000217	2.170406	0.367677	0.000022
 256	2.5372e+01	2.5314	-15.730347	0.000201	2.006601	0.339927	0.000020
 257	2.5472e+01	2.5420	-15.705907	0.000246	2.457063	0.416238	0.000025
 258	2.5572e+01	2.5529	-15.688798	0.000172	1.719944	0.291366	0.000017
 259	2.5671e+01	2.5643	-15.664765	0.000242	2.416112	0.409300	0.000024
 260	2.5770e+01	2.5726	-15.643176	0.000217	2.170406	0.367677	0.000022
 261	2.5870e+01	2.5819	-15.617921	0.000254	2.538965	0.430112	0.000025
 262	2.5970e+01	2.5911	-15.601627	0.000164	1.638042	0.277492	0.000016
 263	2.6069e+01	2.5996	-15.577594	0.000242	2.416112	0.409300	0.000024
 264	2.6169e+01	2.6119	-15.555597	0.000221	2.211357	0.374614	0.000022
 265	2.6268e+01	2.6221	-15.536045	0.000197	1.965650	0.332990	0.000020
 266	2.6367e+01	2.6323	-15.512419	0.000238	2.375161	0.402363	0.000024
 267	2.6467e+01	2.6409	-15.490423	0.000221	2.211357	0.374614	0.000022
 268	2.6567e+01	2.6517	-15.466797	0.000238	2.375161	0.402363	0.000024
 269	2.6666e+01	2.6598	-15.447244	0.000197	1.965650	0.332990	0.000020
 270	2.6765e+01	2.6727	-15.426062	0.000213	2.129455	0.360739	0.000021
 271	2.6865e+01	2.6820	-15.404066	0.000221	2.211357	0.374614	0.000022
 272	2.6965e+01	2.6922	-15.383291	0.000209	2.088503	0.353802	0.000021
 273	2.7064e+01	2.7021	-15.360480	0.000229	2.293259	0.388489	0.000023
 274	2.7163e+01	2.7091	-15.336447	0.000242	2.416112	0.409300	0.000024
 275	2.7263e+01	2.7239	-15.311599	0.000250	2.498014	0.423175	0.000025
 276	2.7363e+01	2.7337	-15.290825	0.000209	2.088503	0.353802	0.000021
 277	2.7462e+01	2.7409	-15.265977	0.000250	2.498014	0.423175	0.000025
 278	2.7561e+01	2.7526	-15.241129	0.000250	2.498014	0.423175	0.000025
 279	2.7661e+01	2.7603	-15.216688	0.000246	2.457063	0.416238	0.000025
 280	2.7761e+01	2.7685	-15.193470	0.000233	2.334210	0.395426	0.000023
 281	2.7860e+01	2.7841	-15.173510	0.000201	2.006601	0.339927	0.000020
 282	2.7959e+01	2.7935	-15.151921	0.000217	2.170406	0.367677	0.000022
 283	2.8059e+01	2.8030	-15.126258	0.000258	2.579916	0.437050	0.000026
 284	2.8159e+01	2.8121	-15.101818	0.000246	2.457063	0.416238	0.000025
 285	2.8258e+01	2.8213	-15.079821	0.000221	2.211357	0.374614	0.000022
 286	2.8358e+01	2.8324	-15.056195	0.000238	2.375161	0.402363	0.000024
 287	2.8457e+01	2.8429	-15.032977	0.000233	2.334210	0.395426	0.000023
 288	2.8556e+01	2.8538	-15.007314	0.000258	2.579916	0.437050	0.000026
 289	2.8656e+01	2.8631	-14.985318	0.000221	2.211357	0.374614	0.000022
 290	2.8756e+01	2.8756	-14.960470	0.000250	2.498014	0.423175	0.000025
 291	2.8855e+01	2.8808	-14.939288	0.000213	2.129455	0.360739	0.000021
 292	2.8954e+01	2.8887	-14.917699	0.000217	2.170406	0.367677	0.000022
 293	2.9054e+01	2.8986	-14.893258	0.000246	2.457063	0.416238	0.000025
 294	2.9154e+01	2.9117	-14.870447	0.000229	2.293259	0.388489	0.000023
 295	2.9253e+01	2.9229	-14.846007	0.000246	2.457063	0.416238	0.000025
 296	2.9352e+01	2.9305	-14.824010	0.000221	2.211357	0.374614	0.000022
 297	2.9452e+01	2.9414	-14.799570	0.000246	2.457063	0.416238	0.000025
 298	2.9552e+01	2.9516	-14.778795	0.000209	2.088503	0.353802	0.000021
 299	2.9651e+01	2.9597	-14.751503	0.000274	2.743720	0.464799	0.000027
 300	2.9750e+01	2.9697	-14.732765	0.000188	1.883748	0.319116	0.000019
 301	2.9850e+01	2.9791	-14.710769	0.000221	2.211357	0.374614	0.000022
 302	2.9950e+01	2.9913	-14.685106	0.000258	2.579916	0.437050	0.000026
 303	3.0049e+01	3.0018	-14.665961	0.000192	1.924699	0.326053	0.000019
 304	3.0148e+01	3.0112	-14.646001	0.000201	2.006601	0.339927	0.000020
 305	3.0248e+01	3.0224	-14.625227	0.000209	2.088503	0.353802	0.000021
 306	3.0348e+01	3.0305	-14.600379	0.000250	2.498014	0.423175	0.000025
 307	3.0447e+01	3.0418	-14.578790	0.000217	2.170406	0.367677	0.000022
 308	3.0547e+01	3.0482	-14.552313	0.000266	2.661818	0.450924	0.000027
 309	3.0646e+01	3.0627	-14.529501	0.000229	2.293259	0.388489	0.000023
 310	3.0745e+01	3.0697	-14.507098	0.000225	2.252308	0.381551	0.000023
 311	3.0845e+01	3.0804	-14.487953	0.000192	1.924699	0.326053	0.000019
 312	3.0945e+01	3.0896	-14.463919	0.000242	2.416112	0.409300	0.000024
 313	3.1044e+01	3.1015	-14.443145	0.000209	2.088503	0.353802	0.000021
 314	3.1143e+01	3.1104	-14.418297	0.000250	2.498014	0.423175	0.000025
 315	3.1243e+01	3.1181	-14.398337	0.000201	2.006601	0.339927	0.000020
 316	3.1343e+01	3.1295	-14.374711	0.000238	2.375161	0.402363	0.000024
 317	3.1442e+01	3.1422	-14.349863	0.000250	2.498014	0.423175	0.000025
 318	3.1541e+01	3.1509	-14.329904	0.000201	2.006601	0.339927	0.000020
 319	3.1641e+01	3.1609	-14.305056	0.000250	2.498014	0.423175	0.000025
 320	3.1741e+01	3.1722	-14.280615	0.000246	2.457063	0.416238	0.000025
 321	3.1840e+01	3.1799	-14.253731	0.000270	2.702769	0.457861	0.000027
 322	3.1939e+01	3.1871	-14.231327	0.000225	2.252308	0.381551	0.000023
 323	3.2039e+01	3.2018	-14.207294	0.000242	2.416112	0.409300	0.000024
 324	3.2139e+01	3.2098	-14.184075	0.000233	2.334210	0.395426	0.000023
 325	3.2238e+01	3.2175	-14.160856	0.000233	2.334210	0.395426	0.000023
 326	3.2337e+01	3.2299	-14.134379	0.000266	2.661818	0.450924	0.000027
 327	3.2437e+01	3.2401	-14.114012	0.000205	2.047552	0.346865	0.000020
 328	3.2536e+01	3.2494	-14.088349	0.000258	2.579916	0.437050	0.000026
 329	3.2636e+01	3.2601	-14.060650	0.000278	2.784671	0.471736	0.000028
 330	3.2736e+01	3.2679	-14.036617	0.000242	2.416112	0.409300	0.000024
 331	3.2835e+01	3.2800	-14.014620	0.000221	2.211357	0.374614	0.000022
 332	3.2934e+01	3.2896	-13.988551	0.000262	2.620867	0.443987	0.000026
 333	3.3034e+01	3.2993	-13.968183	0.000205	2.047552	0.346865	0.000020
 334	3.3133e+01	3.3117	-13.941706	0.000266	2.661818	0.450924	0.000027
 335	3.3233e+01	3.3196	-13.920117	0.000217	2.170406	0.367677	0.000022
 336	3.3333e+01	3.3285	-13.890381	0.000299	2.989427	0.506423	0.000030
 337	3.3432e+01	3.3380	-13.865533	0.000250	2.498014	0.423175	0.000025
 338	3.3532e+01	3.3498	-13.838649	0.000270	2.702769	0.457861	0.000027
 339	3.3631e+01	3.3573	-13.811357	0.000274	2.743720	0.464799	0.000027
 340	3.3730e+01	3.3657	-13.788953	0.000225	2.252308	0.381551	0.000023
 341	3.3830e+01	3.3788	-13.761661	0.000274	2.743720	0.464799	0.000027
 342	3.3929e+01	3.3877	-13.733961	0.000278	2.784671	0.471736	0.000028
 343	3.4029e+01	3.3981	-13.708706	0.000254	2.538965	0.430112	0.000025
 344	3.4129e+01	3.4107	-13.682636	0.000262	2.620867	0.443987	0.000026
 345	3.4228e+01	3.4200	-13.657381	0.000254	2.538965	0.430112	0.000025
 346	3.4328e+01	3.4302	-13.628052	0.000295	2.948475	0.499485	0.000029
 347	3.4427e+01	3.4376	-13.608500	0.000197	1.965650	0.332990	0.000020
 348	3.4526e+01	3.4515	-13.579986	0.000287	2.866573	0.485611	0.000029
 349	3.4626e+01	3.4587	-13.553916	0.000262	2.620867	0.443987	0.000026
 350	3.4725e+01	3.4709	-13.527031	0.000270	2.702769	0.457861	0.000027
 351	3.4825e+01	3.4789	-13.498517	0.000287	2.866573	0.485611	0.000029
 352	3.4925e+01	3.4884	-13.472448	0.000262	2.620867	0.443987	0.000026
 353	3.5024e+01	3.4992	-13.447600	0.000250	2.498014	0.423175	0.000025
 354	3.5123e+01	3.5099	-13.423566	0.000242	2.416112	0.409300	0.000024
 355	3.5223e+01	3.5170	-13.396274	0.000274	2.743720	0.464799	0.000027
 356	3.5322e+01	3.5300	-13.373056	0.000233	2.334210	0.395426	0.000023
 357	3.5422e+01	3.5401	-13.348208	0.000250	2.498014	0.423175	0.000025
 358	3.5522e+01	3.5491	-13.321731	0.000266	2.661818	0.450924	0.000027
 359	3.5621e+01	3.5580	-13.297698	0.000242	2.416112	0.409300	0.000024
 360	3.5721e+01	3.5685	-13.270813	0.000270	2.702769	0.457861	0.000027
 361	3.5820e+01	3.5790	-13.244743	0.000262	2.620867	0.443987	0.000026
 362	3.5919e+01	3.5861	-13.223561	0.000213	2.129455	0.360739	0.000021
 363	3.6019e+01	3.5975	-13.198306	0.000254	2.538965	0.430112	0.000025
 364	3.6118e+01	3.6076	-13.173051	0.000254	2.538965	0.430112	0.000025
 365	3.6218e+01	3.6174	-13.153498	0.000197	1.965650	0.332990	0.000020
 366	3.6318e+01	3.6291	-13.125799	0.000278	2.784671	0.471736	0.000028
 367	3.6417e+01	3.6369	-13.100951	0.000250	2.498014	0.423175	0.000025
 368	3.6517e+01	3.6474	-13.077325	0.000238	2.375161	0.402363	0.000024
 369	3.6616e+01	3.6581	-13.049626	0.000278	2.784671	0.471736	0.000028
 370	3.6715e+01	3.6668	-13.026000	0.000238	2.375161	0.402363	0.000024
 371	3.6815e+01	3.6773	-13.000338	0.000258	2.579916	0.437050	0.000026
 372	3.6914e+01	3.6901	-12.977526	0.000229	2.293259	0.388489	0.000023
 373	3.7014e+01	3.6993	-12.954715	0.000229	2.293259	0.388489	0.000023
 374	3.7114e+01	3.7061	-12.929867	0.000250	2.498014	0.423175	0.000025
 375	3.7213e+01	3.7189	-12.905834	0.000242	2.416112	0.409300	0.000024
 376	3.7313e+01	3.7289	-12.884652	0.000213	2.129455	0.360739	0.000021
 377	3.7412e+01	3.7365	-12.855324	0.000295	2.948475	0.499485	0.000029
 378	3.7511e+01	3.7458	-12.831290	0.000242	2.416112	0.409300	0.000024
 379	3.7611e+01	3.7580	-12.806850	0.000246	2.457063	0.416238	0.000025
 380	3.7711e+01	3.7678	-12.790556	0.000164	1.638042	0.277492	0.000016
 381	3.7810e+01	3.7776	-12.764894	0.000258	2.579916	0.437050	0.000026
 382	3.7910e+01	3.7859	-12.737602	0.000274	2.743720	0.464799	0.000027
 383	3.8009e+01	3.7970	-12.713976	0.000238	2.375161	0.402363	0.000024
 384	3.8108e+01	3.8062	-12.687091	0.000270	2.702769	0.457861	0.000027
 385	3.8208e+01	3.8145	-12.658984	0.000283	2.825622	0.478673	0.000028
 386	3.8307e+01	3.8274	-12.634137	0.000250	2.498014	0.423175	0.000025
 387	3.8407e+01	3.8361	-12.607659	0.000266	2.661818	0.450924	0.000027
 388	3.8507e+01	3.8465	-12.581589	0.000262	2.620867	0.443987	0.000026
 389	3.8606e+01	3.8570	-12.556741	0.000250	2.498014	0.423175	0.000025
 390	3.8706e+01	3.8663	-12.533116	0.000238	2.375161	0.402363	0.000024
 391	3.8805e+01	3.8792	-12.510304	0.000229	2.293259	0.388489	0.000023
 392	3.8904e+01	3.8878	-12.483827	0.000266	2.661818	0.450924	0.000027
 393	3.9004e+01	3.8966	-12.458572	0.000254	2.538965	0.430112	0.000025
 394	3.9103e+01	3.9078	-12.435353	0.000233	2.334210	0.395426	0.000023
 395	3.9203e+01	3.9160	-12.409691	0.000258	2.579916	0.437050	0.000026
 396	3.9303e+01	3.9260	-12.381992	0.000278	2.784671	0.471736	0.000028
 397	3.9402e+01	3.9326	-12.359588	0.000225	2.252308	0.381551	0.000023
 398	3.9502e+01	3.9457	-12.335554	0.000242	2.416112	0.409300	0.000024
 399	3.9601e+01	3.9548	-12.306226	0.000295	2.948475	0.499485	0.000029
 400	3.9700e+01	3.9651	-12.285859	0.000205	2.047552	0.346865	0.000020
 401	3.9800e+01	3.9769	-12.261418	0.000246	2.457063	0.416238	0.000025
 402	3.9900e+01	3.9838	-12.237792	0.000238	2.375161	0.402363	0.000024
 403	3.9999e+01	3.9965	-12.214166	0.000238	2.375161	0.402363	0.000024
 404	4.0099e+01	4.0063	-12.187689	0.000266	2.661818	0.450924	0.000027
 405	4.0198e+01	4.0163	-12.170581	0.000172	1.719944	0.291366	0.000017
 406	4.0297e+01	4.0257	-12.144103	0.000266	2.661818	0.450924	0.000027
 407	4.0397e+01	4.0356	-12.124551	0.000197	1.965650	0.332990	0.000020
 408	4.0496e+01	4.0436	-12.100518	0.000242	2.416112	0.409300	0.000024
 409	4.0596e+01	4.0540	-12.076077	0.000246	2.457063	0.416238	0.000025
 410	4.0696e+01	4.0639	-12.055710	0.000205	2.047552	0.346865	0.000020
 411	4.0795e+01	4.0755	-12.034528	0.000213	2.129455	0.360739	0.000021
 412	4.0895e+01	4.0861	-12.007236	0.000274	2.743720	0.464799	0.000027
 413	4.0994e+01	4.0952	-11.981574	0.000258	2.579916	0.437050	0.000026
 414	4.1093e+01	4.1074	-11.957133	0.000246	2.457063	0.416238	0.000025
 415	4.1193e+01	4.1154	-11.941247	0.000160	1.597091	0.270555	0.000016
 416	4.1292e+01	4.1248	-11.915584	0.000258	2.579916	0.437050	0.000026
 417	4.1392e+01	4.1337	-11.893180	0.000225	2.252308	0.381551	0.000023
 418	4.1492e+01	4.1438	-11.871591	0.000217	2.170406	0.367677	0.000022
 419	4.1591e+01	4.1536	-11.847965	0.000238	2.375161	0.402363	0.000024
 420	4.1691e+01	4.1666	-11.825154	0.000229	2.293259	0.388489	0.000023
 421	4.1790e+01	4.1733	-11.805194	0.000201	2.006601	0.339927	0.000020
 422	4.1889e+01	4.1848	-11.786864	0.000184	1.842797	0.312178	0.000018
 423	4.1989e+01	4.1961	-11.764868	0.000221	2.211357	0.374614	0.000022
 424	4.2089e+01	4.2038	-11.741649	0.000233	2.334210	0.395426	0.000023
 425	4.2188e+01	4.2147	-11.723319	0.000184	1.842797	0.312178	0.000018
 426	4.2288e+01	4.2313	-11.700100	0.000233	2.334210	0.395426	0.000023
 427	4.2387e+01	4.2350	-11.679733	0.000205	2.047552	0.346865	0.000020
 428	4.2486e+01	4.2445	-11.658959	0.000209	2.088503	0.353802	0.000021
 429	4.2586e+01	4.2564	-11.639813	0.000192	1.924699	0.326053	0.000019
 430	4.2685e+01	4.2690	-11.616595	0.000233	2.334210	0.395426	0.000023
 431	4.2785e+01	4.2770	-11.596228	0.000205	2.047552	0.346865	0.000020
 432	4.2885e+01	4.2845	-11.570973	0.000254	2.538965	0.430112	0.000025
 433	4.2984e+01	4.2933	-11.551827	0.000192	1.924699	0.326053	0.000019
 434	4.3084e+01	4.3056	-11.531868	0.000201	2.006601	0.339927	0.000020
 435	4.3183e+01	4.3166	-11.508242	0.000238	2.375161	0.402363	0.000024
 436	4.3282e+01	4.3248	-11.493985	0.000143	1.433287	0.242805	0.000014
 437	4.3382e+01	4.3357	-11.471174	0.000229	2.293259	0.388489	0.000023
 438	4.3481e+01	4.3420	-11.449584	0.000217	2.170406	0.367677	0.000022
 439	4.3581e+01	4.3548	-11.427181	0.000225	2.252308	0.381551	0.000023
 440	4.3681e+01	4.3674	-11.404777	0.000225	2.252308	0.381551	0.000023
 441	4.3780e+01	4.3738	-11.381558	0.000233	2.334210	0.395426	0.000023
 442	4.3880e+01	4.3824	-11.357932	0.000238	2.375161	0.402363	0.000024
 443	4.3979e+01	4.3926	-11.334306	0.000238	2.375161	0.402363	0.000024
 444	4.4078e+01	4.4053	-11.311903	0.000225	2.252308	0.381551	0.000023
 445	4.4178e+01	4.4150	-11.289091	0.000229	2.293259	0.388489	0.000023
 446	4.4278e+01	4.4247	-11.266688	0.000225	2.252308	0.381551	0.000023
 447	4.4377e+01	4.4357	-11.241840	0.000250	2.498014	0.423175	0.000025
 448	4.4477e+01	4.4439	-11.221065	0.000209	2.088503	0.353802	0.000021
 449	4.4576e+01	4.4535	-11.195810	0.000254	2.538965	0.430112	0.000025
 450	4.4675e+01	4.4643	-11.176665	0.000192	1.924699	0.326053	0.000019
 451	4.4775e+01	4.4766	-11.150595	0.000262	2.620867	0.443987	0.000026
 452	4.4874e+01	4.4823	-11.132672	0.000180	1.801846	0.305241	0.000018
 453	4.4974e+01	4.4930	-11.107009	0.000258	2.579916	0.437050	0.000026
 454	4.5074e+01	4.5046	-11.085013	0.000221	2.211357	0.374614	0.000022
 455	4.5173e+01	4.5132	-11.063424	0.000217	2.170406	0.367677	0.000022
 456	4.5273e+01	4.5200	-11.043057	0.000205	2.047552	0.346865	0.000020
 457	4.5372e+01	4.5343	-11.019431	0.000238	2.375161	0.402363	0.000024
 458	4.5471e+01	4.5435	-10.993361	0.000262	2.620867	0.443987	0.000026
 459	4.5571e+01	4.5538	-10.968513	0.000250	2.498014	0.423175	0.000025
 460	4.5670e+01	4.5638	-10.949368	0.000192	1.924699	0.326053	0.000019
 461	4.5770e+01	4.5715	-10.926964	0.000225	2.252308	0.381551	0.000023
 462	4.5870e+01	4.5817	-10.897635	0.000295	2.948475	0.499485	0.000029
 463	4.5969e+01	4.5935	-10.881749	0.000160	1.597091	0.270555	0.000016
 464	4.6069e+01	4.6055	-10.856901	0.000250	2.498014	0.423175	0.000025
 465	4.6168e+01	4.6143	-10.833275	0.000238	2.375161	0.402363	0.000024
 466	4.6267e+01	4.6224	-10.810871	0.000225	2.252308	0.381551	0.000023
 467	4.6367e+01	4.6332	-10.790504	0.000205	2.047552	0.346865	0.000020
 468	4.6467e+01	4.6432	-10.766878	0.000238	2.375161	0.402363	0.000024
 469	4.6566e+01	4.6522	-10.748141	0.000188	1.883748	0.319116	0.000019
 470	4.6666e+01	4.6614	-10.726144	0.000221	2.211357	0.374614	0.000022
 471	4.6765e+01	4.6724	-10.703740	0.000225	2.252308	0.381551	0.000023
 472	4.6864e+01	4.6832	-10.684188	0.000197	1.965650	0.332990	0.000020
 473	4.6964e+01	4.6912	-10.664228	0.000201	2.006601	0.339927	0.000020
 474	4.7063e+01	4.7034	-10.637751	0.000266	2.661818	0.450924	0.000027
 475	4.7163e+01	4.7115	-10.616976	0.000209	2.088503	0.353802	0.000021
 476	4.7263e+01	4.7240	-10.592536	0.000246	2.457063	0.416238	0.000025
 477	4.7362e+01	4.7317	-10.568502	0.000242	2.416112	0.409300	0.000024
 478	4.7462e+01	4.7428	-10.548135	0.000205	2.047552	0.346865	0.000020
 479	4.7561e+01	4.7572	-10.527768	0.000205	2.047552	0.346865	0.000020
 480	4.7660e+01	4.7604	-10.506994	0.000209	2.088503	0.353802	0.000021
 481	4.7760e+01	4.7738	-10.485812	0.000213	2.129455	0.360739	0.000021
 482	4.7859e+01	4.7855	-10.462593	0.000233	2.334210	0.395426	0.000023
 483	4.7959e+01	4.7942	-10.442226	0.000205	2.047552	0.346865	0.000020
 484	4.8059e+01	4.8008	-10.419822	0.000225	2.252308	0.381551	0.000023
 485	4.8158e+01	4.8115	-10.397011	0.000229	2.293259	0.388489	0.000023
 486	4.8258e+01	4.8199	-10.372571	0.000246	2.457063	0.416238	0.000025
 487	4.8357e+01	4.8321	-10.345686	0.000270	2.702769	0.457861	0.000027
 488	4.8456e+01	4.8450	-10.324912	0.000209	2.088503	0.353802	0.000021
 489	4.8556e+01	4.8534	-10.298027	0.000270	2.702769	0.457861	0.000027
 490	4.8656e+01	4.8601	-10.275623	0.000225	2.252308	0.381551	0.000023
 491	4.8755e+01	4.8708	-10.251590	0.000242	2.416112	0.409300	0.000024
 492	4.8855e+01	4.8823	-10.232445	0.000192	1.924699	0.326053	0.000019
 493	4.8954e+01	4.8923	-10.203524	0.000291	2.907524	0.492548	0.000029
 494	4.9053e+01	4.9012	-10.182749	0.000209	2.088503	0.353802	0.000021
 495	4.9153e+01	4.9123	-10.155864	0.000270	2.702769	0.457861	0.000027
 496	4.9252e+01	4.9231	-10.133868	0.000221	2.211357	0.374614	0.000022
 497	4.9352e+01	4.9293	-10.110649	0.000233	2.334210	0.395426	0.000023
 498	4.9452e+01	4.9434	-10.090690	0.000201	2.006601	0.339927	0.000020
 499	4.9551e+01	4.9526	-10.063805	0.000270	2.702769	0.457861	0.000027
 500	4.9651e+01	4.9609	-10.037735	0.000262	2.620867	0.443987	0.000026
 501	4.9750e+01	4.9704	-10.012887	0.000250	2.498014	0.423175	0.000025
 502	4.9849e+01	4.9807	-9.990076	0.000229	2.293259	0.388489	0.000023
 503	4.9949e+01	4.9915	-9.963191	0.000270	2.702769	0.457861	0.000027
 504	5.0048e+01	5.0021	-9.936307	0.000270	2.702769	0.457861	0.000027
 505	5.0148e+01	5.0143	-9.911866	0.000246	2.457063	0.416238	0.000025
 506	5.0248e+01	5.0204	-9.888648	0.000233	2.334210	0.395426	0.000023
 507	5.0347e+01	5.0318	-9.860541	0.000283	2.825622	0.478673	0.000028
 508	5.0447e+01	5.0402	-9.834879	0.000258	2.579916	0.437050	0.000026
 509	5.0546e+01	5.0504	-9.811660	0.000233	2.334210	0.395426	0.000023
 510	5.0645e+01	5.0591	-9.784368	0.000274	2.743720	0.464799	0.000027
 511	5.0745e+01	5.0701	-9.753817	0.000307	3.071329	0.520297	0.000031
 512	5.0844e+01	5.0817	-9.735894	0.000180	1.801846	0.305241	0.000018
 513	5.0944e+01	5.0883	-9.706566	0.000295	2.948475	0.499485	0.000029
 514	5.1044e+01	5.0994	-9.682125	0.000246	2.457063	0.416238	0.000025
 515	5.1143e+01	5.1116	-9.651982	0.000303	3.030378	0.513360	0.000030
 516	5.1242e+01	5.1189	-9.632429	0.000197	1.965650	0.332990	0.000020
 517	5.1342e+01	5.1303	-9.602286	0.000303	3.030378	0.513360	0.000030
 518	5.1441e+01	5.1391	-9.577845	0.000246	2.457063	0.416238	0.000025
 519	5.1541e+01	5.1507	-9.548109	0.000299	2.989427	0.506423	0.000030
 520	5.1641e+01	5.1601	-9.521632	0.000266	2.661818	0.450924	0.000027
 521	5.1740e+01	5.1693	-9.498006	0.000238	2.375161	0.402363	0.000024
 522	5.1840e+01	5.1782	-9.473158	0.000250	2.498014	0.423175	0.000025
 523	5.1939e+01	5.1888	-9.446274	0.000270	2.702769	0.457861	0.000027
 524	5.2038e+01	5.2007	-9.418982	0.000274	2.743720	0.464799	0.000027
 525	5.2138e+01	5.2091	-9.394949	0.000242	2.416112	0.409300	0.000024
 526	5.2237e+01	5.2202	-9.370508	0.000246	2.457063	0.416238	0.000025
 527	5.2337e+01	5.2324	-9.346068	0.000246	2.457063	0.416238	0.000025
 528	5.2437e+01	5.2395	-9.321627	0.000246	2.457063	0.416238	0.000025
 529	5.2536e+01	5.2499	-9.298408	0.000233	2.334210	0.395426	0.000023
 530	5.2636e+01	5.2605	-9.273968	0.000246	2.457063	0.416238	0.000025
 531	5.2735e+01	5.2709	-9.251564	0.000225	2.252308	0.381551	0.000023
 532	5.2834e+01	5.2791	-9.225494	0.000262	2.620867	0.443987	0.000026
 533	5.2934e+01	5.2881	-9.199832	0.000258	2.579916	0.437050	0.000026
 534	5.3033e+01	5.3010	-9.173354	0.000266	2.661818	0.450924	0.000027
 535	5.3133e+01	5.3091	-9.148506	0.000250	2.498014	0.423175	0.000025
 536	5.3233e+01	5.3169	-9.125288	0.000233	2.334210	0.395426	0.000023
 537	5.3332e+01	5.3347	-9.100440	0.000250	2.498014	0.423175	0.000025
 538	5.3431e+01	5.3396	-9.074777	0.000258	2.579916	0.437050	0.000026
 539	5.3531e+01	5.3516	-9.049522	0.000254	2.538965	0.430112	0.000025
 540	5.3630e+01	5.3603	-9.025082	0.000246	2.457063	0.416238	0.000025
 541	5.3730e+01	5.3689	-9.000234	0.000250	2.498014	0.423175	0.000025
 542	5.3830e+01	5.3768	-8.977015	0.000233	2.334210	0.395426	0.000023
 543	5.3929e+01	5.3893	-8.954204	0.000229	2.293259	0.388489	0.000023
 544	5.4029e+01	5.3982	-8.929356	0.000250	2.498014	0.423175	0.000025
 545	5.4128e+01	5.4049	-8.904508	0.000250	2.498014	0.423175	0.000025
 546	5.4227e+01	5.4186	-8.881697	0.000229	2.293259	0.388489	0.000023
 547	5.4327e+01	5.4275	-8.855627	0.000262	2.620867	0.443987	0.000026
 548	5.4426e+01	5.4379	-8.831594	0.000242	2.416112	0.409300	0.000024
 549	5.4526e+01	5.4488	-8.807968	0.000238	2.375161	0.402363	0.000024
 550	5.4626e+01	5.4595	-8.783120	0.000250	2.498014	0.423175	0.000025
 551	5.4725e+01	5.4650	-8.755013	0.000283	2.825622	0.478673	0.000028
 552	5.4825e+01	5.4769	-8.726499	0.000287	2.866573	0.485611	0.000029
 553	5.4924e+01	5.4892	-8.702059	0.000246	2.457063	0.416238	0.000025
 554	5.5023e+01	5.5000	-8.675174	0.000270	2.702769	0.457861	0.000027
 555	5.5123e+01	5.5080	-8.653585	0.000217	2.170406	0.367677	0.000022
 556	5.5222e+01	5.5161	-8.626293	0.000274	2.743720	0.464799	0.000027
 557	5.5322e+01	5.5303	-8.600631	0.000258	2.579916	0.437050	0.000026
 558	5.5422e+01	5.5384	-8.573339	0.000274	2.743720	0.464799	0.000027
 559	5.5521e+01	5.5477	-8.555008	0.000184	1.842797	0.312178	0.000018
 560	5.5620e+01	5.5553	-8.527309	0.000278	2.784671	0.471736	0.000028
 561	5.5720e+01	5.5692	-8.503683	0.000238	2.375161	0.402363	0.000024
 562	5.5819e+01	5.5785	-8.479243	0.000246	2.457063	0.416238	0.000025
 563	5.5919e+01	5.5865	-8.452358	0.000270	2.702769	0.457861	0.000027
 564	5.6019e+01	5.5941	-8.431176	0.000213	2.129455	0.360739	0.000021
 565	5.6118e+01	5.6062	-8.400625	0.000307	3.071329	0.520297	0.000031
 566	5.6218e+01	5.6178	-8.377814	0.000229	2.293259	0.388489	0.000023
 567	5.6317e+01	5.6300	-8.350522	0.000274	2.743720	0.464799	0.000027
 568	5.6416e+01	5.6371	-8.324860	0.000258	2.579916	0.437050	0.000026
 569	5.6516e+01	5.6472	-8.300012	0.000250	2.498014	0.423175	0.000025
 570	5.6615e+01	5.6573	-8.280459	0.000197	1.965650	0.332990	0.000020
 571	5.6715e+01	5.6666	-8.253982	0.000266	2.661818	0.450924	0.000027
 572	5.6815e+01	5.6796	-8.231171	0.000229	2.293259	0.388489	0.000023
 573	5.6914e+01	5.6880	-8.210804	0.000205	2.047552	0.346865	0.000020
 574	5.7014e+01	5.6969	-8.185549	0.000254	2.538965	0.430112	0.000025
 575	5.7113e+01	5.7080	-8.158664	0.000270	2.702769	0.457861	0.000027
 576	5.7212e+01	5.7191	-8.135038	0.000238	2.375161	0.402363	0.000024
 577	5.7312e+01	5.7298	-8.114264	0.000209	2.088503	0.353802	0.000021
 578	5.7411e+01	5.7355	-8.091452	0.000229	2.293259	0.388489	0.000023
 579	5.7511e+01	5.7479	-8.069049	0.000225	2.252308	0.381551	0.000023
 580	5.7611e+01	5.7613	-8.042571	0.000266	2.661818	0.450924	0.000027
 581	5.7710e+01	5.7681	-8.020167	0.000225	2.252308	0.381551	0.000023
 582	5.7809e+01	5.7761	-7.994505	0.000258	2.579916	0.437050	0.000026
 583	5.7909e+01	5.7870	-7.971694	0.000229	2.293259	0.388489	0.000023
 584	5.8008e+01	5.7980	-7.946031	0.000258	2.579916	0.437050	0.000026
 585	5.8108e+01	5.8076	-7.920776	0.000254	2.538965	0.430112	0.000025
 586	5.8208e+01	5.8165	-7.898779	0.000221	2.211357	0.374614	0.000022
 587	5.8307e+01	5.8285	-7.878820	0.000201	2.006601	0.339927	0.000020
 588	5.8407e+01	5.8373	-7.856416	0.000225	2.252308	0.381551	0.000023
 589	5.8506e+01	5.8463	-7.836456	0.000201	2.006601	0.339927	0.000020
 590	5.8605e+01	5.8559	-7.815682	0.000209	2.088503	0.353802	0.000021
 591	5.8705e+01	5.8672	-7.794500	0.000213	2.129455	0.360739	0.000021
 592	5.8804e+01	5.8776	-7.772503	0.000221	2.211357	0.374614	0.000022
 593	5.8904e+01	5.8889	-7.748470	0.000242	2.416112	0.409300	0.000024
 594	5.9004e+01	5.8941	-7.725251	0.000233	2.334210	0.395426	0.000023
 595	5.9103e+01	5.9081	-7.706106	0.000192	1.924699	0.326053	0.000019
 596	5.9203e+01	5.9158	-7.682888	0.000233	2.334210	0.395426	0.000023
 597	5.9302e+01	5.9270	-7.658855	0.000242	2.416112	0.409300	0.000024
 598	5.9401e+01	5.9353	-7.635229	0.000238	2.375161	0.402363	0.000024
 599	5.9501e+01	5.9461	-7.619342	0.000160	1.597091	0.270555	0.000016
 600	5.9600e+01	5.9560	-7.598568	0.000209	2.088503	0.353802	0.000021
 601	5.9700e+01	5.9673	-7.576571	0.000221	2.211357	0.374614	0.000022
 602	5.9800e+01	5.9753	-7.550909	0.000258	2.579916	0.437050	0.000026
 603	5.9899e+01	5.9849	-7.529727	0.000213	2.129455	0.360739	0.000021
 604	5.9998e+01	5.9964	-7.509360	0.000205	2.047552	0.346865	0.000020
 605	6.0098e+01	6.0059	-7.485327	0.000242	2.416112	0.409300	0.000024
 606	6.0197e+01	6.0139	-7.463330	0.000221	2.211357	0.374614	0.000022
 607	6.0297e+01	6.0259	-7.441741	0.000217	2.170406	0.367677	0.000022
 608	6.0397e+01	6.0350	-7.418523	0.000233	2.334210	0.395426	0.000023
 609	6.0496e+01	6.0471	-7.392860	0.000258	2.579916	0.437050	0.000026
 610	6.0596e+01	6.0583	-7.365161	0.000278	2.784671	0.471736	0.000028
 611	6.0695e+01	6.0656	-7.345201	0.000201	2.006601	0.339927	0.000020
 612	6.0794e+01	6.0754	-7.321982	0.000233	2.334210	0.395426	0.000023
 613	6.0894e+01	6.0863	-7.301208	0.000209	2.088503	0.353802	0.000021
 614	6.0993e+01	6.0952	-7.275545	0.000258	2.579916	0.437050	0.000026
 615	6.1093e+01	6.1052	-7.251105	0.000246	2.457063	0.416238	0.000025
 616	6.1193e+01	6.1137	-7.229923	0.000213	2.129455	0.360739	0.000021
 617	6.1292e+01	6.1246	-7.207519	0.000225	2.252308	0.381551	0.000023
 618	6.1392e+01	6.1359	-7.176561	0.000311	3.112280	0.527234	0.000031
 619	6.1491e+01	6.1477	-7.158638	0.000180	1.801846	0.305241	0.000018
 620	6.1590e+01	6.1559	-7.132161	0.000266	2.661818	0.450924	0.000027
 621	6.1690e+01	6.1648	-7.109757	0.000225	2.252308	0.381551	0.000023
 622	6.1789e+01	6.1752	-7.085724	0.000242	2.416112	0.409300	0.000024
 623	6.1889e+01	6.1827	-7.060876	0.000250	2.498014	0.423175	0.000025
 624	6.1989e+01	6.1926	-7.039694	0.000213	2.129455	0.360739	0.000021
 625	6.2088e+01	6.2037	-7.018512	0.000213	2.129455	0.360739	0.000021
 626	6.2188e+01	6.2151	-6.992035	0.000266	2.661818	0.450924	0.000027
 627	6.2287e+01	6.2243	-6.968409	0.000238	2.375161	0.402363	0.000024
 628	6.2386e+01	6.2344	-6.942746	0.000258	2.579916	0.437050	0.000026
 629	6.2486e+01	6.2437	-6.918713	0.000242	2.416112	0.409300	0.000024
 630	6.2586e+01	6.2547	-6.893865	0.000250	2.498014	0.423175	0.000025
 631	6.2685e+01	6.2646	-6.871054	0.000229	2.293259	0.388489	0.000023
 632	6.2785e+01	6.2762	-6.846206	0.000250	2.498014	0.423175	0.000025
 633	6.2884e+01	6.2849	-6.825839	0.000205	2.047552	0.346865	0.000020
 634	6.2983e+01	6.2940	-6.800177	0.000258	2.579916	0.437050	0.000026
 635	6.3083e+01	6.3033	-6.779809	0.000205	2.047552	0.346865	0.000020
 636	6.3182e+01	6.3135	-6.754962	0.000250	2.498014	0.423175	0.000025
 637	6.3282e+01	6.3245	-6.735409	0.000197	1.965650	0.332990	0.000020
 638	6.3382e+01	6.3319	-6.710561	0.000250	2.498014	0.423175	0.000025
 639	6.3481e+01	6.3462	-6.688565	0.000221	2.211357	0.374614	0.000022
 640	6.3581e+01	6.3529	-6.670234	0.000184	1.842797	0.312178	0.000018
 641	6.3680e+01	6.3634	-6.642942	0.000274	2.743720	0.464799	0.000027
 642	6.3779e+01	6.3736	-6.618909	0.000242	2.416112	0.409300	0.000024
 643	6.3879e+01	6.3839	-6.594061	0.000250	2.498014	0.423175	0.000025
 644	6.3978e+01	6.3941	-6.572879	0.000213	2.129455	0.360739	0.000021
 645	6.4078e+01	6.4034	-6.549661	0.000233	2.334210	0.395426	0.000023
 646	6.4177e+01	6.4135	-6.527664	0.000221	2.211357	0.374614	0.000022
 647	6.4277e+01	6.4257	-6.499558	0.000283	2.825622	0.478673	0.000028
 648	6.4376e+01	6.4339	-6.482857	0.000168	1.678993	0.284429	0.000017
 649	6.4476e+01	6.4410	-6.456787	0.000262	2.620867	0.443987	0.000026
 650	6.4576e+01	6.4587	-6.434383	0.000225	2.252308	0.381551	0.000023
 651	6.4675e+01	6.4629	-6.409535	0.000250	2.498014	0.423175	0.000025
 652	6.4775e+01	6.4722	-6.383058	0.000266	2.661818	0.450924	0.000027
 653	6.4874e+01	6.4816	-6.362691	0.000205	2.047552	0.346865	0.000020
 654	6.4974e+01	6.4919	-6.337843	0.000250	2.498014	0.423175	0.000025
 655	6.5073e+01	6.5035	-6.310551	0.000274	2.743720	0.464799	0.000027
 656	6.5172e+01	6.5131	-6.287332	0.000233	2.334210	0.395426	0.000023
 657	6.5272e+01	6.5231	-6.262484	0.000250	2.498014	0.423175	0.000025
 658	6.5371e+01	6.5353	-6.233563	0.000291	2.907524	0.492548	0.000029
 659	6.5471e+01	6.5432	-6.211974	0.000217	2.170406	0.367677	0.000022
 660	6.5570e+01	6.5533	-6.185497	0.000266	2.661818	0.450924	0.000027
 661	6.5670e+01	6.5650	-6.158612	0.000270	2.702769	0.457861	0.000027
 662	6.5769e+01	6.5706	-6.131727	0.000270	2.702769	0.457861	0.000027
 663	6.5869e+01	6.5832	-6.106472	0.000254	2.538965	0.430112	0.000025
 664	6.5969e+01	6.5914	-6.081217	0.000254	2.538965	0.430112	0.000025
 665	6.6068e+01	6.6006	-6.055962	0.000254	2.538965	0.430112	0.000025
 666	6.6168e+01	6.6139	-6.029077	0.000270	2.702769	0.457861	0.000027
 667	6.6267e+01	6.6241	-6.003415	0.000258	2.579916	0.437050	0.000026
 668	6.6367e+01	6.6309	-5.981825	0.000217	2.170406	0.367677	0.000022
 669	6.6466e+01	6.6422	-5.950867	0.000311	3.112280	0.527234	0.000031
 670	6.6566e+01	6.6518	-5.926427	0.000246	2.457063	0.416238	0.000025
 671	6.6665e+01	6.6631	-5.904023	0.000225	2.252308	0.381551	0.000023
 672	6.6764e+01	6.6729	-5.874694	0.000295	2.948475	0.499485	0.000029
 673	6.6864e+01	6.6807	-5.844958	0.000299	2.989427	0.506423	0.000030
 674	6.6963e+01	6.6924	-5.817666	0.000274	2.743720	0.464799	0.000027
 675	6.7063e+01	6.7008	-5.792004	0.000258	2.579916	0.437050	0.000026
 676	6.7162e+01	6.7107	-5.762268	0.000299	2.989427	0.506423	0.000030
 677	6.7262e+01	6.7234	-5.734568	0.000278	2.784671	0.471736	0.000028
 678	6.7362e+01	6.7311	-5.708091	0.000266	2.661818	0.450924	0.000027
 679	6.7461e+01	6.7419	-5.679170	0.000291	2.907524	0.492548	0.000029
 680	6.7561e+01	6.7521	-5.656359	0.000229	2.293259	0.388489	0.000023
 681	6.7660e+01	6.7589	-5.629881	0.000266	2.661818	0.450924	0.000027
 682	6.7760e+01	6.7712	-5.603404	0.000266	2.661818	0.450924	0.000027
 683	6.7859e+01	6.7832	-5.573668	0.000299	2.989427	0.506423	0.000030
 684	6.7959e+01	6.7908	-5.544747	0.000291	2.907524	0.492548	0.000029
 685	6.8058e+01	6.8008	-5.514603	0.000303	3.030378	0.513360	0.000030
 686	6.8157e+01	6.8120	-5.483645	0.000311	3.112280	0.527234	0.000031
 687	6.8257e+01	6.8202	-5.459205	0.000246	2.457063	0.416238	0.000025
 688	6.8356e+01	6.8359	-5.430691	0.000287	2.866573	0.485611	0.000029
 689	6.8456e+01	6.8408	-5.400955	0.000299	2.989427	0.506423	0.000030
 690	6.8555e+01	6.8491	-5.372441	0.000287	2.866573	0.485611	0.000029
 691	6.8655e+01	6.8605	-5.345149	0.000274	2.743720	0.464799	0.000027
 692	6.8754e+01	6.8728	-5.319079	0.000262	2.620867	0.443987	0.000026
 693	6.8854e+01	6.8813	-5.293416	0.000258	2.579916	0.437050	0.000026
 694	6.8954e+01	6.8920	-5.267754	0.000258	2.579916	0.437050	0.000026
 695	6.9053e+01	6.9018	-5.240869	0.000270	2.702769	0.457861	0.000027
 696	6.9153e+01	6.9092	-5.213577	0.000274	2.743720	0.464799	0.000027
 697	6.9252e+01	6.9216	-5.189951	0.000238	2.375161	0.402363	0.000024
 698	6.9352e+01	6.9301	-5.160623	0.000295	2.948475	0.499485	0.000029
 699	6.9451e+01	6.9401	-5.132109	0.000287	2.866573	0.485611	0.000029
 700	6.9550e+01	6.9497	-5.105632	0.000266	2.661818	0.450924	0.000027
 701	6.9650e+01	6.9611	-5.079969	0.000258	2.579916	0.437050	0.000026
 702	6.9749e+01	6.9688	-5.049418	0.000307	3.071329	0.520297	0.000031
 703	6.9849e+01	6.9802	-5.028236	0.000213	2.129455	0.360739	0.000021
 704	6.9948e+01	6.9912	-4.999315	0.000291	2.907524	0.492548	0.000029
 705	7.0048e+01	7.0005	-4.971616	0.000278	2.784671	0.471736	0.000028
 706	7.0147e+01	7.0107	-4.943102	0.000287	2.866573	0.485611	0.000029
 707	7.0247e+01	7.0208	-4.915403	0.000278	2.784671	0.471736	0.000028
 708	7.0347e+01	7.0313	-4.893406	0.000221	2.211357	0.374614	0.000022
 709	7.0446e+01	7.0415	-4.861226	0.000324	3.235133	0.548046	0.000032
 710	7.0546e+01	7.0500	-4.841266	0.000201	2.006601	0.339927	0.000020
 711	7.0645e+01	7.0625	-4.814382	0.000270	2.702769	0.457861	0.000027
 712	7.0745e+01	7.0742	-4.787497	0.000270	2.702769	0.457861	0.000027
 713	7.0844e+01	7.0818	-4.761834	0.000258	2.579916	0.437050	0.000026
 714	7.0944e+01	7.0914	-4.735765	0.000262	2.620867	0.443987	0.000026
 715	7.1043e+01	7.1003	-4.706436	0.000295	2.948475	0.499485	0.000029
 716	7.1142e+01	7.1105	-4.680366	0.000262	2.620867	0.443987	0.000026
 717	7.1242e+01	7.1198	-4.653481	0.000270	2.702769	0.457861	0.000027
 718	7.1341e+01	7.1289	-4.622931	0.000307	3.071329	0.520297	0.000031
 719	7.1441e+01	7.1423	-4.592787	0.000303	3.030378	0.513360	0.000030
 720	7.1540e+01	7.1498	-4.567939	0.000250	2.498014	0.423175	0.000025
 721	7.1640e+01	7.1584	-4.537389	0.000307	3.071329	0.520297	0.000031
 722	7.1740e+01	7.1697	-4.509689	0.000278	2.784671	0.471736	0.000028
 723	7.1839e+01	7.1812	-4.479953	0.000299	2.989427	0.506423	0.000030
 724	7.1939e+01	7.1918	-4.452661	0.000274	2.743720	0.464799	0.000027
 725	7.2038e+01	7.1978	-4.428628	0.000242	2.416112	0.409300	0.000024
 726	7.2138e+01	7.2119	-4.399707	0.000291	2.907524	0.492548	0.000029
 727	7.2237e+01	7.2222	-4.370378	0.000295	2.948475	0.499485	0.000029
 728	7.2337e+01	7.2298	-4.345123	0.000254	2.538965	0.430112	0.000025
 729	7.2436e+01	7.2408	-4.315794	0.000295	2.948475	0.499485	0.000029
 730	7.2535e+01	7.2511	-4.289724	0.000262	2.620867	0.443987	0.000026
 731	7.2635e+01	7.2593	-4.255915	0.000340	3.398937	0.575796	0.000034
 732	7.2734e+01	7.2695	-4.228623	0.000274	2.743720	0.464799	0.000027
 733	7.2834e+01	7.2800	-4.204997	0.000238	2.375161	0.402363	0.000024
 734	7.2933e+01	7.2901	-4.172410	0.000328	3.276084	0.554984	0.000033
 735	7.3033e+01	7.2991	-4.144710	0.000278	2.784671	0.471736	0.000028
 736	7.3132e+01	7.3086	-4.118233	0.000266	2.661818	0.450924	0.000027
 737	7.3232e+01	7.3174	-4.089312	0.000291	2.907524	0.492548	0.000029
 738	7.3332e+01	7.3292	-4.062020	0.000274	2.743720	0.464799	0.000027
 739	7.3431e+01	7.3414	-4.034321	0.000278	2.784671	0.471736	0.000028
 740	7.3531e+01	7.3497	-4.010287	0.000242	2.416112	0.409300	0.000024
 741	7.3630e+01	7.3598	-3.980959	0.000295	2.948475	0.499485	0.000029
 742	7.3730e+01	7.3693	-3.954889	0.000262	2.620867	0.443987	0.000026
 743	7.3829e+01	7.3779	-3.928819	0.000262	2.620867	0.443987	0.000026
 744	7.3928e+01	7.3904	-3.900712	0.000283	2.825622	0.478673	0.000028
 745	7.4028e+01	7.3981	-3.877086	0.000238	2.375161	0.402363	0.000024
 746	7.4127e+01	7.4078	-3.846536	0.000307	3.071329	0.520297	0.000031
 747	7.4227e+01	7.4208	-3.818022	0.000287	2.866573	0.485611	0.000029
 748	7.4326e+01	7.4290	-3.793174	0.000250	2.498014	0.423175	0.000025
 749	7.4426e+01	7.4390	-3.763845	0.000295	2.948475	0.499485	0.000029
 750	7.4525e+01	7.4473	-3.736146	0.000278	2.784671	0.471736	0.000028
 751	7.4625e+01	7.4593	-3.707225	0.000291	2.907524	0.492548	0.000029
 752	7.4725e+01	7.4654	-3.678303	0.000291	2.907524	0.492548	0.000029
 753	7.4824e+01	7.4787	-3.656307	0.000221	2.211357	0.374614	0.000022
 754	7.4924e+01	7.4886	-3.628200	0.000283	2.825622	0.478673	0.000028
 755	7.5023e+01	7.4993	-3.602130	0.000262	2.620867	0.443987	0.000026
 756	7.5123e+01	7.5078	-3.572394	0.000299	2.989427	0.506423	0.000030
 757	7.5222e+01	7.5191	-3.547139	0.000254	2.538965	0.430112	0.000025
 758	7.5322e+01	7.5288	-3.519440	0.000278	2.784671	0.471736	0.000028
 759	7.5421e+01	7.5420	-3.496221	0.000233	2.334210	0.395426	0.000023
 760	7.5520e+01	7.5502	-3.468522	0.000278	2.784671	0.471736	0.000028
 761	7.5620e+01	7.5565	-3.444081	0.000246	2.457063	0.416238	0.000025
 762	7.5719e+01	7.5677	-3.419641	0.000246	2.457063	0.416238	0.000025
 763	7.5819e+01	7.5759	-3.390312	0.000295	2.948475	0.499485	0.000029
 764	7.5918e+01	7.5872	-3.365464	0.000250	2.498014	0.423175	0.000025
 765	7.6018e+01	7.5983	-3.336135	0.000295	2.948475	0.499485	0.000029
 766	7.6118e+01	7.6077	-3.310880	0.000254	2.538965	0.430112	0.000025
 767	7.6217e+01	7.6182	-3.284810	0.000262	2.620867	0.443987	0.000026
 768	7.6317e+01	7.6279	-3.258333	0.000266	2.661818	0.450924	0.000027
 769	7.6416e+01	7.6379	-3.231041	0.000274	2.743720	0.464799	0.000027
 770	7.6516e+01	7.6458	-3.206193	0.000250	2.498014	0.423175	0.000025
 771	7.6615e+01	7.6572	-3.178901	0.000274	2.743720	0.464799	0.000027
 772	7.6715e+01	7.6671	-3.150795	0.000283	2.825622	0.478673	0.000028
 773	7.6814e+01	7.6775	-3.119837	0.000311	3.112280	0.527234	0.000031
 774	7.6913e+01	7.6897	-3.095396	0.000246	2.457063	0.416238	0.000025
 775	7.7013e+01	7.6958	-3.066882	0.000287	2.866573	0.485611	0.000029
 776	7.7112e+01	7.7069	-3.037961	0.000291	2.907524	0.492548	0.000029
 777	7.7212e+01	7.7145	-3.007817	0.000303	3.030378	0.513360	0.000030
 778	7.7311e+01	7.7296	-2.980525	0.000274	2.743720	0.464799	0.000027
 779	7.7411e+01	7.7384	-2.952419	0.000283	2.825622	0.478673	0.000028
 780	7.7510e+01	7.7493	-2.922683	0.000299	2.989427	0.506423	0.000030
 781	7.7610e+01	7.7578	-2.886429	0.000364	3.644643	0.617419	0.000036
 782	7.7710e+01	7.7670	-2.855471	0.000311	3.112280	0.527234	0.000031
 783	7.7809e+01	7.7789	-2.828179	0.000274	2.743720	0.464799	0.000027
 784	7.7909e+01	7.7867	-2.796407	0.000319	3.194182	0.541109	0.000032
 785	7.8008e+01	7.7941	-2.768300	0.000283	2.825622	0.478673	0.000028
 786	7.8108e+01	7.8059	-2.736120	0.000324	3.235133	0.548046	0.000032
 787	7.8207e+01	7.8182	-2.705977	0.000303	3.030378	0.513360	0.000030
 788	7.8306e+01	7.8284	-2.674204	0.000319	3.194182	0.541109	0.000032
 789	7.8406e+01	7.8379	-2.640802	0.000336	3.357986	0.568858	0.000034
 790	7.8505e+01	7.8458	-2.611473	0.000295	2.948475	0.499485	0.000029
 791	7.8605e+01	7.8558	-2.582959	0.000287	2.866573	0.485611	0.000029
 792	7.8704e+01	7.8653	-2.551594	0.000315	3.153231	0.534172	0.000032
 793	7.8804e+01	7.8767	-2.517784	0.000340	3.398937	0.575796	0.000034
 794	7.8903e+01	7.8887	-2.488456	0.000295	2.948475	0.499485	0.000029
 795	7.9003e+01	7.8960	-2.455461	0.000332	3.317035	0.561921	0.000033
 796	7.9103e+01	7.9055	-2.424910	0.000307	3.071329	0.520297	0.000031
 797	7.9202e+01	7.9173	-2.393952	0.000311	3.112280	0.527234	0.000031
 798	7.9302e+01	7.9260	-2.358106	0.000360	3.603692	0.610482	0.000036
 799	7.9401e+01	7.9349	-2.325926	0.000324	3.235133	0.548046	0.000032
 800	7.9501e+01	7.9470	-2.297819	0.000283	2.825622	0.478673	0.000028
 801	7.9600e+01	7.9527	-2.261566	0.000364	3.644643	0.617419	0.000036
 802	7.9700e+01	7.9656	-2.231422	0.000303	3.030378	0.513360	0.000030
 803	7.9799e+01	7.9758	-2.199242	0.000324	3.235133	0.548046	0.000032
 804	7.9898e+01	7.9865	-2.167470	0.000319	3.194182	0.541109	0.000032
 805	7.9998e+01	7.9945	-2.136104	0.000315	3.153231	0.534172	0.000032
 806	8.0097e+01	8.0062	-2.097814	0.000385	3.849399	0.652106	0.000038
 807	8.0197e+01	8.0167	-2.066041	0.000319	3.194182	0.541109	0.000032
 808	8.0296e+01	8.0250	-2.035083	0.000311	3.112280	0.527234	0.000031
 809	8.0396e+01	8.0322	-1.998015	0.000373	3.726545	0.631294	0.000037
 810	8.0496e+01	8.0469	-1.965020	0.000332	3.317035	0.561921	0.000033
 811	8.0595e+01	8.0556	-1.925508	0.000397	3.972252	0.672918	0.000040
 812	8.0695e+01	8.0666	-1.898624	0.000270	2.702769	0.457861	0.000027
 813	8.0794e+01	8.0762	-1.861963	0.000369	3.685594	0.624357	0.000037
 814	8.0894e+01	8.0887	-1.833449	0.000287	2.866573	0.485611	0.000029
 815	8.0993e+01	8.0976	-1.798010	0.000356	3.562741	0.603545	0.000036
 816	8.1093e+01	8.1042	-1.765423	0.000328	3.276084	0.554984	0.000033
 817	8.1192e+01	8.1143	-1.728762	0.000369	3.685594	0.624357	0.000037
 818	8.1291e+01	8.1258	-1.698211	0.000307	3.071329	0.520297	0.000031
 819	8.1391e+01	8.1366	-1.661550	0.000369	3.685594	0.624357	0.000037
 820	8.1490e+01	8.1451	-1.631814	0.000299	2.989427	0.506423	0.000030
 821	8.1590e+01	8.1574	-1.592302	0.000397	3.972252	0.672918	0.000040
 822	8.1689e+01	8.1669	-1.556863	0.000356	3.562741	0.603545	0.000036
 823	8.1789e+01	8.1745	-1.523054	0.000340	3.398937	0.575796	0.000034
 824	8.1888e+01	8.1838	-1.483949	0.000393	3.931301	0.665980	0.000039
 825	8.1988e+01	8.1920	-1.446473	0.000377	3.767496	0.638231	0.000038
 826	8.2088e+01	8.2034	-1.404924	0.000418	4.177007	0.707604	0.000042
 827	8.2187e+01	8.2134	-1.365820	0.000393	3.931301	0.665980	0.000039
 828	8.2287e+01	8.2230	-1.327529	0.000385	3.849399	0.652106	0.000038
 829	8.2386e+01	8.2365	-1.290869	0.000369	3.685594	0.624357	0.000037
 830	8.2486e+01	8.2435	-1.251764	0.000393	3.931301	0.665980	0.000039
 831	8.2585e+01	8.2538	-1.208178	0.000438	4.381762	0.742291	0.000044
 832	8.2684e+01	8.2634	-1.166629	0.000418	4.177007	0.707604	0.000042
 833	8.2784e+01	8.2751	-1.127524	0.000393	3.931301	0.665980	0.000039
 834	8.2883e+01	8.2844	-1.084346	0.000434	4.340811	0.735353	0.000043
 835	8.2983e+01	8.2961	-1.041982	0.000426	4.258909	0.721479	0.000043
 836	8.3082e+01	8.3029	-1.001248	0.000410	4.095105	0.693730	0.000041
 837	8.3182e+01	8.3141	-0.958477	0.000430	4.299860	0.728416	0.000043
 838	8.3281e+01	8.3222	-0.911225	0.000475	4.750322	0.804726	0.000047
 839	8.3381e+01	8.3324	-0.865603	0.000459	4.586517	0.776977	0.000046
 840	8.3481e+01	8.3428	-0.820388	0.000455	4.545566	0.770040	0.000045
 841	8.3580e+01	8.3526	-0.773951	0.000467	4.668420	0.790852	0.000047
 842	8.3680e+01	8.3644	-0.726699	0.000475	4.750322	0.804726	0.000047
 843	8.3779e+01	8.3741	-0.683113	0.000438	4.381762	0.742291	0.000044
 844	8.3879e+01	8.3838	-0.637491	0.000459	4.586517	0.776977	0.000046
 845	8.3978e+01	8.3966	-0.591869	0.000459	4.586517	0.776977	0.000046
 846	8.4078e+01	8.4030	-0.543802	0.000483	4.832224	0.818601	0.000048
 847	8.4177e+01	8.4141	-0.499809	0.000442	4.422713	0.749228	0.000044
 848	8.4276e+01	8.4242	-0.450928	0.000491	4.914126	0.832475	0.000049
 849	8.4376e+01	8.4340	-0.404491	0.000467	4.668420	0.790852	0.000047
 850	8.4475e+01	8.4444	-0.356832	0.000479	4.791273	0.811664	0.000048
 851	8.4575e+01	8.4525	-0.305507	0.000516	5.159832	0.874099	0.000052
 852	8.4674e+01	8.4642	-0.257033	0.000487	4.873175	0.825538	0.000049
 853	8.4774e+01	8.4734	-0.206523	0.000508	5.077930	0.860225	0.000051
 854	8.4874e+01	8.4835	-0.158456	0.000483	4.832224	0.818601	0.000048
 855	8.4973e+01	8.4933	-0.101428	0.000573	5.733147	0.971221	0.000057
 856	8.5073e+01	8.5052	-0.055806	0.000459	4.586517	0.776977	0.000046
 857	8.5172e+01	8.5145	-0.002037	0.000541	5.405538	0.915723	0.000054
 858	8.5272e+01	8.5205	0.047659	0.000500	4.996028	0.846350	0.000050
 859	8.5371e+01	8.5337	0.095318	0.000479	4.791273	0.811664	0.000048
 860	8.5471e+01	8.5428	0.147051	0.000520	5.200783	0.881037	0.000052
 861	8.5570e+01	8.5539	0.193895	0.000471	4.709371	0.797789	0.000047
 862	8.5669e+01	8.5623	0.248886	0.000553	5.528392	0.936535	0.000055
 863	8.5769e+01	8.5712	0.298989	0.000504	5.036979	0.853287	0.000050
 864	8.5868e+01	8.5803	0.352759	0.000541	5.405538	0.915723	0.000054
 865	8.5968e+01	8.5920	0.411823	0.000594	5.937902	1.005908	0.000059
 866	8.6067e+01	8.6012	0.461112	0.000496	4.955077	0.839413	0.000050
 867	8.6167e+01	8.6120	0.517325	0.000565	5.651245	0.957347	0.000056
 868	8.6266e+01	8.6246	0.568650	0.000516	5.159832	0.874099	0.000052
 869	8.6366e+01	8.6314	0.622419	0.000541	5.405538	0.915723	0.000054
 870	8.6466e+01	8.6405	0.681484	0.000594	5.937902	1.005908	0.000059
 871	8.6565e+01	8.6536	0.734846	0.000536	5.364587	0.908786	0.000054
 872	8.6665e+01	8.6628	0.791467	0.000569	5.692196	0.964284	0.000057
 873	8.6764e+01	8.6710	0.846458	0.000553	5.528392	0.936535	0.000055
 874	8.6864e+01	8.6802	0.905522	0.000594	5.937902	1.005908	0.000059
 875	8.6963e+01	8.6922	0.960921	0.000557	5.569343	0.943472	0.000056
 876	8.7063e+01	8.7031	1.017949	0.000573	5.733147	0.971221	0.000057
 877	8.7162e+01	8.7132	1.072126	0.000545	5.446489	0.922660	0.000054
 878	8.7261e+01	8.7235	1.125487	0.000536	5.364587	0.908786	0.000054
 879	8.7361e+01	8.7299	1.182515	0.000573	5.733147	0.971221	0.000057
 880	8.7460e+01	8.7411	1.241580	0.000594	5.937902	1.005908	0.000059
 881	8.7560e+01	8.7500	1.298201	0.000569	5.692196	0.964284	0.000057
 882	8.7659e+01	8.7627	1.356043	0.000582	5.815049	0.985096	0.000058
 883	8.7759e+01	8.7720	1.413886	0.000582	5.815049	0.985096	0.000058
 884	8.7859e+01	8.7806	1.472951	0.000594	5.937902	1.005908	0.000059
 885	8.7958e+01	8.7924	1.529571	0.000569	5.692196	0.964284	0.000057
 886	8.8058e+01	8.8000	1.589858	0.000606	6.060755	1.026720	0.000061
 887	8.8157e+01	8.8120	1.653403	0.000639	6.388364	1.082218	0.000064
 888	8.8257e+01	8.8208	1.711653	0.000586	5.856000	0.992033	0.000059
 889	8.8356e+01	8.8315	1.776421	0.000651	6.511217	1.103030	0.000065
 890	8.8456e+01	8.8403	1.841188	0.000651	6.511217	1.103030	0.000065
 891	8.8555e+01	8.8505	1.908807	0.000680	6.797874	1.151591	0.000068
 892	8.8654e+01	8.8587	1.972760	0.000643	6.429315	1.089155	0.000064
 893	8.8754e+01	8.8700	2.037935	0.000655	6.552168	1.109967	0.000066
 894	8.8853e+01	8.8806	2.102702	0.000651	6.511217	1.103030	0.000065
 895	8.8953e+01	8.8909	2.171136	0.000688	6.879776	1.165466	0.000069
 896	8.9052e+01	8.8998	2.242421	0.000717	7.166433	1.214027	0.000072
 897	8.9152e+01	8.9097	2.310854	0.000688	6.879776	1.165466	0.000069
 898	8.9251e+01	8.9212	2.381732	0.000713	7.125482	1.207089	0.000071
 899	8.9351e+01	8.9287	2.450573	0.000692	6.920727	1.172403	0.000069
 900	8.9451e+01	8.9404	2.520228	0.000700	7.002629	1.186278	0.000070
 901	8.9550e+01	8.9506	2.591513	0.000717	7.166433	1.214027	0.000072
 902	8.9650e+01	8.9604	2.663613	0.000725	7.248336	1.227901	0.000072
 903	8.9749e+01	8.9719	2.740601	0.000774	7.739748	1.311149	0.000077
 904	8.9849e+01	8.9789	2.814330	0.000741	7.412140	1.255650	0.000074
 905	8.9948e+01	8.9896	2.885207	0.000713	7.125482	1.207089	0.000071
 906	9.0047e+01	8.9993	2.961380	0.000766	7.657846	1.297274	0.000077
 907	9.0147e+01	9.0098	3.033480	0.000725	7.248336	1.227901	0.000072
 908	9.0246e+01	9.0192	3.103543	0.000704	7.043580	1.193215	0.000070
 909	9.0346e+01	9.0302	3.179716	0.000766	7.657846	1.297274	0.000077
 910	9.0445e+01	9.0402	3.254667	0.000753	7.534993	1.276462	0.000075
 911	9.0545e+01	9.0503	3.329211	0.000749	7.494042	1.269525	0.000075
 912	9.0644e+01	9.0588	3.400496	0.000717	7.166433	1.214027	0.000072
 913	9.0744e+01	9.0714	3.482779	0.000827	8.272112	1.401334	0.000083
 914	9.0844e+01	9.0820	3.556915	0.000745	7.453091	1.262588	0.000075
 915	9.0943e+01	9.0874	3.636347	0.000799	7.985454	1.352773	0.000080
 916	9.1043e+01	9.0996	3.717001	0.000811	8.108308	1.373584	0.000081
 917	9.1142e+01	9.1094	3.795618	0.000790	7.903552	1.338898	0.000079
 918	9.1242e+01	9.1190	3.877494	0.000823	8.231161	1.394396	0.000082
 919	9.1341e+01	9.1283	3.957740	0.000807	8.067357	1.366647	0.000081
 920	9.1441e+01	9.1387	4.040023	0.000827	8.272112	1.401334	0.000083
 921	9.1540e+01	9.1483	4.121899	0.000823	8.231161	1.394396	0.000082
 922	9.1639e+01	9.1607	4.206219	0.000848	8.476867	1.436020	0.000085
 923	9.1739e+01	9.1679	4.291761	0.000860	8.599720	1.456832	0.000086
 924	9.1838e+01	9.1785	4.374044	0.000827	8.272112	1.401334	0.000083
 925	9.1938e+01	9.1895	4.461623	0.000880	8.804475	1.491519	0.000088
 926	9.2037e+01	9.1985	4.549202	0.000880	8.804475	1.491519	0.000088
 927	9.2137e+01	9.2066	4.637595	0.000889	8.886378	1.505393	0.000089
 928	9.2237e+01	9.2176	4.721100	0.000839	8.394965	1.422146	0.000084
 929	9.2336e+01	9.2292	4.807049	0.000864	8.640671	1.463769	0.000086
 930	9.2436e+01	9.2398	4.892591	0.000860	8.599720	1.456832	0.000086
 931	9.2535e+01	9.2481	4.980577	0.000885	8.845426	1.498456	0.000088
 932	9.2635e+01	9.2557	5.073859	0.000938	9.377790	1.588641	0.000094
 933	9.2734e+01	9.2705	5.168362	0.000950	9.500643	1.609453	0.000095
 934	9.2834e+01	9.2773	5.261644	0.000938	9.377790	1.588641	0.000094
 935	9.2933e+01	9.2886	5.348815	0.000876	8.763524	1.484581	0.000088
 936	9.3032e+01	9.2993	5.440874	0.000925	9.254937	1.567829	0.000093
 937	9.3132e+01	9.3108	5.534563	0.000942	9.418741	1.595578	0.000094
 938	9.3231e+01	9.3169	5.621327	0.000872	8.722573	1.477644	0.000087
 939	9.3331e+01	9.3290	5.715423	0.000946	9.459692	1.602515	0.000095
 940	9.3430e+01	9.3378	5.808297	0.000934	9.336839	1.581703	0.000093
 941	9.3530e+01	9.3475	5.903208	0.000954	9.541594	1.616390	0.000095
 942	9.3629e+01	9.3581	6.004229	0.001016	10.155860	1.720449	0.000102
 943	9.3729e+01	9.3682	6.101177	0.000975	9.746350	1.651076	0.000097
 944	9.3829e+01	9.3787	6.199346	0.000987	9.869203	1.671888	0.000099
 945	9.3928e+01	9.3866	6.298331	0.000995	9.951105	1.685763	0.000099
 946	9.4028e+01	9.3974	6.398129	0.001003	10.033007	1.699637	0.000100
 947	9.4127e+01	9.4083	6.496706	0.000991	9.910154	1.678825	0.000099
 948	9.4227e+01	9.4189	6.595691	0.000995	9.951105	1.685763	0.000099
 949	9.4326e+01	9.4303	6.699970	0.001048	10.483468	1.775948	0.000105
 950	9.4425e+01	9.4385	6.802621	0.001032	10.319664	1.748198	0.000103
 951	9.4525e+01	9.4475	6.906493	0.001044	10.442517	1.769010	0.000104
 952	9.4624e+01	9.4570	7.010773	0.001048	10.483468	1.775948	0.000105
 953	9.4724e+01	9.4666	7.108535	0.000983	9.828252	1.664951	0.000098
 954	9.4823e+01	9.4775	7.212000	0.001040	10.401566	1.762073	0.000104
 955	9.4923e+01	9.4873	7.323612	0.001122	11.220587	1.900819	0.000112
 956	9.5022e+01	9.4995	7.423818	0.001007	10.073958	1.706575	0.000101
 957	9.5122e+01	9.5078	7.529320	0.001061	10.606322	1.796760	0.000106
 958	9.5222e+01	9.5168	7.637265	0.001085	10.852028	1.838383	0.000108
 959	9.5321e+01	9.5258	7.748877	0.001122	11.220587	1.900819	0.000112
 960	9.5421e+01	9.5386	7.855194	0.001069	10.688224	1.810634	0.000107
 961	9.5520e+01	9.5466	7.971694	0.001171	11.712000	1.984066	0.000117
 962	9.5620e+01	9.5550	8.084120	0.001130	11.302489	1.914694	0.000113
 963	9.5719e+01	9.5663	8.195732	0.001122	11.220587	1.900819	0.000112
 964	9.5819e+01	9.5763	8.316306	0.001212	12.121510	2.053439	0.000121
 965	9.5918e+01	9.5862	8.438508	0.001229	12.285315	2.081189	0.000123
 966	9.6017e+01	9.5962	8.564377	0.001265	12.653874	2.143624	0.000127
 967	9.6117e+01	9.6064	8.689024	0.001253	12.531021	2.122812	0.000125
 968	9.6216e+01	9.6133	8.808783	0.001204	12.039608	2.039565	0.000120
 969	9.6316e+01	9.6278	8.933022	0.001249	12.490070	2.115875	0.000125
 970	9.6415e+01	9.6356	9.057669	0.001253	12.531021	2.122812	0.000125
 971	9.6515e+01	9.6444	9.179057	0.001220	12.203412	2.067314	0.000122
 972	9.6615e+01	9.6582	9.314702	0.001364	13.636699	2.310119	0.000136
 973	9.6714e+01	9.6649	9.447903	0.001339	13.390993	2.268496	0.000134
 974	9.6814e+01	9.6790	9.579475	0.001323	13.227189	2.240746	0.000132
 975	9.6913e+01	9.6854	9.712268	0.001335	13.350042	2.261558	0.000133
 976	9.7013e+01	9.6958	9.842618	0.001310	13.104336	2.219935	0.000131
 977	9.7112e+01	9.7046	9.980300	0.001384	13.841454	2.344806	0.000138
 978	9.7212e+01	9.7173	10.106983	0.001274	12.735776	2.157499	0.000127
 979	9.7311e+01	9.7266	10.243850	0.001376	13.759552	2.330931	0.000138
 980	9.7410e+01	9.7366	10.371756	0.001286	12.858629	2.178311	0.000129
 981	9.7510e+01	9.7461	10.508623	0.001376	13.759552	2.330931	0.000138
 982	9.7609e+01	9.7572	10.647934	0.001401	14.005259	2.372555	0.000140
 983	9.7709e+01	9.7660	10.783172	0.001360	13.595748	2.303182	0.000136
 984	9.7808e+01	9.7775	10.920854	0.001384	13.841454	2.344806	0.000138
 985	9.7908e+01	9.7852	11.055277	0.001351	13.513846	2.289307	0.000135
 986	9.8007e+01	9.7939	11.189700	0.001351	13.513846	2.289307	0.000135
 987	9.8107e+01	9.8071	11.327382	0.001384	13.841454	2.344806	0.000138
 988	9.8207e+01	9.8145	11.466285	0.001396	13.964308	2.365618	0.000140
 989	9.8306e+01	9.8260	11.608855	0.001433	14.332867	2.428053	0.000143
 990	9.8406e+01	9.8334	11.752240	0.001441	14.414769	2.441928	0.000144
 991	9.8505e+01	9.8452	11.900513	0.001491	14.906182	2.525176	0.000149
 992	9.8605e+01	9.8560	12.041453	0.001417	14.169063	2.400304	0.000142
 993	9.8704e+01	9.8649	12.195429	0.001548	15.479496	2.622298	0.000155
 994	9.8803e+01	9.8779	12.345331	0.001507	15.069986	2.552925	0.000151
 995	9.8903e+01	9.8813	12.506231	0.001618	16.175664	2.740232	0.000162
 996	9.9002e+01	9.8960	12.661429	0.001560	15.602349	2.643110	0.000156
 997	9.9102e+01	9.9078	12.828439	0.001679	16.789930	2.844291	0.000168
 998	9.9201e+01	9.9137	12.990561	0.001630	16.298517	2.761044	0.000163
 999	9.9301e+01	9.9223	13.144129	0.001544	15.438545	2.615360	0.000154
1000	9.9400e+01	9.9351	13.296068	0.001527	15.274741	2.587611	0.000153
1001	9.9500e+01	9.9464	13.451266	0.001560	15.602349	2.643110	0.000156
1002	9.9600e+01	9.9545	13.606871	0.001564	15.643301	2.650047	0.000156
1003	9.9699e+01	9.9634	13.760031	0.001540	15.397594	2.608423	0.000154
1004	9.9799e+01	9.9756	13.919302	0.001601	16.011860	2.712483	0.000160
1005	9.9898e+01	9.9835	14.086313	0.001679	16.789930	2.844291	0.000168
1006	9.9998e+01	9.9934	14.252101	0.001667	16.667077	2.823479	0.000167
1007	1.0010e+02	9.9830	14.382858	-0.001315	-13.145287	-2.226872	0.000131
1008	1.0020e+02	9.9756	14.501802	-0.001196	-11.957706	-2.025690	0.000120
1009	1.0030e+02	9.9643	14.627671	-0.001265	-12.653874	-2.143624	0.000127
1010	1.0040e+02	9.9561	14.755169	-0.001282	-12.817678	-2.171373	0.000128
1011	1.0050e+02	9.9439	14.887148	-0.001327	-13.268140	-2.247684	0.000133
1012	1.0059e+02	9.9332	15.015868	-0.001294	-12.940531	-2.192185	0.000129
1013	1.0069e+02	9.9258	15.157216	-0.001421	-14.210014	-2.407242	0.000142
1014	1.0079e+02	9.9154	15.285937	-0.001294	-12.940531	-2.192185	0.000129
1015	1.0089e+02	9.9049	15.408954	-0.001237	-12.367217	-2.095063	0.000124
1016	1.0099e+02	9.8939	15.534823	-0.001265	-12.653874	-2.143624	0.000127
1017	1.0109e+02	9.8865	15.653767	-0.001196	-11.957706	-2.025690	0.000120
1018	1.0119e+02	9.8753	15.774748	-0.001216	-12.162461	-2.060377	0.000122
1019	1.0129e+02	9.8650	15.897765	-0.001237	-12.367217	-2.095063	0.000124
1020	1.0139e+02	9.8554	16.017116	-0.001200	-11.998657	-2.032628	0.000120
1021	1.0149e+02	9.8428	16.137690	-0.001212	-12.121510	-2.053439	0.000121
1022	1.0159e+02	9.8365	16.257449	-0.001204	-12.039608	-2.039565	0.000120
1023	1.0169e+02	9.8242	16.373541	-0.001167	-11.671049	-1.977129	0.000117
1024	1.0179e+02	9.8145	16.487597	-0.001147	-11.466294	-1.942443	0.000115
1025	1.0189e+02	9.8055	16.602875	-0.001159	-11.589147	-1.963255	0.000116
1026	1.0199e+02	9.7964	16.715709	-0.001134	-11.343440	-1.921631	0.000113
1027	1.0209e+02	9.7861	16.819174	-0.001040	-10.401566	-1.762073	0.000104
1028	1.0219e+02	9.7769	16.925490	-0.001069	-10.688224	-1.810634	0.000107
1029	1.0229e+02	9.7641	17.030992	-0.001061	-10.606322	-1.796760	0.000106
1030	1.0239e+02	9.7559	17.134457	-0.001040	-10.401566	-1.762073	0.000104
1031	1.0248e+02	9.7461	17.234256	-0.001003	-10.033007	-1.699637	0.000100
1032	1.0258e+02	9.7353	17.332833	-0.000991	-9.910154	-1.678825	0.000099
1033	1.0268e+02	9.7250	17.431002	-0.000987	-9.869203	-1.671888	0.000099
1034	1.0278e+02	9.7137	17.525099	-0.000946	-9.459692	-1.602515	0.000095
1035	1.0288e+02	9.7037	17.616751	-0.000921	-9.213986	-1.560891	0.000092
1036	1.0298e+02	9.6965	17.703107	-0.000868	-8.681622	-1.470707	0.000087
1037	1.0308e+02	9.6875	17.796796	-0.000942	-9.418741	-1.595578	0.000094
1038	1.0318e+02	9.6753	17.881523	-0.000852	-8.517818	-1.442957	0.000085
1039	1.0328e+02	9.6655	17.968287	-0.000872	-8.722573	-1.477644	0.000087
1040	1.0338e+02	9.6571	18.056681	-0.000889	-8.886378	-1.505393	0.000089
1041	1.0348e+02	9.6453	18.136112	-0.000799	-7.985454	-1.352773	0.000080
1042	1.0358e+02	9.6346	18.217988	-0.000823	-8.231161	-1.394396	0.000082
1043	1.0368e+02	9.6279	18.299457	-0.000819	-8.190210	-1.387459	0.000082
1044	1.0378e+02	9.6181	18.380111	-0.000811	-8.108308	-1.373584	0.000081
1045	1.0388e+02	9.6064	18.455876	-0.000762	-7.616895	-1.290337	0.000076
1046	1.0398e+02	9.5976	18.527976	-0.000725	-7.248336	-1.227901	0.000072
1047	1.0408e+02	9.5876	18.594780	-0.000672	-6.715972	-1.137716	0.000067
1048	1.0418e+02	9.5773	18.668102	-0.000737	-7.371189	-1.248713	0.000074
1049	1.0428e+02	9.5676	18.736535	-0.000688	-6.879776	-1.165466	0.000069
1050	1.0438e+02	9.5579	18.804154	-0.000680	-6.797874	-1.151591	0.000068
1051	1.0447e+02	9.5453	18.868107	-0.000643	-6.429315	-1.089155	0.000064
1052	1.0457e+02	9.5371	18.936948	-0.000692	-6.920727	-1.172403	0.000069
1053	1.0467e+02	9.5300	18.996827	-0.000602	-6.019804	-1.019782	0.000060
1054	1.0477e+02	9.5184	19.064446	-0.000680	-6.797874	-1.151591	0.000068
1055	1.0487e+02	9.5075	19.125547	-0.000614	-6.142657	-1.040594	0.000061
1056	1.0497e+02	9.4952	19.190315	-0.000651	-6.511217	-1.103030	0.000065
1057	1.0507e+02	9.4879	19.254268	-0.000643	-6.429315	-1.089155	0.000064
1058	1.0517e+02	9.4775	19.318628	-0.000647	-6.470266	-1.096093	0.000065
1059	1.0527e+02	9.4678	19.374026	-0.000557	-5.569343	-0.943472	0.000056
1060	1.0537e+02	9.4569	19.437165	-0.000635	-6.347413	-1.075281	0.000063
1061	1.0547e+02	9.4455	19.499081	-0.000622	-6.224559	-1.054469	0.000062
1062	1.0557e+02	9.4373	19.556923	-0.000582	-5.815049	-0.985096	0.000058
1063	1.0567e+02	9.4299	19.611914	-0.000553	-5.528392	-0.936535	0.000055
1064	1.0577e+02	9.4169	19.674645	-0.000631	-6.306461	-1.068343	0.000063
1065	1.0587e+02	9.4067	19.732081	-0.000577	-5.774098	-0.978159	0.000058
1066	1.0597e+02	9.3979	19.785442	-0.000536	-5.364587	-0.908786	0.000054
1067	1.0607e+02	9.3866	19.835953	-0.000508	-5.077930	-0.860225	0.000051
1068	1.0617e+02	9.3799	19.889315	-0.000536	-5.364587	-0.908786	0.000054
1069	1.0627e+02	9.3678	19.939825	-0.000508	-5.077930	-0.860225	0.000051
1070	1.0637e+02	9.3616	19.993594	-0.000541	-5.405538	-0.915723	0.000054
1071	1.0647e+02	9.3470	20.045327	-0.000520	-5.200783	-0.881037	0.000052
1072	1.0656e+02	9.3384	20.088505	-0.000434	-4.340811	-0.735353	0.000043
1073	1.0666e+02	9.3287	20.138608	-0.000504	-5.036979	-0.853287	0.000050
1074	1.0676e+02	9.3168	20.188712	-0.000504	-5.036979	-0.853287	0.000050
1075	1.0686e+02	9.3091	20.238000	-0.000496	-4.955077	-0.839413	0.000050
1076	1.0696e+02	9.2983	20.285252	-0.000475	-4.750322	-0.804726	0.000047
1077	1.0706e+02	9.2857	20.332096	-0.000471	-4.709371	-0.797789	0.000047
1078	1.0716e+02	9.2779	20.376496	-0.000446	-4.463664	-0.756165	0.000045
1079	1.0726e+02	9.2683	20.424156	-0.000479	-4.791273	-0.811664	0.000048
1080	1.0736e+02	9.2603	20.465297	-0.000414	-4.136056	-0.700667	0.000041
1081	1.0746e+02	9.2480	20.506031	-0.000410	-4.095105	-0.693730	0.000041
1082	1.0756e+02	9.2371	20.546766	-0.000410	-4.095105	-0.693730	0.000041
1083	1.0766e+02	9.2310	20.584241	-0.000377	-3.767496	-0.638231	0.000038
1084	1.0776e+02	9.2181	20.624975	-0.000410	-4.095105	-0.693730	0.000041
1085	1.0786e+02	9.2094	20.670190	-0.000455	-4.545566	-0.770040	0.000045
1086	1.0796e+02	9.2001	20.707259	-0.000373	-3.726545	-0.631294	0.000037
1087	1.0806e+02	9.1896	20.750437	-0.000434	-4.340811	-0.735353	0.000043
1088	1.0816e+02	9.1788	20.787505	-0.000373	-3.726545	-0.631294	0.000037
1089	1.0826e+02	9.1692	20.827017	-0.000397	-3.972252	-0.672918	0.000040
1090	1.0836e+02	9.1597	20.862049	-0.000352	-3.521790	-0.596607	0.000035
1091	1.0845e+02	9.1504	20.895451	-0.000336	-3.357986	-0.568858	0.000034
1092	1.0855e+02	9.1367	20.930890	-0.000356	-3.562741	-0.603545	0.000036
1093	1.0865e+02	9.1312	20.967958	-0.000373	-3.726545	-0.631294	0.000037
1094	1.0875e+02	9.1187	21.002582	-0.000348	-3.480839	-0.589670	0.000035
1095	1.0885e+02	9.1078	21.030689	-0.000283	-2.825622	-0.478673	0.000028
1096	1.0895e+02	9.0991	21.058795	-0.000283	-2.825622	-0.478673	0.000028
1097	1.0905e+02	9.0900	21.092197	-0.000336	-3.357986	-0.568858	0.000034
1098	1.0915e+02	9.0820	21.118675	-0.000266	-2.661818	-0.450924	0.000027
1099	1.0925e+02	9.0730	21.155335	-0.000369	-3.685594	-0.624357	0.000037
1100	1.0935e+02	9.0591	21.184257	-0.000291	-2.907524	-0.492548	0.000029
1101	1.0945e+02	9.0527	21.210734	-0.000266	-2.661818	-0.450924	0.000027
1102	1.0955e+02	9.0366	21.243321	-0.000328	-3.276084	-0.554984	0.000033
1103	1.0965e+02	9.0292	21.269799	-0.000266	-2.661818	-0.450924	0.000027
1104	1.0975e+02	9.0189	21.293832	-0.000242	-2.416112	-0.409300	0.000024
1105	1.0985e+02	9.0073	21.321124	-0.000274	-2.743720	-0.464799	0.000027
1106	1.0995e+02	8.9981	21.344750	-0.000238	-2.375161	-0.402363	0.000024
1107	1.1005e+02	8.9908	21.368376	-0.000238	-2.375161	-0.402363	0.000024
1108	1.1015e+02	8.9795	21.392409	-0.000242	-2.416112	-0.409300	0.000024
1109	1.1025e+02	8.9700	21.416442	-0.000242	-2.416112	-0.409300	0.000024
1110	1.1035e+02	8.9593	21.440068	-0.000238	-2.375161	-0.402363	0.000024
1111	1.1044e+02	8.9527	21.459620	-0.000197	-1.965650	-0.332990	0.000020
1112	1.1054e+02	8.9414	21.485690	-0.000262	-2.620867	-0.443987	0.000026
1113	1.1064e+02	8.9307	21.512575	-0.000270	-2.702769	-0.457861	0.000027
1114	1.1074e+02	8.9198	21.530091	-0.000176	-1.760895	-0.298304	0.000018
1115	1.1084e+02	8.9086	21.556160	-0.000262	-2.620867	-0.443987	0.000026
1116	1.1094e+02	8.8998	21.577750	-0.000217	-2.170406	-0.367677	0.000022
1117	1.1104e+02	8.8916	21.596487	-0.000188	-1.883748	-0.319116	0.000019
1118	1.1114e+02	8.8800	21.620521	-0.000242	-2.416112	-0.409300	0.000024
1119	1.1124e+02	8.8697	21.642517	-0.000221	-2.211357	-0.374614	0.000022
1120	1.1134e+02	8.8599	21.664106	-0.000217	-2.170406	-0.367677	0.000022
1121	1.1144e+02	8.8501	21.681215	-0.000172	-1.719944	-0.291366	0.000017
1122	1.1154e+02	8.8409	21.711358	-0.000303	-3.030378	-0.513360	0.000030
1123	1.1164e+02	8.8300	21.727244	-0.000160	-1.597091	-0.270555	0.000016
1124	1.1174e+02	8.8190	21.743131	-0.000160	-1.597091	-0.270555	0.000016
1125	1.1184e+02	8.8118	21.763498	-0.000205	-2.047552	-0.346865	0.000020
1126	1.1194e+02	8.8037	21.783458	-0.000201	-2.006601	-0.339927	0.000020
1127	1.1204e+02	8.7927	21.794863	-0.000115	-1.146629	-0.194244	0.000011
1128	1.1214e+02	8.7813	21.810750	-0.000160	-1.597091	-0.270555	0.000016
1129	1.1224e+02	8.7704	21.824192	-0.000135	-1.351385	-0.228931	0.000014
1130	1.1234e+02	8.7606	21.840893	-0.000168	-1.678993	-0.284429	0.000017
1131	1.1244e+02	8.7521	21.851891	-0.000111	-1.105678	-0.187307	0.000011
1132	1.1253e+02	8.7402	21.862889	-0.000111	-1.105678	-0.187307	0.000011
1133	1.1263e+02	8.7338	21.876739	-0.000139	-1.392336	-0.235868	0.000014
1134	1.1273e+02	8.7210	21.882442	-0.000057	-0.573315	-0.097122	0.000006
1135	1.1283e+02	8.7138	21.892218	-0.000098	-0.982825	-0.166495	0.000010
1136	1.1293e+02	8.7016	21.901994	-0.000098	-0.982825	-0.166495	0.000010
1137	1.1303e+02	8.6924	21.910956	-0.000090	-0.900923	-0.152620	0.000009
1138	1.1313e+02	8.6829	21.915029	-0.000041	-0.409510	-0.069373	0.000004
1139	1.1323e+02	8.6729	21.920325	-0.000053	-0.532364	-0.090185	0.000005
1140	1.1333e+02	8.6636	21.925620	-0.000053	-0.532364	-0.090185	0.000005
1141	1.1343e+02	8.6517	21.932952	-0.000074	-0.737119	-0.124871	0.000007
1142	1.1353e+02	8.6426	21.938655	-0.000057	-0.573315	-0.097122	0.000006
1143	1.1363e+02	8.6313	21.939062	-0.000004	-0.040951	-0.006937	0.000000
1144	1.1373e+02	8.6233	21.948839	-0.000098	-0.982825	-0.166495	0.000010
1145	1.1383e+02	8.6101	21.955356	-0.000066	-0.655217	-0.110997	0.000007
1146	1.1393e+02	8.6044	21.962688	-0.000074	-0.737119	-0.124871	0.000007
1147	1.1403e+02	8.5938	21.967169	-0.000045	-0.450462	-0.076310	0.000005
1148	1.1413e+02	8.5818	21.969206	-0.000020	-0.204755	-0.034686	0.000002
1149	1.1423e+02	8.5714	21.976131	-0.000070	-0.696168	-0.117934	0.000007
1150	1.1433e+02	8.5627	21.978167	-0.000020	-0.204755	-0.034686	0.000002
1151	1.1442e+02	8.5538	21.979389	-0.000012	-0.122853	-0.020812	0.000001
1152	1.1452e+02	8.5435	21.986722	-0.000074	-0.737119	-0.124871	0.000007
1153	1.1462e+02	8.5311	21.990388	-0.000037	-0.368559	-0.062436	0.000004
1154	1.1472e+02	8.5227	21.996090	-0.000057	-0.573315	-0.097122	0.000006
1155	1.1482e+02	8.5129	21.996905	-0.000008	-0.081902	-0.013875	0.000001
1156	1.1492e+02	8.5020	22.001793	-0.000049	-0.491413	-0.083248	0.000005
1157	1.1502e+02	8.4953	22.007089	-0.000053	-0.532364	-0.090185	0.000005
1158	1.1512e+02	8.4808	22.007496	-0.000004	-0.040951	-0.006937	0.000000
1159	1.1522e+02	8.4740	22.011162	-0.000037	-0.368559	-0.062436	0.000004
1160	1.1532e+02	8.4631	22.015236	-0.000041	-0.409510	-0.069373	0.000004
1161	1.1542e+02	8.4533	22.017272	-0.000020	-0.204755	-0.034686	0.000002
1162	1.1552e+02	8.4440	22.022568	-0.000053	-0.532364	-0.090185	0.000005
1163	1.1562e+02	8.4344	22.025012	-0.000025	-0.245706	-0.041624	0.000002
1164	1.1572e+02	8.4241	22.025012	-0.000000	-0.000000	-0.000000	0.000000
1165	1.1582e+02	8.4141	22.025012	-0.000000	-0.000000	-0.000000	0.000000
1166	1.1592e+02	8.4023	22.028270	-0.000033	-0.327608	-0.055498	0.000003
1167	1.1602e+02	8.3938	22.029900	-0.000016	-0.163804	-0.027749	0.000002
1168	1.1612e+02	8.3801	22.030307	-0.000004	-0.040951	-0.006937	0.000000
1169	1.1622e+02	8.3732	22.031937	-0.000016	-0.163804	-0.027749	0.000002
1170	1.1632e+02	8.3622	22.037639	-0.000057	-0.573315	-0.097122	0.000006
1171	1.1642e+02	8.3551	22.036010	0.000016	0.163804	0.027749	-0.000002
1172	1.1651e+02	8.3430	22.038454	-0.000025	-0.245706	-0.041624	0.000002
1173	1.1661e+02	8.3338	22.040898	-0.000025	-0.245706	-0.041624	0.000002
1174	1.1671e+02	8.3244	22.043342	-0.000025	-0.245706	-0.041624	0.000002
1175	1.1681e+02	8.3154	22.043750	-0.000004	-0.040951	-0.006937	0.000000
1176	1.1691e+02	8.3052	22.040491	0.000033	0.327608	0.055498	-0.000003
1177	1.1701e+02	8.2935	22.042935	-0.000025	-0.245706	-0.041624	0.000002
1178	1.1711e+02	8.2828	22.042120	0.000008	0.081902	0.013875	-0.000001
1179	1.1721e+02	8.2751	22.043750	-0.000016	-0.163804	-0.027749	0.000002
1180	1.1731e+02	8.2650	22.040898	0.000029	0.286657	0.048561	-0.000003
1181	1.1741e+02	8.2545	22.040083	0.000008	0.081902	0.013875	-0.000001
1182	1.1751e+02	8.2430	22.037639	0.000025	0.245706	0.041624	-0.000002
1183	1.1761e+02	8.2359	22.036825	0.000008	0.081902	0.013875	-0.000001
1184	1.1771e+02	8.2241	22.031122	0.000057	0.573315	0.097122	-0.000006
1185	1.1781e+02	8.2112	22.029900	0.000012	0.122853	0.020812	-0.000001
1186	1.1791e+02	8.2065	22.024604	0.000053	0.532364	0.090185	-0.000005
1187	1.1801e+02	8.1958	22.023382	0.000012	0.122853	0.020812	-0.000001
1188	1.1811e+02	8.1851	22.025419	-0.000020	-0.204755	-0.034686	0.000002
1189	1.1821e+02	8.1733	22.021753	0.000037	0.368559	0.062436	-0.000004
1190	1.1831e+02	8.1641	22.019309	0.000025	0.245706	0.041624	-0.000002
1191	1.1841e+02	8.1526	22.018494	0.000008	0.081902	0.013875	-0.000001
1192	1.1850e+02	8.1438	22.014014	0.000045	0.450462	0.076310	-0.000005
1193	1.1860e+02	8.1391	22.011569	0.000025	0.245706	0.041624	-0.000002
1194	1.1870e+02	8.1257	22.007496	0.000041	0.409510	0.069373	-0.000004
1195	1.1880e+02	8.1153	22.000979	0.000066	0.655217	0.110997	-0.000007
1196	1.1890e+02	8.1030	21.995276	0.000057	0.573315	0.097122	-0.000006
1197	1.1900e+02	8.0974	21.987944	0.000074	0.737119	0.124871	-0.000007
1198	1.1910e+02	8.0856	21.978575	0.000094	0.941874	0.159558	-0.000009
1199	1.1920e+02	8.0743	21.978982	-0.000004	-0.040951	-0.006937	0.000000
1200	1.1930e+02	8.0650	21.970428	0.000086	0.859972	0.145683	-0.000009
1201	1.1940e+02	8.0580	21.958615	0.000119	1.187580	0.201182	-0.000012
1202	1.1950e+02	8.0452	21.953319	0.000053	0.532364	0.090185	-0.000005
1203	1.1960e+02	8.0349	21.948839	0.000045	0.450462	0.076310	-0.000005
1204	1.1970e+02	8.0245	21.941507	0.000074	0.737119	0.124871	-0.000007
1205	1.1980e+02	8.0170	21.933767	0.000078	0.778070	0.131809	-0.000008
1206	1.1990e+02	8.0044	21.927250	0.000066	0.655217	0.110997	-0.000007
1207	1.2000e+02	7.9952	21.923176	0.000041	0.409510	0.069373	-0.000004
1208	1.2010e+02	7.9867	21.914215	0.000090	0.900923	0.152620	-0.000009
1209	1.2020e+02	7.9757	21.905253	0.000090	0.900923	0.152620	-0.000009
1210	1.2030e+02	7.9652	21.897921	0.000074	0.737119	0.124871	-0.000007
1211	1.2039e+02	7.9566	21.888145	0.000098	0.982825	0.166495	-0.000010
1212	1.2049e+02	7.9439	21.876739	0.000115	1.146629	0.194244	-0.000011
1213	1.2059e+02	7.9405	21.867778	0.000090	0.900923	0.152620	-0.000009
1214	1.2069e+02	7.9273	21.858816	0.000090	0.900923	0.152620	-0.000009
1215	1.2079e+02	7.9172	21.846596	0.000123	1.228531	0.208119	-0.000012
1216	1.2089e+02	7.9059	21.839264	0.000074	0.737119	0.124871	-0.000007
1217	1.2099e+02	7.8948	21.831931	0.000074	0.737119	0.124871	-0.000007
1218	1.2109e+02	7.8867	21.818082	0.000139	1.392336	0.235868	-0.000014
1219	1.2119e+02	7.8771	21.814823	0.000033	0.327608	0.055498	-0.000003
1220	1.2129e+02	7.8651	21.805047	0.000098	0.982825	0.166495	-0.000010
1221	1.2139e+02	7.8544	21.797715	0.000074	0.737119	0.124871	-0.000007
1222	1.2149e+02	7.8470	21.788346	0.000094	0.941874	0.159558	-0.000009
1223	1.2159e+02	7.8358	21.779792	0.000086	0.859972	0.145683	-0.000009
1224	1.2169e+02	7.8249	21.771237	0.000086	0.859972	0.145683	-0.000009
1225	1.2179e+02	7.8166	21.765535	0.000057	0.573315	0.097122	-0.000006
1226	1.2189e+02	7.8060	21.757388	0.000082	0.819021	0.138746	-0.000008
1227	1.2199e+02	7.7955	21.747204	0.000102	1.023776	0.173432	-0.000010
1228	1.2209e+02	7.7895	21.735391	0.000119	1.187580	0.201182	-0.000012
1229	1.2219e+02	7.7757	21.726430	0.000090	0.900923	0.152620	-0.000009
1230	1.2229e+02	7.7663	21.711765	0.000147	1.474238	0.249743	-0.000015
1231	1.2239e+02	7.7579	21.705248	0.000066	0.655217	0.110997	-0.000007
1232	1.2248e+02	7.7466	21.690584	0.000147	1.474238	0.249743	-0.000015
1233	1.2258e+02	7.7386	21.680400	0.000102	1.023776	0.173432	-0.000010
1234	1.2268e+02	7.7283	21.670624	0.000098	0.982825	0.166495	-0.000010
1235	1.2278e+02	7.7190	21.658811	0.000119	1.187580	0.201182	-0.000012
1236	1.2288e+02	7.7075	21.648627	0.000102	1.023776	0.173432	-0.000010
1237	1.2298e+02	7.6981	21.639666	0.000090	0.900923	0.152620	-0.000009
1238	1.2308e+02	7.6866	21.626223	0.000135	1.351385	0.228931	-0.000014
1239	1.2318e+02	7.6765	21.615225	0.000111	1.105678	0.187307	-0.000011
1240	1.2328e+02	7.6647	21.602598	0.000127	1.269483	0.215056	-0.000013
1241	1.2338e+02	7.6558	21.586711	0.000160	1.597091	0.270555	-0.000016
1242	1.2348e+02	7.6463	21.572047	0.000147	1.474238	0.249743	-0.000015
1243	1.2358e+02	7.6382	21.557790	0.000143	1.433287	0.242805	-0.000014
1244	1.2368e+02	7.6260	21.543940	0.000139	1.392336	0.235868	-0.000014
1245	1.2378e+02	7.6166	21.527239	0.000168	1.678993	0.284429	-0.000017
1246	1.2388e+02	7.6067	21.515834	0.000115	1.146629	0.194244	-0.000011
1247	1.2398e+02	7.5978	21.502391	0.000135	1.351385	0.228931	-0.000014
1248	1.2408e+02	7.5889	21.490986	0.000115	1.146629	0.194244	-0.000011
1249	1.2418e+02	7.5793	21.473063	0.000180	1.801846	0.305241	-0.000018
1250	1.2428e+02	7.5733	21.457176	0.000160	1.597091	0.270555	-0.000016
1251	1.2438e+02	7.5597	21.445363	0.000119	1.187580	0.201182	-0.000012
1252	1.2447e+02	7.5472	21.432328	0.000131	1.310434	0.221993	-0.000013
1253	1.2457e+02	7.5372	21.415627	0.000168	1.678993	0.284429	-0.000017
1254	1.2467e+02	7.5253	21.396890	0.000188	1.883748	0.319116	-0.000019
1255	1.2477e+02	7.5185	21.386299	0.000106	1.064727	0.180370	-0.000011
1256	1.2487e+02	7.5034	21.367561	0.000188	1.883748	0.319116	-0.000019
1257	1.2497e+02	7.4982	21.351675	0.000160	1.597091	0.270555	-0.000016
1258	1.2507e+02	7.4895	21.340676	0.000111	1.105678	0.187307	-0.000011
1259	1.2517e+02	7.4785	21.321531	0.000192	1.924699	0.326053	-0.000019
1260	1.2527e+02	7.4683	21.302386	0.000192	1.924699	0.326053	-0.000019
1261	1.2537e+02	7.4606	21.289758	0.000127	1.269483	0.215056	-0.000013
1262	1.2547e+02	7.4482	21.268577	0.000213	2.129455	0.360739	-0.000021
1263	1.2557e+02	7.4402	21.252283	0.000164	1.638042	0.277492	-0.000016
1264	1.2567e+02	7.4276	21.235175	0.000172	1.719944	0.291366	-0.000017
1265	1.2577e+02	7.4191	21.219288	0.000160	1.597091	0.270555	-0.000016
1266	1.2587e+02	7.4078	21.199736	0.000197	1.965650	0.332990	-0.000020
1267	1.2597e+02	7.3992	21.181405	0.000184	1.842797	0.312178	-0.000018
1268	1.2607e+02	7.3890	21.167148	0.000143	1.433287	0.242805	-0.000014
1269	1.2617e+02	7.3775	21.148003	0.000192	1.924699	0.326053	-0.000019
1270	1.2627e+02	7.3686	21.132117	0.000160	1.597091	0.270555	-0.000016
1271	1.2636e+02	7.3611	21.114194	0.000180	1.801846	0.305241	-0.000018
1272	1.2646e+02	7.3508	21.096678	0.000176	1.760895	0.298304	-0.000018
1273	1.2656e+02	7.3378	21.074682	0.000221	2.211357	0.374614	-0.000022
1274	1.2666e+02	7.3311	21.054722	0.000201	2.006601	0.339927	-0.000020
1275	1.2676e+02	7.3193	21.038428	0.000164	1.638042	0.277492	-0.000016
1276	1.2686e+02	7.3061	21.017654	0.000209	2.088503	0.353802	-0.000021
1277	1.2696e+02	7.2990	21.004211	0.000135	1.351385	0.228931	-0.000014
1278	1.2706e+02	7.2878	20.987918	0.000164	1.638042	0.277492	-0.000016
1279	1.2716e+02	7.2784	20.968365	0.000197	1.965650	0.332990	-0.000020
1280	1.2726e+02	7.2705	20.951664	0.000168	1.678993	0.284429	-0.000017
1281	1.2736e+02	7.2625	20.935778	0.000160	1.597091	0.270555	-0.000016
1282	1.2746e+02	7.2503	20.920706	0.000152	1.515189	0.256680	-0.000015
1283	1.2756e+02	7.2392	20.904820	0.000160	1.597091	0.270555	-0.000016
1284	1.2766e+02	7.2308	20.884453	0.000205	2.047552	0.346865	-0.000020
1285	1.2776e+02	7.2208	20.870196	0.000143	1.433287	0.242805	-0.000014
1286	1.2786e+02	7.2086	20.851458	0.000188	1.883748	0.319116	-0.000019
1287	1.2796e+02	7.1992	20.836386	0.000152	1.515189	0.256680	-0.000015
1288	1.2806e+02	7.1917	20.818463	0.000180	1.801846	0.305241	-0.000018
1289	1.2816e+02	7.1813	20.800540	0.000180	1.801846	0.305241	-0.000018
1290	1.2826e+02	7.1693	20.781395	0.000192	1.924699	0.326053	-0.000019
1291	1.2835e+02	7.1607	20.764287	0.000172	1.719944	0.291366	-0.000017
1292	1.2845e+02	7.1485	20.750437	0.000139	1.392336	0.235868	-0.000014
1293	1.2855e+02	7.1371	20.731292	0.000192	1.924699	0.326053	-0.000019
1294	1.2865e+02	7.1303	20.708888	0.000225	2.252308	0.381551	-0.000023
1295	1.2875e+02	7.1201	20.689743	0.000192	1.924699	0.326053	-0.000019
1296	1.2885e+02	7.1114	20.674671	0.000152	1.515189	0.256680	-0.000015
1297	1.2895e+02	7.0979	20.655933	0.000188	1.883748	0.319116	-0.000019
1298	1.2905e+02	7.0866	20.638418	0.000176	1.760895	0.298304	-0.000018
1299	1.2915e+02	7.0805	20.622531	0.000160	1.597091	0.270555	-0.000016
1300	1.2925e+02	7.0731	20.602164	0.000205	2.047552	0.346865	-0.000020
1301	1.2935e+02	7.0616	20.589537	0.000127	1.269483	0.215056	-0.000013
1302	1.2945e+02	7.0508	20.568762	0.000209	2.088503	0.353802	-0.000021
1303	1.2955e+02	7.0394	20.552876	0.000160	1.597091	0.270555	-0.000016
1304	1.2965e+02	7.0300	20.532101	0.000209	2.088503	0.353802	-0.000021
1305	1.2975e+02	7.0196	20.512549	0.000197	1.965650	0.332990	-0.000020
1306	1.2985e+02	7.0093	20.492589	0.000201	2.006601	0.339927	-0.000020
1307	1.2995e+02	6.9971	20.471407	0.000213	2.129455	0.360739	-0.000021
1308	1.3005e+02	6.9909	20.452670	0.000188	1.883748	0.319116	-0.000019
1309	1.3015e+02	6.9779	20.435154	0.000176	1.760895	0.298304	-0.000018
1310	1.3025e+02	6.9701	20.416823	0.000184	1.842797	0.312178	-0.000018
1311	1.3034e+02	6.9604	20.396049	0.000209	2.088503	0.353802	-0.000021
1312	1.3044e+02	6.9500	20.376089	0.000201	2.006601	0.339927	-0.000020
1313	1.3054e+02	6.9383	20.357351	0.000188	1.883748	0.319116	-0.000019
1314	1.3064e+02	6.9346	20.339836	0.000176	1.760895	0.298304	-0.000018
1315	1.3074e+02	6.9190	20.319876	0.000201	2.006601	0.339927	-0.000020
1316	1.3084e+02	6.9109	20.303582	0.000164	1.638042	0.277492	-0.000016
1317	1.3094e+02	6.9015	20.280364	0.000233	2.334210	0.395426	-0.000023
1318	1.3104e+02	6.8905	20.260811	0.000197	1.965650	0.332990	-0.000020
1319	1.3114e+02	6.8841	20.242073	0.000188	1.883748	0.319116	-0.000019
1320	1.3124e+02	6.8707	20.222928	0.000192	1.924699	0.326053	-0.000019
1321	1.3134e+02	6.8609	20.203783	0.000192	1.924699	0.326053	-0.000019
1322	1.3144e+02	6.8493	20.184638	0.000192	1.924699	0.326053	-0.000019
1323	1.3154e+02	6.8426	20.163456	0.000213	2.129455	0.360739	-0.000021
1324	1.3164e+02	6.8306	20.147570	0.000160	1.597091	0.270555	-0.000016
1325	1.3174e+02	6.8214	20.133313	0.000143	1.433287	0.242805	-0.000014
1326	1.3184e+02	6.8119	20.108465	0.000250	2.498014	0.423175	-0.000025
1327	1.3194e+02	6.7999	20.091764	0.000168	1.678993	0.284429	-0.000017
1328	1.3204e+02	6.7907	20.078322	0.000135	1.351385	0.228931	-0.000014
1329	1.3214e+02	6.7809	20.058362	0.000201	2.006601	0.339927	-0.000020
1330	1.3224e+02	6.7739	20.036773	0.000217	2.170406	0.367677	-0.000022
1331	1.3234e+02	6.7642	20.020479	0.000164	1.638042	0.277492	-0.000016
1332	1.3243e+02	6.7507	20.002556	0.000180	1.801846	0.305241	-0.000018
1333	1.3253e+02	6.7443	19.987484	0.000152	1.515189	0.256680	-0.000015
1334	1.3263e+02	6.7330	19.967932	0.000197	1.965650	0.332990	-0.000020
1335	1.3273e+02	6.7214	19.949601	0.000184	1.842797	0.312178	-0.000018
1336	1.3283e+02	6.7115	19.933715	0.000160	1.597091	0.270555	-0.000016
1337	1.3293e+02	6.7012	19.911311	0.000225	2.252308	0.381551	-0.000023
1338	1.3303e+02	6.6961	19.897054	0.000143	1.433287	0.242805	-0.000014
1339	1.3313e+02	6.6842	19.877502	0.000197	1.965650	0.332990	-0.000020
1340	1.3323e+02	6.6738	19.859579	0.000180	1.801846	0.305241	-0.000018
1341	1.3333e+02	6.6602	19.844507	0.000152	1.515189	0.256680	-0.000015
1342	1.3343e+02	6.6512	19.826584	0.000180	1.801846	0.305241	-0.000018
1343	1.3353e+02	6.6418	19.811512	0.000152	1.515189	0.256680	-0.000015
1344	1.3363e+02	6.6332	19.792775	0.000188	1.883748	0.319116	-0.000019
1345	1.3373e+02	6.6221	19.779740	0.000131	1.310434	0.221993	-0.000013
1346	1.3383e+02	6.6114	19.763853	0.000160	1.597091	0.270555	-0.000016
1347	1.3393e+02	6.6029	19.748782	0.000152	1.515189	0.256680	-0.000015
1348	1.3403e+02	6.5922	19.728007	0.000209	2.088503	0.353802	-0.000021
1349	1.3413e+02	6.5823	19.716194	0.000119	1.187580	0.201182	-0.000012
1350	1.3423e+02	6.5728	19.695827	0.000205	2.047552	0.346865	-0.000020
1351	1.3432e+02	6.5638	19.681163	0.000147	1.474238	0.249743	-0.000015
1352	1.3442e+02	6.5545	19.663647	0.000176	1.760895	0.298304	-0.000018
1353	1.3452e+02	6.5438	19.644095	0.000197	1.965650	0.332990	-0.000020
1354	1.3462e+02	6.5324	19.628208	0.000160	1.597091	0.270555	-0.000016
1355	1.3472e+02	6.5212	19.616395	0.000119	1.187580	0.201182	-0.000012
1356	1.3482e+02	6.5121	19.600916	0.000156	1.556140	0.263617	-0.000016
1357	1.3492e+02	6.5060	19.582993	0.000180	1.801846	0.305241	-0.000018
1358	1.3502e+02	6.4941	19.569958	0.000131	1.310434	0.221993	-0.000013
1359	1.3512e+02	6.4820	19.551628	0.000184	1.842797	0.312178	-0.000018
1360	1.3522e+02	6.4748	19.533297	0.000184	1.842797	0.312178	-0.000018
1361	1.3532e+02	6.4645	19.515782	0.000176	1.760895	0.298304	-0.000018
1362	1.3542e+02	6.4515	19.496637	0.000192	1.924699	0.326053	-0.000019
1363	1.3552e+02	6.4440	19.479121	0.000176	1.760895	0.298304	-0.000018
1364	1.3562e+02	6.4297	19.457939	0.000213	2.129455	0.360739	-0.000021
1365	1.3572e+02	6.4246	19.446533	0.000115	1.146629	0.194244	-0.000011
1366	1.3582e+02	6.4137	19.422500	0.000242	2.416112	0.409300	-0.000024
1367	1.3592e+02	6.4031	19.408243	0.000143	1.433287	0.242805	-0.000014
1368	1.3602e+02	6.3961	19.388283	0.000201	2.006601	0.339927	-0.000020
1369	1.3612e+02	6.3837	19.371175	0.000172	1.719944	0.291366	-0.000017
1370	1.3622e+02	6.3737	19.352030	0.000192	1.924699	0.326053	-0.000019
1371	1.3631e+02	6.3633	19.334922	0.000172	1.719944	0.291366	-0.000017
1372	1.3641e+02	6.3503	19.318628	0.000164	1.638042	0.277492	-0.000016
1373	1.3651e+02	6.3442	19.298668	0.000201	2.006601	0.339927	-0.000020
1374	1.3661e+02	6.3338	19.281560	0.000172	1.719944	0.291366	-0.000017
1375	1.3671e+02	6.3224	19.266895	0.000147	1.474238	0.249743	-0.000015
1376	1.3681e+02	6.3139	19.251416	0.000156	1.556140	0.263617	-0.000016
1377	1.3691e+02	6.3011	19.227383	0.000242	2.416112	0.409300	-0.000024
1378	1.3701e+02	6.2941	19.213126	0.000143	1.433287	0.242805	-0.000014
1379	1.3711e+02	6.2852	19.192759	0.000205	2.047552	0.346865	-0.000020
1380	1.3721e+02	6.2743	19.176465	0.000164	1.638042	0.277492	-0.000016
1381	1.3731e+02	6.2646	19.153247	0.000233	2.334210	0.395426	-0.000023
1382	1.3741e+02	6.2551	19.136546	0.000168	1.678993	0.284429	-0.000017
1383	1.3751e+02	6.2457	19.116179	0.000205	2.047552	0.346865	-0.000020
1384	1.3761e+02	6.2319	19.097848	0.000184	1.842797	0.312178	-0.000018
1385	1.3771e+02	6.2246	19.079518	0.000184	1.842797	0.312178	-0.000018
1386	1.3781e+02	6.2147	19.059558	0.000201	2.006601	0.339927	-0.000020
1387	1.3791e+02	6.2066	19.046116	0.000135	1.351385	0.228931	-0.000014
1388	1.3801e+02	6.1926	19.026563	0.000197	1.965650	0.332990	-0.000020
1389	1.3811e+02	6.1826	19.009048	0.000176	1.760895	0.298304	-0.000018
1390	1.3821e+02	6.1752	18.996013	0.000131	1.310434	0.221993	-0.000013
1391	1.3831e+02	6.1633	18.977682	0.000184	1.842797	0.312178	-0.000018
1392	1.3840e+02	6.1573	18.958130	0.000197	1.965650	0.332990	-0.000020
1393	1.3850e+02	6.1446	18.944687	0.000135	1.351385	0.228931	-0.000014
1394	1.3860e+02	6.1378	18.925542	0.000192	1.924699	0.326053	-0.000019
1395	1.3870e+02	6.1266	18.906805	0.000188	1.883748	0.319116	-0.000019
1396	1.3880e+02	6.1178	18.886437	0.000205	2.047552	0.346865	-0.000020
1397	1.3890e+02	6.1062	18.866070	0.000205	2.047552	0.346865	-0.000020
1398	1.3900e+02	6.0967	18.848555	0.000176	1.760895	0.298304	-0.000018
1399	1.3910e+02	6.0851	18.831446	0.000172	1.719944	0.291366	-0.000017
1400	1.3920e+02	6.0757	18.814338	0.000172	1.719944	0.291366	-0.000017
1401	1.3930e+02	6.0668	18.796822	0.000176	1.760895	0.298304	-0.000018
1402	1.3940e+02	6.0548	18.775640	0.000213	2.129455	0.360739	-0.000021
1403	1.3950e+02	6.0482	18.758532	0.000172	1.719944	0.291366	-0.000017
1404	1.3960e+02	6.0353	18.738979	0.000197	1.965650	0.332990	-0.000020
1405	1.3970e+02	6.0275	18.724722	0.000143	1.433287	0.242805	-0.000014
1406	1.3980e+02	6.0171	18.703541	0.000213	2.129455	0.360739	-0.000021
1407	1.3990e+02	6.0064	18.684803	0.000188	1.883748	0.319116	-0.000019
1408	1.4000e+02	5.9968	18.665250	0.000197	1.965650	0.332990	-0.000020
1409	1.4010e+02	5.9889	18.646105	0.000192	1.924699	0.326053	-0.000019
1410	1.4020e+02	5.9762	18.627368	0.000188	1.883748	0.319116	-0.000019
1411	1.4029e+02	5.9661	18.603742	0.000238	2.375161	0.402363	-0.000024
1412	1.4039e+02	5.9538	18.582153	0.000217	2.170406	0.367677	-0.000022
1413	1.4049e+02	5.9466	18.561785	0.000205	2.047552	0.346865	-0.000020
1414	1.4059e+02	5.9344	18.541826	0.000201	2.006601	0.339927	-0.000020
1415	1.4069e+02	5.9277	18.521051	0.000209	2.088503	0.353802	-0.000021
1416	1.4079e+02	5.9220	18.502313	0.000188	1.883748	0.319116	-0.000019
1417	1.4089e+02	5.9083	18.479502	0.000229	2.293259	0.388489	-0.000023
1418	1.4099e+02	5.8968	18.461172	0.000184	1.842797	0.312178	-0.000018
1419	1.4109e+02	5.8855	18.440397	0.000209	2.088503	0.353802	-0.000021
1420	1.4119e+02	5.8788	18.423696	0.000168	1.678993	0.284429	-0.000017
1421	1.4129e+02	5.8681	18.398848	0.000250	2.498014	0.423175	-0.000025
1422	1.4139e+02	5.8570	18.382555	0.000164	1.638042	0.277492	-0.000016
1423	1.4149e+02	5.8520	18.360558	0.000221	2.211357	0.374614	-0.000022
1424	1.4159e+02	5.8376	18.334081	0.000266	2.661818	0.450924	-0.000027
1425	1.4169e+02	5.8289	18.316158	0.000180	1.801846	0.305241	-0.000018
1426	1.4179e+02	5.8155	18.292532	0.000238	2.375161	0.402363	-0.000024
1427	1.4189e+02	5.8077	18.268906	0.000238	2.375161	0.402363	-0.000024
1428	1.4199e+02	5.7958	18.244873	0.000242	2.416112	0.409300	-0.000024
1429	1.4209e+02	5.7877	18.225320	0.000197	1.965650	0.332990	-0.000020
1430	1.4219e+02	5.7760	18.201287	0.000242	2.416112	0.409300	-0.000024
1431	1.4228e+02	5.7681	18.178069	0.000233	2.334210	0.395426	-0.000023
1432	1.4238e+02	5.7601	18.156072	0.000221	2.211357	0.374614	-0.000022
1433	1.4248e+02	5.7482	18.134483	0.000217	2.170406	0.367677	-0.000022
1434	1.4258e+02	5.7373	18.110857	0.000238	2.375161	0.402363	-0.000024
1435	1.4268e+02	5.7269	18.090083	0.000209	2.088503	0.353802	-0.000021
1436	1.4278e+02	5.7182	18.067679	0.000225	2.252308	0.381551	-0.000023
1437	1.4288e+02	5.7070	18.050163	0.000176	1.760895	0.298304	-0.000018
1438	1.4298e+02	5.6976	18.023279	0.000270	2.702769	0.457861	-0.000027
1439	1.4308e+02	5.6870	17.996394	0.000270	2.702769	0.457861	-0.000027
1440	1.4318e+02	5.6756	17.977249	0.000192	1.924699	0.326053	-0.000019
1441	1.4328e+02	5.6667	17.951586	0.000258	2.579916	0.437050	-0.000026
1442	1.4338e+02	5.6618	17.932848	0.000188	1.883748	0.319116	-0.000019
1443	1.4348e+02	5.6512	17.908001	0.000250	2.498014	0.423175	-0.000025
1444	1.4358e+02	5.6379	17.884375	0.000238	2.375161	0.402363	-0.000024
1445	1.4368e+02	5.6281	17.867674	0.000168	1.678993	0.284429	-0.000017
1446	1.4378e+02	5.6188	17.839974	0.000278	2.784671	0.471736	-0.000028
1447	1.4388e+02	5.6063	17.822459	0.000176	1.760895	0.298304	-0.000018
1448	1.4398e+02	5.5959	17.803721	0.000188	1.883748	0.319116	-0.000019
1449	1.4408e+02	5.5871	17.779280	0.000246	2.457063	0.416238	-0.000025
1450	1.4418e+02	5.5779	17.758913	0.000205	2.047552	0.346865	-0.000020
1451	1.4428e+02	5.5689	17.736102	0.000229	2.293259	0.388489	-0.000023
1452	1.4437e+02	5.5590	17.717772	0.000184	1.842797	0.312178	-0.000018
1453	1.4447e+02	5.5494	17.699034	0.000188	1.883748	0.319116	-0.000019
1454	1.4457e+02	5.5416	17.677445	0.000217	2.170406	0.367677	-0.000022
1455	1.4467e+02	5.5291	17.651782	0.000258	2.579916	0.437050	-0.000026
1456	1.4477e+02	5.5196	17.633044	0.000188	1.883748	0.319116	-0.000019
1457	1.4487e+02	5.5093	17.611863	0.000213	2.129455	0.360739	-0.000021
1458	1.4497e+02	5.4984	17.587829	0.000242	2.416112	0.409300	-0.000024
1459	1.4507e+02	5.4894	17.569092	0.000188	1.883748	0.319116	-0.000019
1460	1.4517e+02	5.4800	17.547910	0.000213	2.129455	0.360739	-0.000021
1461	1.4527e+02	5.4701	17.528357	0.000197	1.965650	0.332990	-0.000020
1462	1.4537e+02	5.4609	17.504324	0.000242	2.416112	0.409300	-0.000024
1463	1.4547e+02	5.4485	17.484364	0.000201	2.006601	0.339927	-0.000020
1464	1.4557e+02	5.4380	17.461553	0.000229	2.293259	0.388489	-0.000023
1465	1.4567e+02	5.4270	17.440371	0.000213	2.129455	0.360739	-0.000021
1466	1.4577e+02	5.4176	17.420819	0.000197	1.965650	0.332990	-0.000020
1467	1.4587e+02	5.4102	17.397600	0.000233	2.334210	0.395426	-0.000023
1468	1.4597e+02	5.3982	17.378863	0.000188	1.883748	0.319116	-0.000019
1469	1.4607e+02	5.3854	17.357681	0.000213	2.129455	0.360739	-0.000021
1470	1.4617e+02	5.3771	17.336906	0.000209	2.088503	0.353802	-0.000021
1471	1.4626e+02	5.3699	17.312873	0.000242	2.416112	0.409300	-0.000024
1472	1.4636e+02	5.3579	17.287618	0.000254	2.538965	0.430112	-0.000025
1473	1.4646e+02	5.3490	17.264807	0.000229	2.293259	0.388489	-0.000023
1474	1.4656e+02	5.3388	17.244032	0.000209	2.088503	0.353802	-0.000021
1475	1.4666e+02	5.3286	17.222443	0.000217	2.170406	0.367677	-0.000022
1476	1.4676e+02	5.3209	17.198410	0.000242	2.416112	0.409300	-0.000024
1477	1.4686e+02	5.3082	17.172747	0.000258	2.579916	0.437050	-0.000026
1478	1.4696e+02	5.2993	17.154824	0.000180	1.801846	0.305241	-0.000018
1479	1.4706e+02	5.2902	17.134864	0.000201	2.006601	0.339927	-0.000020
1480	1.4716e+02	5.2793	17.107572	0.000274	2.743720	0.464799	-0.000027
1481	1.4726e+02	5.2703	17.090464	0.000172	1.719944	0.291366	-0.000017
1482	1.4736e+02	5.2601	17.066431	0.000242	2.416112	0.409300	-0.000024
1483	1.4746e+02	5.2502	17.043620	0.000229	2.293259	0.388489	-0.000023
1484	1.4756e+02	5.2390	17.019994	0.000238	2.375161	0.402363	-0.000024
1485	1.4766e+02	5.2300	16.995961	0.000242	2.416112	0.409300	-0.000024
1486	1.4776e+02	5.2195	16.974371	0.000217	2.170406	0.367677	-0.000022
1487	1.4786e+02	5.2106	16.954819	0.000197	1.965650	0.332990	-0.000020
1488	1.4796e+02	5.1994	16.929971	0.000250	2.498014	0.423175	-0.000025
1489	1.4806e+02	5.1916	16.909197	0.000209	2.088503	0.353802	-0.000021
1490	1.4816e+02	5.1797	16.888015	0.000213	2.129455	0.360739	-0.000021
1491	1.4825e+02	5.1708	16.866018	0.000221	2.211357	0.374614	-0.000022
1492	1.4835e+02	5.1612	16.845651	0.000205	2.047552	0.346865	-0.000020
1493	1.4845e+02	5.1501	16.825284	0.000205	2.047552	0.346865	-0.000020
1494	1.4855e+02	5.1417	16.807361	0.000180	1.801846	0.305241	-0.000018
1495	1.4865e+02	5.1292	16.783735	0.000238	2.375161	0.402363	-0.000024
1496	1.4875e+02	5.1260	16.765812	0.000180	1.801846	0.305241	-0.000018
1497	1.4885e+02	5.1104	16.741779	0.000242	2.416112	0.409300	-0.000024
1498	1.4895e+02	5.0999	16.717746	0.000242	2.416112	0.409300	-0.000024
1499	1.4905e+02	5.0912	16.700637	0.000172	1.719944	0.291366	-0.000017
1500	1.4915e+02	5.0808	16.678641	0.000221	2.211357	0.374614	-0.000022
1501	1.4925e+02	5.0661	16.658274	0.000205	2.047552	0.346865	-0.000020
1502	1.4935e+02	5.0588	16.638314	0.000201	2.006601	0.339927	-0.000020
1503	1.4945e+02	5.0524	16.617132	0.000213	2.129455	0.360739	-0.000021
1504	1.4955e+02	5.0430	16.599616	0.000176	1.760895	0.298304	-0.000018
1505	1.4965e+02	5.0283	16.580471	0.000192	1.924699	0.326053	-0.000019
1506	1.4975e+02	5.0195	16.555623	0.000250	2.498014	0.423175	-0.000025
1507	1.4985e+02	5.0106	16.536886	0.000188	1.883748	0.319116	-0.000019
1508	1.4995e+02	5.0013	16.513260	0.000238	2.375161	0.402363	-0.000024
1509	1.5005e+02	4.9926	16.496151	0.000172	1.719944	0.291366	-0.000017
1510	1.5015e+02	4.9807	16.479450	0.000168	1.678993	0.284429	-0.000017
1511	1.5025e+02	4.9688	16.461527	0.000180	1.801846	0.305241	-0.000018
1512	1.5034e+02	4.9662	16.442382	0.000192	1.924699	0.326053	-0.000019
1513	1.5044e+02	4.9514	16.421200	0.000213	2.129455	0.360739	-0.000021
1514	1.5054e+02	4.9426	16.402463	0.000188	1.883748	0.319116	-0.000019
1515	1.5064e+02	4.9276	16.384947	0.000176	1.760895	0.298304	-0.000018
1516	1.5074e+02	4.9192	16.364172	0.000209	2.088503	0.353802	-0.000021
1517	1.5084e+02	4.9102	16.345842	0.000184	1.842797	0.312178	-0.000018
1518	1.5094e+02	4.9068	16.327919	0.000180	1.801846	0.305241	-0.000018
1519	1.5104e+02	4.8907	16.311625	0.000164	1.638042	0.277492	-0.000016
1520	1.5114e+02	4.8789	16.288814	0.000229	2.293259	0.388489	-0.000023
1521	1.5124e+02	4.8711	16.271706	0.000172	1.719944	0.291366	-0.000017
1522	1.5134e+02	4.8611	16.249302	0.000225	2.252308	0.381551	-0.000023
1523	1.5144e+02	4.8522	16.235452	0.000139	1.392336	0.235868	-0.000014
1524	1.5154e+02	4.8391	16.217936	0.000176	1.760895	0.298304	-0.000018
1525	1.5164e+02	4.8336	16.192681	0.000254	2.538965	0.430112	-0.000025
1526	1.5174e+02	4.8202	16.179646	0.000131	1.310434	0.221993	-0.000013
1527	1.5184e+02	4.8122	16.156428	0.000233	2.334210	0.395426	-0.000023
1528	1.5194e+02	4.7983	16.137283	0.000192	1.924699	0.326053	-0.000019
1529	1.5204e+02	4.7930	16.116915	0.000205	2.047552	0.346865	-0.000020
1530	1.5214e+02	4.7823	16.094919	0.000221	2.211357	0.374614	-0.000022
1531	1.5224e+02	4.7726	16.077811	0.000172	1.719944	0.291366	-0.000017
1532	1.5233e+02	4.7634	16.059073	0.000188	1.883748	0.319116	-0.000019
1533	1.5243e+02	4.7549	16.036262	0.000229	2.293259	0.388489	-0.000023
1534	1.5253e+02	4.7453	16.016709	0.000197	1.965650	0.332990	-0.000020
1535	1.5263e+02	4.7323	15.995120	0.000217	2.170406	0.367677	-0.000022
1536	1.5273e+02	4.7215	15.973123	0.000221	2.211357	0.374614	-0.000022
1537	1.5283e+02	4.7109	15.954386	0.000188	1.883748	0.319116	-0.000019
1538	1.5293e+02	4.7031	15.934426	0.000201	2.006601	0.339927	-0.000020
1539	1.5303e+02	4.6932	15.913244	0.000213	2.129455	0.360739	-0.000021
1540	1.5313e+02	4.6838	15.893692	0.000197	1.965650	0.332990	-0.000020
1541	1.5323e+02	4.6739	15.868029	0.000258	2.579916	0.437050	-0.000026
1542	1.5333e+02	4.6609	15.848477	0.000197	1.965650	0.332990	-0.000020
1543	1.5343e+02	4.6539	15.829739	0.000188	1.883748	0.319116	-0.000019
1544	1.5353e+02	4.6429	15.807335	0.000225	2.252308	0.381551	-0.000023
1545	1.5363e+02	4.6314	15.784524	0.000229	2.293259	0.388489	-0.000023
1546	1.5373e+02	4.6206	15.763749	0.000209	2.088503	0.353802	-0.000021
1547	1.5383e+02	4.6142	15.744604	0.000192	1.924699	0.326053	-0.000019
1548	1.5393e+02	4.6028	15.727496	0.000172	1.719944	0.291366	-0.000017
1549	1.5403e+02	4.5940	15.703463	0.000242	2.416112	0.409300	-0.000024
1550	1.5413e+02	4.5837	15.680244	0.000233	2.334210	0.395426	-0.000023
1551	1.5422e+02	4.5739	15.658248	0.000221	2.211357	0.374614	-0.000022
1552	1.5432e+02	4.5644	15.638695	0.000197	1.965650	0.332990	-0.000020
1553	1.5442e+02	4.5538	15.619143	0.000197	1.965650	0.332990	-0.000020
1554	1.5452e+02	4.5434	15.595110	0.000242	2.416112	0.409300	-0.000024
1555	1.5462e+02	4.5345	15.576372	0.000188	1.883748	0.319116	-0.000019
1556	1.5472e+02	4.5226	15.555597	0.000209	2.088503	0.353802	-0.000021
1557	1.5482e+02	4.5144	15.533601	0.000221	2.211357	0.374614	-0.000022
1558	1.5492e+02	4.5036	15.515678	0.000180	1.801846	0.305241	-0.000018
1559	1.5502e+02	4.4947	15.498569	0.000172	1.719944	0.291366	-0.000017
1560	1.5512e+02	4.4817	15.473314	0.000254	2.538965	0.430112	-0.000025
1561	1.5522e+02	4.4742	15.458242	0.000152	1.515189	0.256680	-0.000015
1562	1.5532e+02	4.4633	15.438283	0.000201	2.006601	0.339927	-0.000020
1563	1.5542e+02	4.4562	15.414657	0.000238	2.375161	0.402363	-0.000024
1564	1.5552e+02	4.4436	15.392660	0.000221	2.211357	0.374614	-0.000022
1565	1.5562e+02	4.4308	15.374330	0.000184	1.842797	0.312178	-0.000018
1566	1.5572e+02	4.4243	15.353148	0.000213	2.129455	0.360739	-0.000021
1567	1.5582e+02	4.4134	15.334003	0.000192	1.924699	0.326053	-0.000019
1568	1.5592e+02	4.4044	15.311599	0.000225	2.252308	0.381551	-0.000023
1569	1.5602e+02	4.3950	15.292454	0.000192	1.924699	0.326053	-0.000019
1570	1.5612e+02	4.3841	15.270458	0.000221	2.211357	0.374614	-0.000022
1571	1.5622e+02	4.3745	15.251720	0.000188	1.883748	0.319116	-0.000019
1572	1.5631e+02	4.3633	15.230945	0.000209	2.088503	0.353802	-0.000021
1573	1.5641e+02	4.3543	15.212208	0.000188	1.883748	0.319116	-0.000019
1574	1.5651e+02	4.3473	15.188989	0.000233	2.334210	0.395426	-0.000023
1575	1.5661e+02	4.3394	15.168215	0.000209	2.088503	0.353802	-0.000021
1576	1.5671e+02	4.3243	15.141330	0.000270	2.702769	0.457861	-0.000027
1577	1.5681e+02	4.3160	15.119333	0.000221	2.211357	0.374614	-0.000022
1578	1.5691e+02	4.3056	15.098559	0.000209	2.088503	0.353802	-0.000021
1579	1.5701e+02	4.2947	15.073711	0.000250	2.498014	0.423175	-0.000025
1580	1.5711e+02	4.2843	15.051307	0.000225	2.252308	0.381551	-0.000023
1581	1.5721e+02	4.2748	15.031347	0.000201	2.006601	0.339927	-0.000020
1582	1.5731e+02	4.2620	15.007314	0.000242	2.416112	0.409300	-0.000024
1583	1.5741e+02	4.2525	14.983281	0.000242	2.416112	0.409300	-0.000024
1584	1.5751e+02	4.2455	14.958433	0.000250	2.498014	0.423175	-0.000025
1585	1.5761e+02	4.2348	14.939695	0.000188	1.883748	0.319116	-0.000019
1586	1.5771e+02	4.2237	14.919328	0.000205	2.047552	0.346865	-0.000020
1587	1.5781e+02	4.2155	14.892444	0.000270	2.702769	0.457861	-0.000027
1588	1.5791e+02	4.2041	14.873299	0.000192	1.924699	0.326053	-0.000019
1589	1.5801e+02	4.1954	14.848858	0.000246	2.457063	0.416238	-0.000025
1590	1.5811e+02	4.1854	14.826862	0.000221	2.211357	0.374614	-0.000022
1591	1.5821e+02	4.1751	14.805272	0.000217	2.170406	0.367677	-0.000022
1592	1.5830e+02	4.1662	14.778795	0.000266	2.661818	0.450924	-0.000027
1593	1.5840e+02	4.1552	14.755577	0.000233	2.334210	0.395426	-0.000023
1594	1.5850e+02	4.1455	14.731543	0.000242	2.416112	0.409300	-0.000024
1595	1.5860e+02	4.1335	14.703844	0.000278	2.784671	0.471736	-0.000028
1596	1.5870e+02	4.1248	14.681033	0.000229	2.293259	0.388489	-0.000023
1597	1.5880e+02	4.1142	14.654148	0.000270	2.702769	0.457861	-0.000027
1598	1.5890e+02	4.1039	14.628486	0.000258	2.579916	0.437050	-0.000026
1599	1.5900e+02	4.0960	14.603638	0.000250	2.498014	0.423175	-0.000025
1600	1.5910e+02	4.0881	14.578790	0.000250	2.498014	0.423175	-0.000025
1601	1.5920e+02	4.0778	14.555571	0.000233	2.334210	0.395426	-0.000023
1602	1.5930e+02	4.0677	14.531538	0.000242	2.416112	0.409300	-0.000024
1603	1.5940e+02	4.0539	14.511171	0.000205	2.047552	0.346865	-0.000020
1604	1.5950e+02	4.0452	14.486323	0.000250	2.498014	0.423175	-0.000025
1605	1.5960e+02	4.0347	14.458217	0.000283	2.825622	0.478673	-0.000028
1606	1.5970e+02	4.0243	14.434998	0.000233	2.334210	0.395426	-0.000023
1607	1.5980e+02	4.0157	14.409743	0.000254	2.538965	0.430112	-0.000025
1608	1.5990e+02	4.0059	14.384080	0.000258	2.579916	0.437050	-0.000026
1609	1.6000e+02	3.9974	14.358418	0.000258	2.579916	0.437050	-0.000026
1610	1.6010e+02	3.9851	14.333162	0.000254	2.538965	0.430112	-0.000025
1611	1.6019e+02	3.9765	14.306685	0.000266	2.661818	0.450924	-0.000027
1612	1.6029e+02	3.9660	14.286318	0.000205	2.047552	0.346865	-0.000020
1613	1.6039e+02	3.9567	14.260655	0.000258	2.579916	0.437050	-0.000026
1614	1.6049e+02	3.9460	14.232549	0.000283	2.825622	0.478673	-0.000028
1615	1.6059e+02	3.9368	14.212589	0.000201	2.006601	0.339927	-0.000020
1616	1.6069e+02	3.9267	14.193444	0.000192	1.924699	0.326053	-0.000019
1617	1.6079e+02	3.9143	14.170633	0.000229	2.293259	0.388489	-0.000023
1618	1.6089e+02	3.9050	14.147821	0.000229	2.293259	0.388489	-0.000023
1619	1.6099e+02	3.8972	14.123381	0.000246	2.457063	0.416238	-0.000025
1620	1.6109e+02	3.8862	14.100162	0.000233	2.334210	0.395426	-0.000023
1621	1.6119e+02	3.8759	14.074907	0.000254	2.538965	0.430112	-0.000025
1622	1.6129e+02	3.8653	14.052503	0.000225	2.252308	0.381551	-0.000023
1623	1.6139e+02	3.8555	14.028877	0.000238	2.375161	0.402363	-0.000024
1624	1.6149e+02	3.8461	14.006474	0.000225	2.252308	0.381551	-0.000023
1625	1.6159e+02	3.8361	13.979589	0.000270	2.702769	0.457861	-0.000027
1626	1.6169e+02	3.8276	13.960444	0.000192	1.924699	0.326053	-0.000019
1627	1.6179e+02	3.8165	13.935596	0.000250	2.498014	0.423175	-0.000025
1628	1.6189e+02	3.8079	13.915229	0.000205	2.047552	0.346865	-0.000020
1629	1.6199e+02	3.7955	13.891603	0.000238	2.375161	0.402363	-0.000024
1630	1.6209e+02	3.7893	13.867977	0.000238	2.375161	0.402363	-0.000024
1631	1.6219e+02	3.7757	13.839056	0.000291	2.907524	0.492548	-0.000029
1632	1.6228e+02	3.7648	13.821947	0.000172	1.719944	0.291366	-0.000017
1633	1.6238e+02	3.7574	13.802395	0.000197	1.965650	0.332990	-0.000020
1634	1.6248e+02	3.7474	13.773881	0.000287	2.866573	0.485611	-0.000029
1635	1.6258e+02	3.7364	13.753921	0.000201	2.006601	0.339927	-0.000020
1636	1.6268e+02	3.7278	13.726629	0.000274	2.743720	0.464799	-0.000027
1637	1.6278e+02	3.7185	13.705040	0.000217	2.170406	0.367677	-0.000022
1638	1.6288e+02	3.7104	13.680600	0.000246	2.457063	0.416238	-0.000025
1639	1.6298e+02	3.6970	13.656566	0.000242	2.416112	0.409300	-0.000024
1640	1.6308e+02	3.6904	13.628867	0.000278	2.784671	0.471736	-0.000028
1641	1.6318e+02	3.6794	13.606463	0.000225	2.252308	0.381551	-0.000023
1642	1.6328e+02	3.6651	13.581208	0.000254	2.538965	0.430112	-0.000025
1643	1.6338e+02	3.6579	13.551472	0.000299	2.989427	0.506423	-0.000030
1644	1.6348e+02	3.6476	13.533142	0.000184	1.842797	0.312178	-0.000018
1645	1.6358e+02	3.6367	13.507886	0.000254	2.538965	0.430112	-0.000025
1646	1.6368e+02	3.6306	13.485483	0.000225	2.252308	0.381551	-0.000023
1647	1.6378e+02	3.6156	13.462264	0.000233	2.334210	0.395426	-0.000023
1648	1.6388e+02	3.6092	13.436601	0.000258	2.579916	0.437050	-0.000026
1649	1.6398e+02	3.5973	13.414605	0.000221	2.211357	0.374614	-0.000022
1650	1.6408e+02	3.5865	13.388942	0.000258	2.579916	0.437050	-0.000026
1651	1.6418e+02	3.5767	13.365316	0.000238	2.375161	0.402363	-0.000024
1652	1.6427e+02	3.5686	13.340469	0.000250	2.498014	0.423175	-0.000025
1653	1.6437e+02	3.5580	13.315621	0.000250	2.498014	0.423175	-0.000025
1654	1.6447e+02	3.5459	13.290365	0.000254	2.538965	0.430112	-0.000025
1655	1.6457e+02	3.5394	13.263888	0.000266	2.661818	0.450924	-0.000027
1656	1.6467e+02	3.5308	13.243928	0.000201	2.006601	0.339927	-0.000020
1657	1.6477e+02	3.5174	13.215007	0.000291	2.907524	0.492548	-0.000029
1658	1.6487e+02	3.5072	13.197084	0.000180	1.801846	0.305241	-0.000018
1659	1.6497e+02	3.5007	13.170607	0.000266	2.661818	0.450924	-0.000027
1660	1.6507e+02	3.4870	13.147388	0.000233	2.334210	0.395426	-0.000023
1661	1.6517e+02	3.4792	13.127428	0.000201	2.006601	0.339927	-0.000020
1662	1.6527e+02	3.4667	13.102988	0.000246	2.457063	0.416238	-0.000025
1663	1.6537e+02	3.4589	13.078955	0.000242	2.416112	0.409300	-0.000024
1664	1.6547e+02	3.4492	13.061846	0.000172	1.719944	0.291366	-0.000017
1665	1.6557e+02	3.4411	13.036998	0.000250	2.498014	0.423175	-0.000025
1666	1.6567e+02	3.4281	13.017039	0.000201	2.006601	0.339927	-0.000020
1667	1.6577e+02	3.4194	12.991376	0.000258	2.579916	0.437050	-0.000026
1668	1.6587e+02	3.4099	12.966935	0.000246	2.457063	0.416238	-0.000025
1669	1.6597e+02	3.4010	12.947383	0.000197	1.965650	0.332990	-0.000020
1670	1.6607e+02	3.3881	12.922942	0.000246	2.457063	0.416238	-0.000025
1671	1.6616e+02	3.3831	12.901353	0.000217	2.170406	0.367677	-0.000022
1672	1.6626e+02	3.3684	12.878949	0.000225	2.252308	0.381551	-0.000023
1673	1.6636e+02	3.3630	12.854102	0.000250	2.498014	0.423175	-0.000025
1674	1.6646e+02	3.3477	12.830476	0.000238	2.375161	0.402363	-0.000024
1675	1.6656e+02	3.3385	12.808479	0.000221	2.211357	0.374614	-0.000022
1676	1.6666e+02	3.3293	12.789334	0.000192	1.924699	0.326053	-0.000019
1677	1.6676e+02	3.3208	12.767745	0.000217	2.170406	0.367677	-0.000022
1678	1.6686e+02	3.3096	12.745748	0.000221	2.211357	0.374614	-0.000022
1679	1.6696e+02	3.2989	12.727418	0.000184	1.842797	0.312178	-0.000018
1680	1.6706e+02	3.2897	12.704199	0.000233	2.334210	0.395426	-0.000023
1681	1.6716e+02	3.2813	12.685869	0.000184	1.842797	0.312178	-0.000018
1682	1.6726e+02	3.2676	12.665095	0.000209	2.088503	0.353802	-0.000021
1683	1.6736e+02	3.2610	12.643505	0.000217	2.170406	0.367677	-0.000022
1684	1.6746e+02	3.2514	12.622731	0.000209	2.088503	0.353802	-0.000021
1685	1.6756e+02	3.2412	12.602771	0.000201	2.006601	0.339927	-0.000020
1686	1.6766e+02	3.2300	12.578331	0.000246	2.457063	0.416238	-0.000025
1687	1.6776e+02	3.2204	12.558371	0.000201	2.006601	0.339927	-0.000020
1688	1.6786e+02	3.2118	12.537596	0.000209	2.088503	0.353802	-0.000021
1689	1.6796e+02	3.2000	12.515193	0.000225	2.252308	0.381551	-0.000023
1690	1.6806e+02	3.1904	12.497269	0.000180	1.801846	0.305241	-0.000018
1691	1.6816e+02	3.1802	12.474866	0.000225	2.252308	0.381551	-0.000023
1692	1.6825e+02	3.1698	12.456535	0.000184	1.842797	0.312178	-0.000018
1693	1.6835e+02	3.1610	12.435353	0.000213	2.129455	0.360739	-0.000021
1694	1.6845e+02	3.1501	12.411728	0.000238	2.375161	0.402363	-0.000024
1695	1.6855e+02	3.1424	12.389324	0.000225	2.252308	0.381551	-0.000023
1696	1.6865e+02	3.1287	12.370993	0.000184	1.842797	0.312178	-0.000018
1697	1.6875e+02	3.1187	12.348589	0.000225	2.252308	0.381551	-0.000023
1698	1.6885e+02	3.1100	12.324964	0.000238	2.375161	0.402363	-0.000024
1699	1.6895e+02	3.1022	12.303374	0.000217	2.170406	0.367677	-0.000022
1700	1.6905e+02	3.0900	12.283415	0.000201	2.006601	0.339927	-0.000020
1701	1.6915e+02	3.0818	12.260196	0.000233	2.334210	0.395426	-0.000023
1702	1.6925e+02	3.0711	12.235348	0.000250	2.498014	0.423175	-0.000025
1703	1.6935e+02	3.0631	12.213352	0.000221	2.211357	0.374614	-0.000022
1704	1.6945e+02	3.0505	12.190948	0.000225	2.252308	0.381551	-0.000023
1705	1.6955e+02	3.0400	12.172617	0.000184	1.842797	0.312178	-0.000018
1706	1.6965e+02	3.0329	12.146955	0.000258	2.579916	0.437050	-0.000026
1707	1.6975e+02	3.0199	12.122922	0.000242	2.416112	0.409300	-0.000024
1708	1.6985e+02	3.0106	12.101740	0.000213	2.129455	0.360739	-0.000021
1709	1.6995e+02	3.0016	12.077707	0.000242	2.416112	0.409300	-0.000024
1710	1.7005e+02	2.9897	12.058154	0.000197	1.965650	0.332990	-0.000020
1711	1.7015e+02	2.9809	12.034121	0.000242	2.416112	0.409300	-0.000024
1712	1.7024e+02	2.9739	12.010495	0.000238	2.375161	0.402363	-0.000024
1713	1.7034e+02	2.9618	11.989721	0.000209	2.088503	0.353802	-0.000021
1714	1.7044e+02	2.9497	11.963651	0.000262	2.620867	0.443987	-0.000026
1715	1.7054e+02	2.9407	11.938395	0.000254	2.538965	0.430112	-0.000025
1716	1.7064e+02	2.9298	11.917214	0.000213	2.129455	0.360739	-0.000021
1717	1.7074e+02	2.9208	11.894810	0.000225	2.252308	0.381551	-0.000023
1718	1.7084e+02	2.9115	11.872406	0.000225	2.252308	0.381551	-0.000023
1719	1.7094e+02	2.9018	11.846336	0.000262	2.620867	0.443987	-0.000026
1720	1.7104e+02	2.8882	11.823932	0.000225	2.252308	0.381551	-0.000023
1721	1.7114e+02	2.8817	11.801528	0.000225	2.252308	0.381551	-0.000023
1722	1.7124e+02	2.8718	11.779125	0.000225	2.252308	0.381551	-0.000023
1723	1.7134e+02	2.8636	11.756313	0.000229	2.293259	0.388489	-0.000023
1724	1.7144e+02	2.8502	11.734317	0.000221	2.211357	0.374614	-0.000022
1725	1.7154e+02	2.8411	11.712728	0.000217	2.170406	0.367677	-0.000022
1726	1.7164e+02	2.8336	11.694805	0.000180	1.801846	0.305241	-0.000018
1727	1.7174e+02	2.8204	11.670364	0.000246	2.457063	0.416238	-0.000025
1728	1.7184e+02	2.8094	11.648368	0.000221	2.211357	0.374614	-0.000022
1729	1.7194e+02	2.8026	11.627593	0.000209	2.088503	0.353802	-0.000021
1730	1.7204e+02	2.7940	11.604782	0.000229	2.293259	0.388489	-0.000023
1731	1.7213e+02	2.7817	11.579527	0.000254	2.538965	0.430112	-0.000025
1732	1.7223e+02	2.7719	11.559160	0.000205	2.047552	0.346865	-0.000020
1733	1.7233e+02	2.7601	11.536756	0.000225	2.252308	0.381551	-0.000023
1734	1.7243e+02	2.7529	11.514352	0.000225	2.252308	0.381551	-0.000023
1735	1.7253e+02	2.7415	11.492763	0.000217	2.170406	0.367677	-0.000022
1736	1.7263e+02	2.7326	11.470766	0.000221	2.211357	0.374614	-0.000022
1737	1.7273e+02	2.7216	11.447548	0.000233	2.334210	0.395426	-0.000023
1738	1.7283e+02	2.7098	11.420663	0.000270	2.702769	0.457861	-0.000027
1739	1.7293e+02	2.7020	11.401518	0.000192	1.924699	0.326053	-0.000019
1740	1.7303e+02	2.6940	11.378299	0.000233	2.334210	0.395426	-0.000023
1741	1.7313e+02	2.6823	11.357932	0.000205	2.047552	0.346865	-0.000020
1742	1.7323e+02	2.6711	11.330233	0.000278	2.784671	0.471736	-0.000028
1743	1.7333e+02	2.6642	11.309459	0.000209	2.088503	0.353802	-0.000021
1744	1.7343e+02	2.6532	11.285018	0.000246	2.457063	0.416238	-0.000025
1745	1.7353e+02	2.6419	11.257319	0.000278	2.784671	0.471736	-0.000028
1746	1.7363e+02	2.6325	11.233286	0.000242	2.416112	0.409300	-0.000024
1747	1.7373e+02	2.6231	11.209252	0.000242	2.416112	0.409300	-0.000024
1748	1.7383e+02	2.6130	11.185219	0.000242	2.416112	0.409300	-0.000024
1749	1.7393e+02	2.6062	11.159149	0.000262	2.620867	0.443987	-0.000026
1750	1.7403e+02	2.5939	11.133487	0.000258	2.579916	0.437050	-0.000026
1751	1.7413e+02	2.5866	11.112712	0.000209	2.088503	0.353802	-0.000021
1752	1.7422e+02	2.5733	11.088272	0.000246	2.457063	0.416238	-0.000025
1753	1.7432e+02	2.5612	11.064646	0.000238	2.375161	0.402363	-0.000024
1754	1.7442e+02	2.5552	11.038983	0.000258	2.579916	0.437050	-0.000026
1755	1.7452e+02	2.5404	11.012099	0.000270	2.702769	0.457861	-0.000027
1756	1.7462e+02	2.5326	10.987658	0.000246	2.457063	0.416238	-0.000025
1757	1.7472e+02	2.5221	10.961995	0.000258	2.579916	0.437050	-0.000026
1758	1.7482e+02	2.5123	10.935518	0.000266	2.661818	0.450924	-0.000027
1759	1.7492e+02	2.5049	10.911078	0.000246	2.457063	0.416238	-0.000025
1760	1.7502e+02	2.4922	10.889081	0.000221	2.211357	0.374614	-0.000022
1761	1.7512e+02	2.4837	10.862196	0.000270	2.702769	0.457861	-0.000027
1762	1.7522e+02	2.4718	10.834905	0.000274	2.743720	0.464799	-0.000027
1763	1.7532e+02	2.4622	10.809242	0.000258	2.579916	0.437050	-0.000026
1764	1.7542e+02	2.4557	10.779099	0.000303	3.030378	0.513360	-0.000030
1765	1.7552e+02	2.4458	10.755065	0.000242	2.416112	0.409300	-0.000024
1766	1.7562e+02	2.4302	10.728181	0.000270	2.702769	0.457861	-0.000027
1767	1.7572e+02	2.4236	10.700889	0.000274	2.743720	0.464799	-0.000027
1768	1.7582e+02	2.4145	10.675634	0.000254	2.538965	0.430112	-0.000025
1769	1.7592e+02	2.4036	10.649156	0.000266	2.661818	0.450924	-0.000027
1770	1.7602e+02	2.3934	10.619828	0.000295	2.948475	0.499485	-0.000029
1771	1.7612e+02	2.3842	10.594980	0.000250	2.498014	0.423175	-0.000025
1772	1.7621e+02	2.3757	10.567688	0.000274	2.743720	0.464799	-0.000027
1773	1.7631e+02	2.3650	10.539174	0.000287	2.866573	0.485611	-0.000029
1774	1.7641e+02	2.3579	10.518807	0.000205	2.047552	0.346865	-0.000020
1775	1.7651e+02	2.3443	10.487441	0.000315	3.153231	0.534172	-0.000032
1776	1.7661e+02	2.3367	10.460964	0.000266	2.661818	0.450924	-0.000027
1777	1.7671e+02	2.3241	10.434487	0.000266	2.661818	0.450924	-0.000027
1778	1.7681e+02	2.3142	10.407195	0.000274	2.743720	0.464799	-0.000027
1779	1.7691e+02	2.3035	10.381940	0.000254	2.538965	0.430112	-0.000025
1780	1.7701e+02	2.2931	10.356277	0.000258	2.579916	0.437050	-0.000026
1781	1.7711e+02	2.2842	10.328578	0.000278	2.784671	0.471736	-0.000028
1782	1.7721e+02	2.2739	10.305359	0.000233	2.334210	0.395426	-0.000023
1783	1.7731e+02	2.2669	10.281733	0.000238	2.375161	0.402363	-0.000024
1784	1.7741e+02	2.2536	10.253219	0.000287	2.866573	0.485611	-0.000029
1785	1.7751e+02	2.2443	10.229186	0.000242	2.416112	0.409300	-0.000024
1786	1.7761e+02	2.2326	10.205560	0.000238	2.375161	0.402363	-0.000024
1787	1.7771e+02	2.2231	10.178676	0.000270	2.702769	0.457861	-0.000027
1788	1.7781e+02	2.2141	10.155864	0.000229	2.293259	0.388489	-0.000023
1789	1.7791e+02	2.2064	10.132239	0.000238	2.375161	0.402363	-0.000024
1790	1.7801e+02	2.1931	10.103725	0.000287	2.866573	0.485611	-0.000029
1791	1.7810e+02	2.1842	10.082950	0.000209	2.088503	0.353802	-0.000021
1792	1.7820e+02	2.1780	10.053622	0.000295	2.948475	0.499485	-0.000029
1793	1.7830e+02	2.1643	10.029996	0.000238	2.375161	0.402363	-0.000024
1794	1.7840e+02	2.1535	9.999038	0.000311	3.112280	0.527234	-0.000031
1795	1.7850e+02	2.1465	9.975412	0.000238	2.375161	0.402363	-0.000024
1796	1.7860e+02	2.1342	9.952601	0.000229	2.293259	0.388489	-0.000023
1797	1.7870e+02	2.1253	9.923679	0.000291	2.907524	0.492548	-0.000029
1798	1.7880e+02	2.1139	9.901275	0.000225	2.252308	0.381551	-0.000023
1799	1.7890e+02	2.1075	9.879279	0.000221	2.211357	0.374614	-0.000022
1800	1.7900e+02	2.0957	9.854431	0.000250	2.498014	0.423175	-0.000025
1801	1.7910e+02	2.0860	9.827954	0.000266	2.661818	0.450924	-0.000027
1802	1.7920e+02	2.0762	9.803513	0.000246	2.457063	0.416238	-0.000025
1803	1.7930e+02	2.0667	9.773370	0.000303	3.030378	0.513360	-0.000030
1804	1.7940e+02	2.0533	9.753003	0.000205	2.047552	0.346865	-0.000020
1805	1.7950e+02	2.0450	9.731414	0.000217	2.170406	0.367677	-0.000022
1806	1.7960e+02	2.0359	9.700863	0.000307	3.071329	0.520297	-0.000031
1807	1.7970e+02	2.0242	9.674793	0.000262	2.620867	0.443987	-0.000026
1808	1.7980e+02	2.0142	9.645464	0.000295	2.948475	0.499485	-0.000029
1809	1.7990e+02	2.0055	9.617358	0.000283	2.825622	0.478673	-0.000028
1810	1.8000e+02	1.9991	9.593324	0.000242	2.416112	0.409300	-0.000024
1811	1.8009e+02	1.9862	9.567255	0.000262	2.620867	0.443987	-0.000026
1812	1.8019e+02	1.9774	9.538333	0.000291	2.907524	0.492548	-0.000029
1813	1.8029e+02	1.9641	9.513078	0.000254	2.538965	0.430112	-0.000025
1814	1.8039e+02	1.9598	9.484971	0.000283	2.825622	0.478673	-0.000028
1815	1.8049e+02	1.9493	9.463789	0.000213	2.129455	0.360739	-0.000021
1816	1.8059e+02	1.9380	9.436498	0.000274	2.743720	0.464799	-0.000027
1817	1.8069e+02	1.9276	9.412464	0.000242	2.416112	0.409300	-0.000024
1818	1.8079e+02	1.9157	9.385580	0.000270	2.702769	0.457861	-0.000027
1819	1.8089e+02	1.9059	9.357880	0.000278	2.784671	0.471736	-0.000028
1820	1.8099e+02	1.8956	9.328144	0.000299	2.989427	0.506423	-0.000030
1821	1.8109e+02	1.8845	9.302075	0.000262	2.620867	0.443987	-0.000026
1822	1.8119e+02	1.8751	9.277227	0.000250	2.498014	0.423175	-0.000025
1823	1.8129e+02	1.8632	9.251971	0.000254	2.538965	0.430112	-0.000025
1824	1.8139e+02	1.8535	9.227123	0.000250	2.498014	0.423175	-0.000025
1825	1.8149e+02	1.8462	9.196573	0.000307	3.071329	0.520297	-0.000031
1826	1.8159e+02	1.8375	9.176206	0.000205	2.047552	0.346865	-0.000020
1827	1.8169e+02	1.8286	9.148914	0.000274	2.743720	0.464799	-0.000027
1828	1.8179e+02	1.8175	9.126917	0.000221	2.211357	0.374614	-0.000022
1829	1.8189e+02	1.8080	9.101255	0.000258	2.579916	0.437050	-0.000026
1830	1.8199e+02	1.7960	9.073555	0.000278	2.784671	0.471736	-0.000028
1831	1.8209e+02	1.7871	9.057669	0.000160	1.597091	0.270555	-0.000016
1832	1.8218e+02	1.7770	9.031192	0.000266	2.661818	0.450924	-0.000027
1833	1.8228e+02	1.7654	9.001863	0.000295	2.948475	0.499485	-0.000029
1834	1.8238e+02	1.7593	8.981089	0.000209	2.088503	0.353802	-0.000021
1835	1.8248e+02	1.7465	8.955426	0.000258	2.579916	0.437050	-0.000026
1836	1.8258e+02	1.7378	8.933022	0.000225	2.252308	0.381551	-0.000023
1837	1.8268e+02	1.7285	8.905730	0.000274	2.743720	0.464799	-0.000027
1838	1.8278e+02	1.7175	8.878438	0.000274	2.743720	0.464799	-0.000027
1839	1.8288e+02	1.7088	8.854405	0.000242	2.416112	0.409300	-0.000024
1840	1.8298e+02	1.6978	8.829964	0.000246	2.457063	0.416238	-0.000025
1841	1.8308e+02	1.6866	8.805524	0.000246	2.457063	0.416238	-0.000025
1842	1.8318e+02	1.6783	8.782713	0.000229	2.293259	0.388489	-0.000023
1843	1.8328e+02	1.6673	8.758272	0.000246	2.457063	0.416238	-0.000025
1844	1.8338e+02	1.6570	8.733832	0.000246	2.457063	0.416238	-0.000025
1845	1.8348e+02	1.6467	8.709391	0.000246	2.457063	0.416238	-0.000025
1846	1.8358e+02	1.6355	8.689431	0.000201	2.006601	0.339927	-0.000020
1847	1.8368e+02	1.6285	8.670286	0.000192	1.924699	0.326053	-0.000019
1848	1.8378e+02	1.6167	8.645846	0.000246	2.457063	0.416238	-0.000025
1849	1.8388e+02	1.6073	8.621812	0.000242	2.416112	0.409300	-0.000024
1850	1.8398e+02	1.5997	8.599816	0.000221	2.211357	0.374614	-0.000022
1851	1.8407e+02	1.5866	8.576190	0.000238	2.375161	0.402363	-0.000024
1852	1.8417e+02	1.5766	8.552564	0.000238	2.375161	0.402363	-0.000024
1853	1.8427e+02	1.5652	8.528531	0.000242	2.416112	0.409300	-0.000024
1854	1.8437e+02	1.5572	8.506942	0.000217	2.170406	0.367677	-0.000022
1855	1.8447e+02	1.5472	8.481279	0.000258	2.579916	0.437050	-0.000026
1856	1.8457e+02	1.5380	8.459283	0.000221	2.211357	0.374614	-0.000022
1857	1.8467e+02	1.5288	8.440138	0.000192	1.924699	0.326053	-0.000019
1858	1.8477e+02	1.5198	8.415290	0.000250	2.498014	0.423175	-0.000025
1859	1.8487e+02	1.5083	8.394515	0.000209	2.088503	0.353802	-0.000021
1860	1.8497e+02	1.4960	8.370482	0.000242	2.416112	0.409300	-0.000024
1861	1.8507e+02	1.4862	8.347671	0.000229	2.293259	0.388489	-0.000023
1862	1.8517e+02	1.4766	8.324452	0.000233	2.334210	0.395426	-0.000023
1863	1.8527e+02	1.4700	8.297975	0.000266	2.661818	0.450924	-0.000027
1864	1.8537e+02	1.4610	8.275979	0.000221	2.211357	0.374614	-0.000022
1865	1.8547e+02	1.4474	8.255611	0.000205	2.047552	0.346865	-0.000020
1866	1.8557e+02	1.4389	8.226283	0.000295	2.948475	0.499485	-0.000029
1867	1.8567e+02	1.4256	8.201028	0.000254	2.538965	0.430112	-0.000025
1868	1.8577e+02	1.4173	8.178624	0.000225	2.252308	0.381551	-0.000023
1869	1.8587e+02	1.4104	8.152146	0.000266	2.661818	0.450924	-0.000027
1870	1.8597e+02	1.3969	8.132187	0.000201	2.006601	0.339927	-0.000020
1871	1.8606e+02	1.3906	8.106524	0.000258	2.579916	0.437050	-0.000026
1872	1.8616e+02	1.3787	8.080862	0.000258	2.579916	0.437050	-0.000026
1873	1.8626e+02	1.3683	8.053162	0.000278	2.784671	0.471736	-0.000028
1874	1.8636e+02	1.3580	8.030351	0.000229	2.293259	0.388489	-0.000023
1875	1.8646e+02	1.3478	8.005503	0.000250	2.498014	0.423175	-0.000025
1876	1.8656e+02	1.3406	7.982285	0.000233	2.334210	0.395426	-0.000023
1877	1.8666e+02	1.3294	7.959066	0.000233	2.334210	0.395426	-0.000023
1878	1.8676e+02	1.3194	7.933404	0.000258	2.579916	0.437050	-0.000026
1879	1.8686e+02	1.3113	7.907741	0.000258	2.579916	0.437050	-0.000026
1880	1.8696e+02	1.2994	7.879634	0.000283	2.825622	0.478673	-0.000028
1881	1.8706e+02	1.2906	7.857230	0.000225	2.252308	0.381551	-0.000023
1882	1.8716e+02	1.2795	7.831975	0.000254	2.538965	0.430112	-0.000025
1883	1.8726e+02	1.2700	7.804276	0.000278	2.784671	0.471736	-0.000028
1884	1.8736e+02	1.2604	7.780243	0.000242	2.416112	0.409300	-0.000024
1885	1.8746e+02	1.2498	7.755802	0.000246	2.457063	0.416238	-0.000025
1886	1.8756e+02	1.2386	7.733398	0.000225	2.252308	0.381551	-0.000023
1887	1.8766e+02	1.2316	7.708143	0.000254	2.538965	0.430112	-0.000025
1888	1.8776e+02	1.2215	7.682888	0.000254	2.538965	0.430112	-0.000025
1889	1.8786e+02	1.2096	7.660891	0.000221	2.211357	0.374614	-0.000022
1890	1.8796e+02	1.2001	7.636451	0.000246	2.457063	0.416238	-0.000025
1891	1.8806e+02	1.1892	7.614047	0.000225	2.252308	0.381551	-0.000023
1892	1.8815e+02	1.1797	7.590421	0.000238	2.375161	0.402363	-0.000024
1893	1.8825e+02	1.1730	7.565166	0.000254	2.538965	0.430112	-0.000025
1894	1.8835e+02	1.1613	7.540318	0.000250	2.498014	0.423175	-0.000025
1895	1.8845e+02	1.1509	7.519951	0.000205	2.047552	0.346865	-0.000020
1896	1.8855e+02	1.1376	7.491437	0.000287	2.866573	0.485611	-0.000029
1897	1.8865e+02	1.1288	7.466182	0.000254	2.538965	0.430112	-0.000025
1898	1.8875e+02	1.1198	7.443778	0.000225	2.252308	0.381551	-0.000023
1899	1.8885e+02	1.1094	7.416893	0.000270	2.702769	0.457861	-0.000027
1900	1.8895e+02	1.1001	7.390416	0.000266	2.661818	0.450924	-0.000027
1901	1.8905e+02	1.0921	7.368419	0.000221	2.211357	0.374614	-0.000022
1902	1.8915e+02	1.0796	7.342757	0.000258	2.579916	0.437050	-0.000026
1903	1.8925e+02	1.0719	7.319538	0.000233	2.334210	0.395426	-0.000023
1904	1.8935e+02	1.0615	7.297134	0.000225	2.252308	0.381551	-0.000023
1905	1.8945e+02	1.0502	7.271472	0.000258	2.579916	0.437050	-0.000026
1906	1.8955e+02	1.0436	7.249068	0.000225	2.252308	0.381551	-0.000023
1907	1.8965e+02	1.0297	7.223405	0.000258	2.579916	0.437050	-0.000026
1908	1.8975e+02	1.0194	7.197743	0.000258	2.579916	0.437050	-0.000026
1909	1.8985e+02	1.0096	7.173302	0.000246	2.457063	0.416238	-0.000025
1910	1.8995e+02	1.0051	7.144381	0.000291	2.907524	0.492548	-0.000029
1911	1.9004e+02	0.9937	7.118718	0.000258	2.579916	0.437050	-0.000026
1912	1.9014e+02	0.9795	7.094278	0.000246	2.457063	0.416238	-0.000025
1913	1.9024e+02	0.9707	7.064949	0.000295	2.948475	0.499485	-0.000029
1914	1.9034e+02	0.9634	7.035213	0.000299	2.989427	0.506423	-0.000030
1915	1.9044e+02	0.9496	7.014031	0.000213	2.129455	0.360739	-0.000021
1916	1.9054e+02	0.9390	6.987147	0.000270	2.702769	0.457861	-0.000027
1917	1.9064e+02	0.9336	6.957818	0.000295	2.948475	0.499485	-0.000029
1918	1.9074e+02	0.9203	6.931341	0.000266	2.661818	0.450924	-0.000027
1919	1.9084e+02	0.9084	6.907715	0.000238	2.375161	0.402363	-0.000024
1920	1.9094e+02	0.8997	6.878794	0.000291	2.907524	0.492548	-0.000029
1921	1.9104e+02	0.8900	6.854353	0.000246	2.457063	0.416238	-0.000025
1922	1.9114e+02	0.8820	6.826654	0.000278	2.784671	0.471736	-0.000028
1923	1.9124e+02	0.8730	6.801806	0.000250	2.498014	0.423175	-0.000025
1924	1.9134e+02	0.8609	6.772477	0.000295	2.948475	0.499485	-0.000029
1925	1.9144e+02	0.8504	6.744371	0.000283	2.825622	0.478673	-0.000028
1926	1.9154e+02	0.8403	6.718708	0.000258	2.579916	0.437050	-0.000026
1927	1.9164e+02	0.8317	6.690601	0.000283	2.825622	0.478673	-0.000028
1928	1.9174e+02	0.8201	6.663717	0.000270	2.702769	0.457861	-0.000027
1929	1.9184e+02	0.8134	6.634795	0.000291	2.907524	0.492548	-0.000029
1930	1.9194e+02	0.8015	6.605467	0.000295	2.948475	0.499485	-0.000029
1931	1.9203e+02	0.7902	6.577360	0.000283	2.825622	0.478673	-0.000028
1932	1.9213e+02	0.7830	6.546809	0.000307	3.071329	0.520297	-0.000031
1933	1.9223e+02	0.7742	6.519518	0.000274	2.743720	0.464799	-0.000027
1934	1.9233e+02	0.7623	6.491818	0.000278	2.784671	0.471736	-0.000028
1935	1.9243e+02	0.7556	6.461675	0.000303	3.030378	0.513360	-0.000030
1936	1.9253e+02	0.7426	6.432346	0.000295	2.948475	0.499485	-0.000029
1937	1.9263e+02	0.7294	6.404647	0.000278	2.784671	0.471736	-0.000028
1938	1.9273e+02	0.7211	6.375726	0.000291	2.907524	0.492548	-0.000029
1939	1.9283e+02	0.7125	6.348026	0.000278	2.784671	0.471736	-0.000028
1940	1.9293e+02	0.7042	6.320327	0.000278	2.784671	0.471736	-0.000028
1941	1.9303e+02	0.6909	6.291813	0.000287	2.866573	0.485611	-0.000029
1942	1.9313e+02	0.6816	6.260855	0.000311	3.112280	0.527234	-0.000031
1943	1.9323e+02	0.6720	6.231934	0.000291	2.907524	0.492548	-0.000029
1944	1.9333e+02	0.6609	6.201790	0.000303	3.030378	0.513360	-0.000030
1945	1.9343e+02	0.6535	6.172054	0.000299	2.989427	0.506423	-0.000030
1946	1.9353e+02	0.6454	6.144355	0.000278	2.784671	0.471736	-0.000028
1947	1.9363e+02	0.6323	6.117063	0.000274	2.743720	0.464799	-0.000027
1948	1.9373e+02	0.6232	6.088549	0.000287	2.866573	0.485611	-0.000029
1949	1.9383e+02	0.6134	6.063294	0.000254	2.538965	0.430112	-0.000025
1950	1.9393e+02	0.6039	6.039261	0.000242	2.416112	0.409300	-0.000024
1951	1.9403e+02	0.5894	6.010747	0.000287	2.866573	0.485611	-0.000029
1952	1.9412e+02	0.5848	5.979381	0.000315	3.153231	0.534172	-0.000032
1953	1.9422e+02	0.5718	5.955348	0.000242	2.416112	0.409300	-0.000024
1954	1.9432e+02	0.5657	5.928871	0.000266	2.661818	0.450924	-0.000027
1955	1.9442e+02	0.5543	5.902394	0.000266	2.661818	0.450924	-0.000027
1956	1.9452e+02	0.5428	5.874694	0.000278	2.784671	0.471736	-0.000028
1957	1.9462e+02	0.5348	5.845773	0.000291	2.907524	0.492548	-0.000029
1958	1.9472e+02	0.5228	5.820518	0.000254	2.538965	0.430112	-0.000025
1959	1.9482e+02	0.5167	5.794040	0.000266	2.661818	0.450924	-0.000027
1960	1.9492e+02	0.5044	5.766341	0.000278	2.784671	0.471736	-0.000028
1961	1.9502e+02	0.4931	5.740271	0.000262	2.620867	0.443987	-0.000026
1962	1.9512e+02	0.4815	5.712165	0.000283	2.825622	0.478673	-0.000028
1963	1.9522e+02	0.4733	5.681614	0.000307	3.071329	0.520297	-0.000031
1964	1.9532e+02	0.4619	5.659210	0.000225	2.252308	0.381551	-0.000023
1965	1.9542e+02	0.4534	5.625808	0.000336	3.357986	0.568858	-0.000034
1966	1.9552e+02	0.4454	5.600553	0.000254	2.538965	0.430112	-0.000025
1967	1.9562e+02	0.4359	5.574483	0.000262	2.620867	0.443987	-0.000026
1968	1.9572e+02	0.4231	5.547191	0.000274	2.743720	0.464799	-0.000027
1969	1.9582e+02	0.4114	5.520714	0.000266	2.661818	0.450924	-0.000027
1970	1.9592e+02	0.4053	5.492607	0.000283	2.825622	0.478673	-0.000028
1971	1.9601e+02	0.3959	5.468574	0.000242	2.416112	0.409300	-0.000024
1972	1.9611e+02	0.3835	5.439652	0.000291	2.907524	0.492548	-0.000029
1973	1.9621e+02	0.3754	5.413175	0.000266	2.661818	0.450924	-0.000027
1974	1.9631e+02	0.3632	5.384254	0.000291	2.907524	0.492548	-0.000029
1975	1.9641e+02	0.3573	5.351259	0.000332	3.317035	0.561921	-0.000033
1976	1.9651e+02	0.3433	5.321930	0.000295	2.948475	0.499485	-0.000029
1977	1.9661e+02	0.3328	5.295453	0.000266	2.661818	0.450924	-0.000027
1978	1.9671e+02	0.3236	5.266939	0.000287	2.866573	0.485611	-0.000029
1979	1.9681e+02	0.3160	5.236796	0.000303	3.030378	0.513360	-0.000030
1980	1.9691e+02	0.3067	5.207467	0.000295	2.948475	0.499485	-0.000029
1981	1.9701e+02	0.2948	5.184249	0.000233	2.334210	0.395426	-0.000023
1982	1.9711e+02	0.2829	5.154105	0.000303	3.030378	0.513360	-0.000030
1983	1.9721e+02	0.2745	5.125999	0.000283	2.825622	0.478673	-0.000028
1984	1.9731e+02	0.2632	5.100336	0.000258	2.579916	0.437050	-0.000026
1985	1.9741e+02	0.2569	5.074266	0.000262	2.620867	0.443987	-0.000026
1986	1.9751e+02	0.2457	5.046567	0.000278	2.784671	0.471736	-0.000028
1987	1.9761e+02	0.2351	5.018053	0.000287	2.866573	0.485611	-0.000029
1988	1.9771e+02	0.2238	4.985058	0.000332	3.317035	0.561921	-0.000033
1989	1.9781e+02	0.2167	4.956952	0.000283	2.825622	0.478673	-0.000028
1990	1.9791e+02	0.2048	4.929252	0.000278	2.784671	0.471736	-0.000028
1991	1.9800e+02	0.1949	4.902775	0.000266	2.661818	0.450924	-0.000027
1992	1.9810e+02	0.1842	4.873854	0.000291	2.907524	0.492548	-0.000029
1993	1.9820e+02	0.1762	4.846154	0.000278	2.784671	0.471736	-0.000028
1994	1.9830e+02	0.1640	4.820899	0.000254	2.538965	0.430112	-0.000025
1995	1.9840e+02	0.1536	4.791978	0.000291	2.907524	0.492548	-0.000029
1996	1.9850e+02	0.1437	4.765093	0.000270	2.702769	0.457861	-0.000027
1997	1.9860e+02	0.1363	4.741060	0.000242	2.416112	0.409300	-0.000024
1998	1.9870e+02	0.1239	4.712139	0.000291	2.907524	0.492548	-0.000029
1999	1.9880e+02	0.1140	4.685661	0.000266	2.661818	0.450924	-0.000027
2000	1.9890e+02	0.1077	4.660406	0.000254	2.538965	0.430112	-0.000025
2001	1.9900e+02	0.0957	4.633929	0.000266	2.661818	0.450924	-0.000027
2002	1.9910e+02	0.0858	4.607859	0.000262	2.620867	0.443987	-0.000026
2003	1.9920e+02	0.0758	4.581382	0.000266	2.661818	0.450924	-0.000027
2004	1.9930e+02	0.0652	4.552460	0.000291	2.907524	0.492548	-0.000029
2005	1.9940e+02	0.0569	4.525168	0.000274	2.743720	0.464799	-0.000027
2006	1.9950e+02	0.0427	4.497469	0.000278	2.784671	0.471736	-0.000028
2007	1.9960e+02	0.0347	4.475880	0.000217	2.170406	0.367677	-0.000022
2008	1.9970e+02	0.0278	4.448588	0.000274	2.743720	0.464799	-0.000027
2009	1.9980e+02	0.0146	4.423740	0.000250	2.498014	0.423175	-0.000025
2010	1.9990e+02	0.0027	4.397670	0.000262	2.620867	0.443987	-0.000026
2011	2.0000e+02	-0.0032	4.374859	0.000262	2.620867	0.443987	-0.000023

PMax (uC/cm2):	3.63e+01
Pr (uC/cm2):	2.64e+01
-Pr (uC/cm2):	0.00e+00
PLoss (uC/cm2):	0.00e+00
C (Max-Eff) (nF):	3.63e-01
K (Eff):	6.15e+02
Vert. (+/-Pr) Shift (uC/cm2):	1.32e+01
Offset (uC/cm2):	2.20e+01

A (Loop Area - uC/cm2·Volts):	-1.08e-01



Hysteresis Version: 5.48.1 - Radiant Technologies, Inc., 1999 - 9/12/24

