»»»»»»»»»»»»»»»»»»»»»»»»»»»»»»»»»»»» Hysteresis ««««««««««««««««««««««««««««««««««««
»»»  Executed Version:	5.48.1
»»»  Vision Version:	5.48.4 (R)
»»»  Vision Compiled:	9/18/24
»»»  Driver Version:	5.47.0
»»»  Windows Version:	Windows 8 or 8.1
»»»  Processor Information:	x86 (AMD or Intel) - 32 Processors
»»»  Tester Name:	PMF21124-494 (100V)
»»»  Tester S/N:	PMF21124-494
»»»  Internal Amp Type:	100V RevK 270k
»»»  Internal Amp S/N:	iAB2-596/K     
»»»  Execution Count:	1
»»»»»»»»»»»»»»»»»»»»»»»»»»»»»»»»»»»»»»»»»»««««««««««««««««««««««««««««««««««««««««««

Stored:	6/26/2025 - 14:39:6
Configured:	06/26/25 10:24:47 AM
Executed:	06/26/25 02:38:02 PM

»»»»»»»»»»»»»»»»»»»»»»»»»»»»»»»»»»» Sample Info ««««««««««««««««««««««««««««««««««««
Sample Name:	
Lot Name:	
Wafer Name:	
Die Row/Column:	0/0
Capacitor Number:	0
Sample Area (cm2):	1.00e-04
Sample Thickness (microns):	1.50e-01

Amplifier:	Internal

»»»»»»»»»»»»»»»»»»»»»»»»»»»»»»»»»»» Tester Info «««««««««««««««««««««««««««««««««««
Tester Name:	PMF21124-494 (100V)
Tester Serial Number:	PMF21124-494
Return Signal Amp. Level:	1.9 [Index: 2]

»»»»»»»»»»»»»»»»»»»»»»»»»»»»»»»» Hysteresis Info ««««««««««««««««««««««««««««««««««
Task Name:	Hyst-562
Volts:	10.00
Field:	666.67 (kV/cm)
DCBias:	0.00
DCField:	0.00 (kV/cm)
Hysteresis Period (ms):	2.00e+02
Preset:	Enabled
Preset Delay (ms):	1.00e+03
Profile:	Standard Monopolar

»»»»»»»»»»»»»»»»»»»»»»»»»»»»»»»»»»»»»» Data «««««««««««««««««««««««««««««««««««««««
Points:	2011

Valid Data

Point	Time (ms)	Drive Voltage	Measured Polarization (uC/cm2)	Capacitance (uF)	Normalized Capacitance (uF/cm2)	Dielectric Constant	Instantaneous Current (mA)
   1	0.0000e+00	0.0002	-11.734928	0.000164	1.638298	0.277535	0.000016
   2	9.9500e-02	0.0053	-11.718634	0.000164	1.638298	0.277535	0.000016
   3	1.9900e-01	0.0146	-11.696230	0.000225	2.252660	0.381611	0.000023
   4	2.9850e-01	0.0272	-11.678307	0.000180	1.802128	0.305289	0.000018
   5	3.9800e-01	0.0387	-11.655903	0.000225	2.252660	0.381611	0.000023
   6	4.9750e-01	0.0441	-11.632278	0.000238	2.375532	0.402426	0.000024
   7	5.9700e-01	0.0546	-11.614762	0.000176	1.761171	0.298350	0.000018
   8	6.9650e-01	0.0638	-11.593173	0.000217	2.170745	0.367734	0.000022
   9	7.9600e-01	0.0742	-11.571991	0.000213	2.129788	0.360796	0.000021
  10	8.9550e-01	0.0858	-11.551216	0.000209	2.088830	0.353857	0.000021
  11	9.9500e-01	0.0954	-11.525961	0.000254	2.539362	0.430180	0.000025
  12	1.0945e+00	0.1032	-11.508038	0.000180	1.802128	0.305289	0.000018
  13	1.1940e+00	0.1132	-11.484412	0.000238	2.375532	0.402426	0.000024
  14	1.2935e+00	0.1254	-11.459972	0.000246	2.457447	0.416303	0.000025
  15	1.3930e+00	0.1347	-11.437160	0.000229	2.293618	0.388549	0.000023
  16	1.4925e+00	0.1447	-11.412313	0.000250	2.498405	0.423241	0.000025
  17	1.5920e+00	0.1545	-11.390723	0.000217	2.170745	0.367734	0.000022
  18	1.6915e+00	0.1655	-11.368320	0.000225	2.252660	0.381611	0.000023
  19	1.7910e+00	0.1770	-11.347952	0.000205	2.047873	0.346919	0.000020
  20	1.8905e+00	0.1858	-11.323105	0.000250	2.498405	0.423241	0.000025
  21	1.9900e+00	0.1937	-11.301108	0.000221	2.211703	0.374673	0.000022
  22	2.0895e+00	0.2024	-11.280741	0.000205	2.047873	0.346919	0.000020
  23	2.1890e+00	0.2159	-11.254264	0.000266	2.662235	0.450995	0.000027
  24	2.2885e+00	0.2241	-11.233082	0.000213	2.129788	0.360796	0.000021
  25	2.3880e+00	0.2332	-11.207419	0.000258	2.580320	0.437118	0.000026
  26	2.4875e+00	0.2446	-11.185015	0.000225	2.252660	0.381611	0.000023
  27	2.5870e+00	0.2551	-11.163834	0.000213	2.129788	0.360796	0.000021
  28	2.6865e+00	0.2651	-11.137356	0.000266	2.662235	0.450995	0.000027
  29	2.7860e+00	0.2708	-11.119026	0.000184	1.843086	0.312227	0.000018
  30	2.8855e+00	0.2841	-11.090919	0.000283	2.826064	0.478748	0.000028
  31	2.9850e+00	0.2962	-11.067701	0.000233	2.334575	0.395488	0.000023
  32	3.0845e+00	0.3045	-11.040002	0.000279	2.785107	0.471810	0.000028
  33	3.1840e+00	0.3155	-11.020042	0.000201	2.006915	0.339981	0.000020
  34	3.2835e+00	0.3269	-10.994379	0.000258	2.580320	0.437118	0.000026
  35	3.3830e+00	0.3365	-10.973605	0.000209	2.088830	0.353857	0.000021
  36	3.4825e+00	0.3433	-10.949979	0.000238	2.375532	0.402426	0.000024
  37	3.5820e+00	0.3535	-10.928797	0.000213	2.129788	0.360796	0.000021
  38	3.6815e+00	0.3634	-10.903949	0.000250	2.498405	0.423241	0.000025
  39	3.7810e+00	0.3730	-10.877879	0.000262	2.621277	0.444056	0.000026
  40	3.8805e+00	0.3844	-10.854661	0.000233	2.334575	0.395488	0.000023
  41	3.9800e+00	0.3931	-10.830220	0.000246	2.457447	0.416303	0.000025
  42	4.0795e+00	0.4055	-10.805780	0.000246	2.457447	0.416303	0.000025
  43	4.1790e+00	0.4166	-10.777266	0.000287	2.867022	0.485687	0.000029
  44	4.2785e+00	0.4215	-10.758120	0.000193	1.925000	0.326104	0.000019
  45	4.3780e+00	0.4337	-10.734902	0.000233	2.334575	0.395488	0.000023
  46	4.4775e+00	0.4407	-10.708832	0.000262	2.621277	0.444056	0.000026
  47	4.5770e+00	0.4545	-10.684799	0.000242	2.416490	0.409364	0.000024
  48	4.6765e+00	0.4612	-10.660766	0.000242	2.416490	0.409364	0.000024
  49	4.7760e+00	0.4745	-10.635103	0.000258	2.580320	0.437118	0.000026
  50	4.8755e+00	0.4856	-10.613514	0.000217	2.170745	0.367734	0.000022
  51	4.9750e+00	0.4939	-10.589888	0.000238	2.375532	0.402426	0.000024
  52	5.0745e+00	0.5030	-10.567891	0.000221	2.211703	0.374673	0.000022
  53	5.1740e+00	0.5125	-10.538155	0.000299	2.989894	0.506502	0.000030
  54	5.2735e+00	0.5213	-10.519010	0.000193	1.925000	0.326104	0.000019
  55	5.3730e+00	0.5328	-10.490089	0.000291	2.907979	0.492625	0.000029
  56	5.4725e+00	0.5404	-10.467685	0.000225	2.252660	0.381611	0.000023
  57	5.5720e+00	0.5515	-10.445689	0.000221	2.211703	0.374673	0.000022
  58	5.6715e+00	0.5625	-10.415545	0.000303	3.030852	0.513440	0.000030
  59	5.7710e+00	0.5731	-10.392327	0.000233	2.334575	0.395488	0.000023
  60	5.8705e+00	0.5801	-10.365442	0.000270	2.703192	0.457933	0.000027
  61	5.9700e+00	0.5920	-10.339372	0.000262	2.621277	0.444056	0.000026
  62	6.0695e+00	0.6033	-10.316154	0.000233	2.334575	0.395488	0.000023
  63	6.1690e+00	0.6097	-10.290491	0.000258	2.580320	0.437118	0.000026
  64	6.2685e+00	0.6222	-10.268495	0.000221	2.211703	0.374673	0.000022
  65	6.3680e+00	0.6354	-10.242425	0.000262	2.621277	0.444056	0.000026
  66	6.4675e+00	0.6437	-10.214318	0.000283	2.826064	0.478748	0.000028
  67	6.5670e+00	0.6538	-10.188656	0.000258	2.580320	0.437118	0.000026
  68	6.6665e+00	0.6621	-10.161364	0.000274	2.744150	0.464872	0.000027
  69	6.7660e+00	0.6709	-10.137738	0.000238	2.375532	0.402426	0.000024
  70	6.8655e+00	0.6836	-10.112075	0.000258	2.580320	0.437118	0.000026
  71	6.9650e+00	0.6909	-10.082747	0.000295	2.948937	0.499563	0.000029
  72	7.0645e+00	0.7017	-10.056269	0.000266	2.662235	0.450995	0.000027
  73	7.1640e+00	0.7122	-10.028570	0.000279	2.785107	0.471810	0.000028
  74	7.2635e+00	0.7235	-10.000463	0.000283	2.826064	0.478748	0.000028
  75	7.3630e+00	0.7320	-9.972357	0.000283	2.826064	0.478748	0.000028
  76	7.4625e+00	0.7433	-9.949138	0.000233	2.334575	0.395488	0.000023
  77	7.5620e+00	0.7513	-9.918180	0.000311	3.112767	0.527317	0.000031
  78	7.6615e+00	0.7626	-9.893332	0.000250	2.498405	0.423241	0.000025
  79	7.7610e+00	0.7724	-9.874594	0.000188	1.884043	0.319166	0.000019
  80	7.8605e+00	0.7813	-9.847710	0.000270	2.703192	0.457933	0.000027
  81	7.9600e+00	0.7925	-9.821233	0.000266	2.662235	0.450995	0.000027
  82	8.0595e+00	0.8031	-9.795570	0.000258	2.580320	0.437118	0.000026
  83	8.1590e+00	0.8123	-9.770315	0.000254	2.539362	0.430180	0.000025
  84	8.2585e+00	0.8226	-9.745467	0.000250	2.498405	0.423241	0.000025
  85	8.3580e+00	0.8326	-9.718990	0.000266	2.662235	0.450995	0.000027
  86	8.4575e+00	0.8414	-9.692920	0.000262	2.621277	0.444056	0.000026
  87	8.5570e+00	0.8510	-9.667664	0.000254	2.539362	0.430180	0.000025
  88	8.6565e+00	0.8607	-9.642409	0.000254	2.539362	0.430180	0.000025
  89	8.7560e+00	0.8713	-9.621227	0.000213	2.129788	0.360796	0.000021
  90	8.8555e+00	0.8841	-9.596787	0.000246	2.457447	0.416303	0.000025
  91	8.9550e+00	0.8943	-9.572346	0.000246	2.457447	0.416303	0.000025
  92	9.0545e+00	0.9014	-9.549128	0.000233	2.334575	0.395488	0.000023
  93	9.1540e+00	0.9122	-9.524687	0.000246	2.457447	0.416303	0.000025
  94	9.2535e+00	0.9238	-9.500654	0.000242	2.416490	0.409364	0.000024
  95	9.3530e+00	0.9336	-9.476213	0.000246	2.457447	0.416303	0.000025
  96	9.4525e+00	0.9428	-9.454217	0.000221	2.211703	0.374673	0.000022
  97	9.5520e+00	0.9515	-9.435072	0.000193	1.925000	0.326104	0.000019
  98	9.6515e+00	0.9602	-9.410631	0.000246	2.457447	0.416303	0.000025
  99	9.7510e+00	0.9702	-9.385783	0.000250	2.498405	0.423241	0.000025
 100	9.8505e+00	0.9824	-9.362972	0.000229	2.293618	0.388549	0.000023
 101	9.9500e+00	0.9894	-9.340976	0.000221	2.211703	0.374673	0.000022
 102	1.0050e+01	1.0004	-9.321016	0.000201	2.006915	0.339981	0.000020
 103	1.0149e+01	1.0097	-9.297390	0.000238	2.375532	0.402426	0.000024
 104	1.0248e+01	1.0210	-9.270913	0.000266	2.662235	0.450995	0.000027
 105	1.0348e+01	1.0312	-9.252582	0.000184	1.843086	0.312227	0.000018
 106	1.0447e+01	1.0402	-9.226512	0.000262	2.621277	0.444056	0.000026
 107	1.0547e+01	1.0505	-9.201665	0.000250	2.498405	0.423241	0.000025
 108	1.0646e+01	1.0592	-9.183334	0.000184	1.843086	0.312227	0.000018
 109	1.0746e+01	1.0701	-9.159708	0.000238	2.375532	0.402426	0.000024
 110	1.0845e+01	1.0807	-9.135268	0.000246	2.457447	0.416303	0.000025
 111	1.0945e+01	1.0905	-9.111235	0.000242	2.416490	0.409364	0.000024
 112	1.1044e+01	1.1027	-9.094941	0.000164	1.638298	0.277535	0.000016
 113	1.1144e+01	1.1120	-9.070093	0.000250	2.498405	0.423241	0.000025
 114	1.1243e+01	1.1204	-9.046874	0.000233	2.334575	0.395488	0.000023
 115	1.1343e+01	1.1277	-9.026100	0.000209	2.088830	0.353857	0.000021
 116	1.1443e+01	1.1404	-9.006140	0.000201	2.006915	0.339981	0.000020
 117	1.1542e+01	1.1488	-8.983736	0.000225	2.252660	0.381611	0.000023
 118	1.1642e+01	1.1610	-8.956852	0.000270	2.703192	0.457933	0.000027
 119	1.1741e+01	1.1694	-8.938929	0.000180	1.802128	0.305289	0.000018
 120	1.1841e+01	1.1804	-8.912859	0.000262	2.621277	0.444056	0.000026
 121	1.1940e+01	1.1919	-8.892899	0.000201	2.006915	0.339981	0.000020
 122	1.2040e+01	1.2000	-8.869680	0.000233	2.334575	0.395488	0.000023
 123	1.2139e+01	1.2099	-8.848499	0.000213	2.129788	0.360796	0.000021
 124	1.2239e+01	1.2215	-8.826909	0.000217	2.170745	0.367734	0.000022
 125	1.2338e+01	1.2294	-8.804098	0.000229	2.293618	0.388549	0.000023
 126	1.2438e+01	1.2407	-8.785768	0.000184	1.843086	0.312227	0.000018
 127	1.2537e+01	1.2508	-8.763364	0.000225	2.252660	0.381611	0.000023
 128	1.2636e+01	1.2601	-8.746256	0.000172	1.720213	0.291412	0.000017
 129	1.2736e+01	1.2677	-8.725074	0.000213	2.129788	0.360796	0.000021
 130	1.2835e+01	1.2789	-8.700633	0.000246	2.457447	0.416303	0.000025
 131	1.2935e+01	1.2894	-8.682303	0.000184	1.843086	0.312227	0.000018
 132	1.3034e+01	1.2981	-8.655011	0.000274	2.744150	0.464872	0.000027
 133	1.3134e+01	1.3095	-8.636680	0.000184	1.843086	0.312227	0.000018
 134	1.3233e+01	1.3209	-8.613055	0.000238	2.375532	0.402426	0.000024
 135	1.3333e+01	1.3287	-8.589429	0.000238	2.375532	0.402426	0.000024
 136	1.3432e+01	1.3389	-8.566618	0.000229	2.293618	0.388549	0.000023
 137	1.3532e+01	1.3479	-8.548694	0.000180	1.802128	0.305289	0.000018
 138	1.3632e+01	1.3572	-8.529142	0.000197	1.965958	0.333042	0.000020
 139	1.3731e+01	1.3680	-8.507960	0.000213	2.129788	0.360796	0.000021
 140	1.3831e+01	1.3759	-8.483112	0.000250	2.498405	0.423241	0.000025
 141	1.3930e+01	1.3857	-8.463560	0.000197	1.965958	0.333042	0.000020
 142	1.4030e+01	1.3965	-8.446451	0.000172	1.720213	0.291412	0.000017
 143	1.4129e+01	1.4099	-8.425270	0.000213	2.129788	0.360796	0.000021
 144	1.4229e+01	1.4194	-8.405310	0.000201	2.006915	0.339981	0.000020
 145	1.4328e+01	1.4305	-8.385350	0.000201	2.006915	0.339981	0.000020
 146	1.4428e+01	1.4361	-8.363354	0.000221	2.211703	0.374673	0.000022
 147	1.4527e+01	1.4474	-8.341357	0.000221	2.211703	0.374673	0.000022
 148	1.4627e+01	1.4581	-8.320175	0.000213	2.129788	0.360796	0.000021
 149	1.4726e+01	1.4694	-8.299401	0.000209	2.088830	0.353857	0.000021
 150	1.4825e+01	1.4771	-8.283107	0.000164	1.638298	0.277535	0.000016
 151	1.4925e+01	1.4867	-8.261111	0.000221	2.211703	0.374673	0.000022
 152	1.5024e+01	1.4991	-8.239114	0.000221	2.211703	0.374673	0.000022
 153	1.5124e+01	1.5062	-8.219562	0.000197	1.965958	0.333042	0.000020
 154	1.5223e+01	1.5176	-8.202046	0.000176	1.761171	0.298350	0.000018
 155	1.5323e+01	1.5294	-8.180457	0.000217	2.170745	0.367734	0.000022
 156	1.5422e+01	1.5373	-8.162941	0.000176	1.761171	0.298350	0.000018
 157	1.5522e+01	1.5444	-8.142981	0.000201	2.006915	0.339981	0.000020
 158	1.5621e+01	1.5578	-8.125873	0.000172	1.720213	0.291412	0.000017
 159	1.5721e+01	1.5681	-8.105506	0.000205	2.047873	0.346919	0.000020
 160	1.5820e+01	1.5773	-8.087990	0.000176	1.761171	0.298350	0.000018
 161	1.5920e+01	1.5909	-8.065994	0.000221	2.211703	0.374673	0.000022
 162	1.6020e+01	1.5993	-8.046034	0.000201	2.006915	0.339981	0.000020
 163	1.6119e+01	1.6115	-8.025667	0.000205	2.047873	0.346919	0.000020
 164	1.6218e+01	1.6174	-8.005707	0.000201	2.006915	0.339981	0.000020
 165	1.6318e+01	1.6253	-7.986154	0.000197	1.965958	0.333042	0.000020
 166	1.6418e+01	1.6380	-7.962936	0.000233	2.334575	0.395488	0.000023
 167	1.6517e+01	1.6479	-7.943383	0.000197	1.965958	0.333042	0.000020
 168	1.6616e+01	1.6578	-7.922609	0.000209	2.088830	0.353857	0.000021
 169	1.6716e+01	1.6683	-7.905908	0.000168	1.679256	0.284474	0.000017
 170	1.6816e+01	1.6782	-7.879431	0.000266	2.662235	0.450995	0.000027
 171	1.6915e+01	1.6887	-7.861100	0.000184	1.843086	0.312227	0.000018
 172	1.7015e+01	1.6998	-7.837882	0.000233	2.334575	0.395488	0.000023
 173	1.7114e+01	1.7065	-7.817107	0.000209	2.088830	0.353857	0.000021
 174	1.7213e+01	1.7147	-7.799592	0.000176	1.761171	0.298350	0.000018
 175	1.7313e+01	1.7287	-7.777188	0.000225	2.252660	0.381611	0.000023
 176	1.7413e+01	1.7373	-7.753969	0.000233	2.334575	0.395488	0.000023
 177	1.7512e+01	1.7435	-7.732380	0.000217	2.170745	0.367734	0.000022
 178	1.7611e+01	1.7561	-7.710383	0.000221	2.211703	0.374673	0.000022
 179	1.7711e+01	1.7671	-7.687165	0.000233	2.334575	0.395488	0.000023
 180	1.7811e+01	1.7774	-7.663539	0.000238	2.375532	0.402426	0.000024
 181	1.7910e+01	1.7877	-7.644394	0.000193	1.925000	0.326104	0.000019
 182	1.8009e+01	1.7967	-7.617509	0.000270	2.703192	0.457933	0.000027
 183	1.8109e+01	1.8060	-7.591847	0.000258	2.580320	0.437118	0.000026
 184	1.8209e+01	1.8172	-7.571887	0.000201	2.006915	0.339981	0.000020
 185	1.8308e+01	1.8258	-7.549891	0.000221	2.211703	0.374673	0.000022
 186	1.8407e+01	1.8383	-7.525857	0.000242	2.416490	0.409364	0.000024
 187	1.8507e+01	1.8447	-7.502639	0.000233	2.334575	0.395488	0.000023
 188	1.8607e+01	1.8559	-7.483494	0.000193	1.925000	0.326104	0.000019
 189	1.8706e+01	1.8684	-7.459053	0.000246	2.457447	0.416303	0.000025
 190	1.8805e+01	1.8758	-7.436242	0.000229	2.293618	0.388549	0.000023
 191	1.8905e+01	1.8861	-7.412209	0.000242	2.416490	0.409364	0.000024
 192	1.9005e+01	1.8972	-7.388990	0.000233	2.334575	0.395488	0.000023
 193	1.9104e+01	1.9083	-7.362513	0.000266	2.662235	0.450995	0.000027
 194	1.9203e+01	1.9153	-7.340924	0.000217	2.170745	0.367734	0.000022
 195	1.9303e+01	1.9247	-7.323001	0.000180	1.802128	0.305289	0.000018
 196	1.9402e+01	1.9368	-7.292857	0.000303	3.030852	0.513440	0.000030
 197	1.9502e+01	1.9463	-7.270454	0.000225	2.252660	0.381611	0.000023
 198	1.9602e+01	1.9557	-7.246013	0.000246	2.457447	0.416303	0.000025
 199	1.9701e+01	1.9682	-7.224424	0.000217	2.170745	0.367734	0.000022
 200	1.9800e+01	1.9748	-7.199983	0.000246	2.457447	0.416303	0.000025
 201	1.9900e+01	1.9828	-7.178801	0.000213	2.129788	0.360796	0.000021
 202	2.0000e+01	1.9962	-7.155176	0.000238	2.375532	0.402426	0.000024
 203	2.0099e+01	2.0055	-7.130735	0.000246	2.457447	0.416303	0.000025
 204	2.0198e+01	2.0152	-7.100999	0.000299	2.989894	0.506502	0.000030
 205	2.0298e+01	2.0237	-7.081854	0.000193	1.925000	0.326104	0.000019
 206	2.0398e+01	2.0343	-7.055377	0.000266	2.662235	0.450995	0.000027
 207	2.0497e+01	2.0477	-7.036639	0.000188	1.884043	0.319166	0.000019
 208	2.0596e+01	2.0528	-7.012198	0.000246	2.457447	0.416303	0.000025
 209	2.0696e+01	2.0648	-6.988572	0.000238	2.375532	0.402426	0.000024
 210	2.0796e+01	2.0777	-6.961688	0.000270	2.703192	0.457933	0.000027
 211	2.0895e+01	2.0860	-6.936025	0.000258	2.580320	0.437118	0.000026
 212	2.0994e+01	2.0958	-6.914436	0.000217	2.170745	0.367734	0.000022
 213	2.1094e+01	2.1059	-6.890810	0.000238	2.375532	0.402426	0.000024
 214	2.1194e+01	2.1149	-6.868406	0.000225	2.252660	0.381611	0.000023
 215	2.1293e+01	2.1256	-6.839485	0.000291	2.907979	0.492625	0.000029
 216	2.1392e+01	2.1350	-6.819525	0.000201	2.006915	0.339981	0.000020
 217	2.1492e+01	2.1474	-6.793863	0.000258	2.580320	0.437118	0.000026
 218	2.1591e+01	2.1569	-6.773496	0.000205	2.047873	0.346919	0.000020
 219	2.1691e+01	2.1651	-6.750277	0.000233	2.334575	0.395488	0.000023
 220	2.1791e+01	2.1769	-6.720541	0.000299	2.989894	0.506502	0.000030
 221	2.1890e+01	2.1838	-6.698952	0.000217	2.170745	0.367734	0.000022
 222	2.1989e+01	2.1931	-6.675733	0.000233	2.334575	0.395488	0.000023
 223	2.2089e+01	2.2054	-6.649663	0.000262	2.621277	0.444056	0.000026
 224	2.2189e+01	2.2136	-6.626445	0.000233	2.334575	0.395488	0.000023
 225	2.2288e+01	2.2242	-6.603226	0.000233	2.334575	0.395488	0.000023
 226	2.2387e+01	2.2345	-6.578786	0.000246	2.457447	0.416303	0.000025
 227	2.2487e+01	2.2449	-6.549865	0.000291	2.907979	0.492625	0.000029
 228	2.2587e+01	2.2555	-6.525017	0.000250	2.498405	0.423241	0.000025
 229	2.2686e+01	2.2652	-6.501391	0.000238	2.375532	0.402426	0.000024
 230	2.2785e+01	2.2733	-6.475728	0.000258	2.580320	0.437118	0.000026
 231	2.2885e+01	2.2859	-6.449251	0.000266	2.662235	0.450995	0.000027
 232	2.2985e+01	2.2939	-6.429699	0.000197	1.965958	0.333042	0.000020
 233	2.3084e+01	2.3051	-6.401592	0.000283	2.826064	0.478748	0.000028
 234	2.3183e+01	2.3138	-6.378781	0.000229	2.293618	0.388549	0.000023
 235	2.3283e+01	2.3246	-6.349045	0.000299	2.989894	0.506502	0.000030
 236	2.3383e+01	2.3321	-6.326233	0.000229	2.293618	0.388549	0.000023
 237	2.3482e+01	2.3436	-6.298127	0.000283	2.826064	0.478748	0.000028
 238	2.3581e+01	2.3544	-6.270835	0.000274	2.744150	0.464872	0.000027
 239	2.3681e+01	2.3630	-6.243950	0.000270	2.703192	0.457933	0.000027
 240	2.3780e+01	2.3765	-6.219917	0.000242	2.416490	0.409364	0.000024
 241	2.3880e+01	2.3846	-6.191403	0.000287	2.867022	0.485687	0.000029
 242	2.3980e+01	2.3928	-6.167370	0.000242	2.416490	0.409364	0.000024
 243	2.4079e+01	2.4046	-6.139263	0.000283	2.826064	0.478748	0.000028
 244	2.4178e+01	2.4106	-6.116452	0.000229	2.293618	0.388549	0.000023
 245	2.4278e+01	2.4215	-6.091604	0.000250	2.498405	0.423241	0.000025
 246	2.4378e+01	2.4319	-6.067978	0.000238	2.375532	0.402426	0.000024
 247	2.4477e+01	2.4452	-6.039057	0.000291	2.907979	0.492625	0.000029
 248	2.4576e+01	2.4549	-6.015431	0.000238	2.375532	0.402426	0.000024
 249	2.4676e+01	2.4630	-5.992620	0.000229	2.293618	0.388549	0.000023
 250	2.4776e+01	2.4763	-5.967365	0.000254	2.539362	0.430180	0.000025
 251	2.4875e+01	2.4834	-5.940073	0.000274	2.744150	0.464872	0.000027
 252	2.4974e+01	2.4933	-5.915632	0.000246	2.457447	0.416303	0.000025
 253	2.5074e+01	2.5042	-5.889970	0.000258	2.580320	0.437118	0.000026
 254	2.5174e+01	2.5140	-5.865122	0.000250	2.498405	0.423241	0.000025
 255	2.5273e+01	2.5220	-5.841496	0.000238	2.375532	0.402426	0.000024
 256	2.5372e+01	2.5340	-5.823573	0.000180	1.802128	0.305289	0.000018
 257	2.5472e+01	2.5417	-5.796281	0.000274	2.744150	0.464872	0.000027
 258	2.5572e+01	2.5527	-5.773062	0.000233	2.334575	0.395488	0.000023
 259	2.5671e+01	2.5623	-5.750251	0.000229	2.293618	0.388549	0.000023
 260	2.5770e+01	2.5707	-5.727440	0.000229	2.293618	0.388549	0.000023
 261	2.5870e+01	2.5864	-5.700148	0.000274	2.744150	0.464872	0.000027
 262	2.5970e+01	2.5925	-5.679374	0.000209	2.088830	0.353857	0.000021
 263	2.6069e+01	2.6014	-5.659821	0.000197	1.965958	0.333042	0.000020
 264	2.6169e+01	2.6136	-5.634566	0.000254	2.539362	0.430180	0.000025
 265	2.6268e+01	2.6197	-5.612569	0.000221	2.211703	0.374673	0.000022
 266	2.6367e+01	2.6321	-5.592610	0.000201	2.006915	0.339981	0.000020
 267	2.6467e+01	2.6424	-5.567762	0.000250	2.498405	0.423241	0.000025
 268	2.6567e+01	2.6548	-5.544136	0.000238	2.375532	0.402426	0.000024
 269	2.6666e+01	2.6614	-5.522547	0.000217	2.170745	0.367734	0.000022
 270	2.6765e+01	2.6731	-5.504624	0.000180	1.802128	0.305289	0.000018
 271	2.6865e+01	2.6807	-5.478146	0.000266	2.662235	0.450995	0.000027
 272	2.6965e+01	2.6926	-5.457779	0.000205	2.047873	0.346919	0.000020
 273	2.7064e+01	2.7018	-5.436190	0.000217	2.170745	0.367734	0.000022
 274	2.7163e+01	2.7090	-5.410935	0.000254	2.539362	0.430180	0.000025
 275	2.7263e+01	2.7199	-5.388938	0.000221	2.211703	0.374673	0.000022
 276	2.7363e+01	2.7329	-5.366534	0.000225	2.252660	0.381611	0.000023
 277	2.7462e+01	2.7422	-5.346575	0.000201	2.006915	0.339981	0.000020
 278	2.7561e+01	2.7523	-5.325800	0.000209	2.088830	0.353857	0.000021
 279	2.7661e+01	2.7627	-5.305026	0.000209	2.088830	0.353857	0.000021
 280	2.7761e+01	2.7728	-5.286288	0.000188	1.884043	0.319166	0.000019
 281	2.7860e+01	2.7831	-5.261440	0.000250	2.498405	0.423241	0.000025
 282	2.7959e+01	2.7914	-5.241073	0.000205	2.047873	0.346919	0.000020
 283	2.8059e+01	2.8032	-5.217854	0.000233	2.334575	0.395488	0.000023
 284	2.8159e+01	2.8104	-5.197080	0.000209	2.088830	0.353857	0.000021
 285	2.8258e+01	2.8223	-5.176713	0.000205	2.047873	0.346919	0.000020
 286	2.8358e+01	2.8323	-5.153902	0.000229	2.293618	0.388549	0.000023
 287	2.8457e+01	2.8419	-5.131905	0.000221	2.211703	0.374673	0.000022
 288	2.8556e+01	2.8515	-5.112760	0.000193	1.925000	0.326104	0.000019
 289	2.8656e+01	2.8616	-5.088727	0.000242	2.416490	0.409364	0.000024
 290	2.8756e+01	2.8709	-5.068767	0.000201	2.006915	0.339981	0.000020
 291	2.8855e+01	2.8822	-5.048807	0.000201	2.006915	0.339981	0.000020
 292	2.8954e+01	2.8903	-5.027625	0.000213	2.129788	0.360796	0.000021
 293	2.9054e+01	2.9029	-5.005629	0.000221	2.211703	0.374673	0.000022
 294	2.9154e+01	2.9133	-4.984040	0.000217	2.170745	0.367734	0.000022
 295	2.9253e+01	2.9224	-4.966524	0.000176	1.761171	0.298350	0.000018
 296	2.9352e+01	2.9321	-4.947786	0.000188	1.884043	0.319166	0.000019
 297	2.9452e+01	2.9419	-4.928234	0.000197	1.965958	0.333042	0.000020
 298	2.9552e+01	2.9505	-4.903386	0.000250	2.498405	0.423241	0.000025
 299	2.9651e+01	2.9607	-4.882204	0.000213	2.129788	0.360796	0.000021
 300	2.9750e+01	2.9710	-4.861022	0.000213	2.129788	0.360796	0.000021
 301	2.9850e+01	2.9803	-4.836989	0.000242	2.416490	0.409364	0.000024
 302	2.9950e+01	2.9919	-4.816622	0.000205	2.047873	0.346919	0.000020
 303	3.0049e+01	3.0017	-4.798292	0.000184	1.843086	0.312227	0.000018
 304	3.0148e+01	3.0108	-4.774258	0.000242	2.416490	0.409364	0.000024
 305	3.0248e+01	3.0197	-4.754706	0.000197	1.965958	0.333042	0.000020
 306	3.0348e+01	3.0299	-4.735153	0.000197	1.965958	0.333042	0.000020
 307	3.0447e+01	3.0406	-4.716008	0.000193	1.925000	0.326104	0.000019
 308	3.0547e+01	3.0498	-4.691160	0.000250	2.498405	0.423241	0.000025
 309	3.0646e+01	3.0599	-4.678126	0.000131	1.310639	0.222028	0.000013
 310	3.0745e+01	3.0707	-4.656944	0.000213	2.129788	0.360796	0.000021
 311	3.0845e+01	3.0801	-4.635762	0.000213	2.129788	0.360796	0.000021
 312	3.0945e+01	3.0907	-4.616209	0.000197	1.965958	0.333042	0.000020
 313	3.1044e+01	3.1018	-4.594213	0.000221	2.211703	0.374673	0.000022
 314	3.1143e+01	3.1112	-4.578327	0.000160	1.597341	0.270597	0.000016
 315	3.1243e+01	3.1216	-4.558774	0.000197	1.965958	0.333042	0.000020
 316	3.1343e+01	3.1308	-4.538814	0.000201	2.006915	0.339981	0.000020
 317	3.1442e+01	3.1403	-4.519262	0.000197	1.965958	0.333042	0.000020
 318	3.1541e+01	3.1477	-4.496858	0.000225	2.252660	0.381611	0.000023
 319	3.1641e+01	3.1590	-4.479750	0.000172	1.720213	0.291412	0.000017
 320	3.1741e+01	3.1691	-4.463049	0.000168	1.679256	0.284474	0.000017
 321	3.1840e+01	3.1816	-4.439015	0.000242	2.416490	0.409364	0.000024
 322	3.1939e+01	3.1898	-4.425166	0.000139	1.392554	0.235905	0.000014
 323	3.2039e+01	3.1993	-4.409279	0.000160	1.597341	0.270597	0.000016
 324	3.2139e+01	3.2094	-4.391764	0.000176	1.761171	0.298350	0.000018
 325	3.2238e+01	3.2186	-4.369767	0.000221	2.211703	0.374673	0.000022
 326	3.2337e+01	3.2279	-4.355103	0.000147	1.474468	0.249782	0.000015
 327	3.2437e+01	3.2414	-4.332699	0.000225	2.252660	0.381611	0.000023
 328	3.2536e+01	3.2494	-4.313961	0.000188	1.884043	0.319166	0.000019
 329	3.2636e+01	3.2591	-4.292372	0.000217	2.170745	0.367734	0.000022
 330	3.2736e+01	3.2670	-4.273227	0.000193	1.925000	0.326104	0.000019
 331	3.2835e+01	3.2803	-4.251231	0.000221	2.211703	0.374673	0.000022
 332	3.2934e+01	3.2868	-4.237788	0.000135	1.351596	0.228967	0.000014
 333	3.3034e+01	3.3028	-4.217421	0.000205	2.047873	0.346919	0.000020
 334	3.3133e+01	3.3068	-4.194610	0.000229	2.293618	0.388549	0.000023
 335	3.3233e+01	3.3202	-4.176687	0.000180	1.802128	0.305289	0.000018
 336	3.3333e+01	3.3318	-4.157134	0.000197	1.965958	0.333042	0.000020
 337	3.3432e+01	3.3375	-4.135138	0.000221	2.211703	0.374673	0.000022
 338	3.3532e+01	3.3492	-4.118437	0.000168	1.679256	0.284474	0.000017
 339	3.3631e+01	3.3591	-4.098477	0.000201	2.006915	0.339981	0.000020
 340	3.3730e+01	3.3678	-4.079739	0.000188	1.884043	0.319166	0.000019
 341	3.3830e+01	3.3772	-4.056113	0.000238	2.375532	0.402426	0.000024
 342	3.3929e+01	3.3875	-4.036968	0.000193	1.925000	0.326104	0.000019
 343	3.4029e+01	3.3987	-4.010898	0.000262	2.621277	0.444056	0.000026
 344	3.4129e+01	3.4087	-3.991346	0.000197	1.965958	0.333042	0.000020
 345	3.4228e+01	3.4189	-3.970164	0.000213	2.129788	0.360796	0.000021
 346	3.4328e+01	3.4291	-3.950204	0.000201	2.006915	0.339981	0.000020
 347	3.4427e+01	3.4375	-3.929023	0.000213	2.129788	0.360796	0.000021
 348	3.4526e+01	3.4492	-3.907026	0.000221	2.211703	0.374673	0.000022
 349	3.4626e+01	3.4579	-3.882586	0.000246	2.457447	0.416303	0.000025
 350	3.4725e+01	3.4684	-3.861404	0.000213	2.129788	0.360796	0.000021
 351	3.4825e+01	3.4792	-3.841037	0.000205	2.047873	0.346919	0.000020
 352	3.4925e+01	3.4898	-3.821891	0.000193	1.925000	0.326104	0.000019
 353	3.5024e+01	3.4988	-3.795007	0.000270	2.703192	0.457933	0.000027
 354	3.5123e+01	3.5083	-3.773418	0.000217	2.170745	0.367734	0.000022
 355	3.5223e+01	3.5175	-3.752643	0.000209	2.088830	0.353857	0.000021
 356	3.5322e+01	3.5289	-3.734720	0.000180	1.802128	0.305289	0.000018
 357	3.5422e+01	3.5380	-3.708243	0.000266	2.662235	0.450995	0.000027
 358	3.5522e+01	3.5494	-3.687876	0.000205	2.047873	0.346919	0.000020
 359	3.5621e+01	3.5597	-3.662621	0.000254	2.539362	0.430180	0.000025
 360	3.5721e+01	3.5681	-3.641846	0.000209	2.088830	0.353857	0.000021
 361	3.5820e+01	3.5799	-3.621479	0.000205	2.047873	0.346919	0.000020
 362	3.5919e+01	3.5896	-3.598260	0.000233	2.334575	0.395488	0.000023
 363	3.6019e+01	3.5978	-3.574227	0.000242	2.416490	0.409364	0.000024
 364	3.6118e+01	3.6089	-3.548157	0.000262	2.621277	0.444056	0.000026
 365	3.6218e+01	3.6160	-3.526161	0.000221	2.211703	0.374673	0.000022
 366	3.6318e+01	3.6260	-3.501720	0.000246	2.457447	0.416303	0.000025
 367	3.6417e+01	3.6404	-3.480131	0.000217	2.170745	0.367734	0.000022
 368	3.6517e+01	3.6456	-3.460579	0.000197	1.965958	0.333042	0.000020
 369	3.6616e+01	3.6565	-3.435323	0.000254	2.539362	0.430180	0.000025
 370	3.6715e+01	3.6700	-3.416586	0.000188	1.884043	0.319166	0.000019
 371	3.6815e+01	3.6768	-3.393367	0.000233	2.334575	0.395488	0.000023
 372	3.6914e+01	3.6855	-3.366075	0.000274	2.744150	0.464872	0.000027
 373	3.7014e+01	3.6956	-3.345708	0.000205	2.047873	0.346919	0.000020
 374	3.7114e+01	3.7069	-3.320453	0.000254	2.539362	0.430180	0.000025
 375	3.7213e+01	3.7164	-3.301715	0.000188	1.884043	0.319166	0.000019
 376	3.7313e+01	3.7258	-3.278089	0.000238	2.375532	0.402426	0.000024
 377	3.7412e+01	3.7379	-3.256093	0.000221	2.211703	0.374673	0.000022
 378	3.7511e+01	3.7481	-3.227171	0.000291	2.907979	0.492625	0.000029
 379	3.7611e+01	3.7570	-3.204768	0.000225	2.252660	0.381611	0.000023
 380	3.7711e+01	3.7684	-3.182364	0.000225	2.252660	0.381611	0.000023
 381	3.7810e+01	3.7766	-3.160367	0.000221	2.211703	0.374673	0.000022
 382	3.7910e+01	3.7852	-3.137963	0.000225	2.252660	0.381611	0.000023
 383	3.8009e+01	3.7979	-3.116782	0.000213	2.129788	0.360796	0.000021
 384	3.8108e+01	3.8049	-3.093970	0.000229	2.293618	0.388549	0.000023
 385	3.8208e+01	3.8161	-3.070344	0.000238	2.375532	0.402426	0.000024
 386	3.8307e+01	3.8293	-3.049570	0.000209	2.088830	0.353857	0.000021
 387	3.8407e+01	3.8393	-3.025129	0.000246	2.457447	0.416303	0.000025
 388	3.8507e+01	3.8471	-3.005577	0.000197	1.965958	0.333042	0.000020
 389	3.8606e+01	3.8578	-2.982358	0.000233	2.334575	0.395488	0.000023
 390	3.8706e+01	3.8665	-2.956696	0.000258	2.580320	0.437118	0.000026
 391	3.8805e+01	3.8757	-2.932255	0.000246	2.457447	0.416303	0.000025
 392	3.8904e+01	3.8873	-2.910259	0.000221	2.211703	0.374673	0.000022
 393	3.9004e+01	3.8960	-2.884596	0.000258	2.580320	0.437118	0.000026
 394	3.9103e+01	3.9045	-2.861378	0.000233	2.334575	0.395488	0.000023
 395	3.9203e+01	3.9187	-2.835715	0.000258	2.580320	0.437118	0.000026
 396	3.9303e+01	3.9236	-2.809238	0.000266	2.662235	0.450995	0.000027
 397	3.9402e+01	3.9346	-2.786427	0.000229	2.293618	0.388549	0.000023
 398	3.9502e+01	3.9460	-2.764023	0.000225	2.252660	0.381611	0.000023
 399	3.9601e+01	3.9552	-2.736324	0.000279	2.785107	0.471810	0.000028
 400	3.9700e+01	3.9669	-2.715956	0.000205	2.047873	0.346919	0.000020
 401	3.9800e+01	3.9757	-2.694775	0.000213	2.129788	0.360796	0.000021
 402	3.9900e+01	3.9855	-2.664631	0.000303	3.030852	0.513440	0.000030
 403	3.9999e+01	3.9934	-2.644672	0.000201	2.006915	0.339981	0.000020
 404	4.0099e+01	4.0032	-2.619009	0.000258	2.580320	0.437118	0.000026
 405	4.0198e+01	4.0139	-2.595383	0.000238	2.375532	0.402426	0.000024
 406	4.0297e+01	4.0260	-2.565647	0.000299	2.989894	0.506502	0.000030
 407	4.0397e+01	4.0387	-2.541207	0.000246	2.457447	0.416303	0.000025
 408	4.0496e+01	4.0450	-2.515137	0.000262	2.621277	0.444056	0.000026
 409	4.0596e+01	4.0546	-2.487845	0.000274	2.744150	0.464872	0.000027
 410	4.0696e+01	4.0631	-2.463404	0.000246	2.457447	0.416303	0.000025
 411	4.0795e+01	4.0736	-2.439778	0.000238	2.375532	0.402426	0.000024
 412	4.0895e+01	4.0869	-2.415338	0.000246	2.457447	0.416303	0.000025
 413	4.0994e+01	4.0938	-2.388453	0.000270	2.703192	0.457933	0.000027
 414	4.1093e+01	4.1040	-2.366049	0.000225	2.252660	0.381611	0.000023
 415	4.1193e+01	4.1152	-2.342831	0.000233	2.334575	0.395488	0.000023
 416	4.1292e+01	4.1232	-2.319612	0.000233	2.334575	0.395488	0.000023
 417	4.1392e+01	4.1351	-2.296394	0.000233	2.334575	0.395488	0.000023
 418	4.1492e+01	4.1468	-2.269916	0.000266	2.662235	0.450995	0.000027
 419	4.1591e+01	4.1547	-2.249957	0.000201	2.006915	0.339981	0.000020
 420	4.1691e+01	4.1663	-2.225109	0.000250	2.498405	0.423241	0.000025
 421	4.1790e+01	4.1729	-2.198224	0.000270	2.703192	0.457933	0.000027
 422	4.1889e+01	4.1841	-2.175413	0.000229	2.293618	0.388549	0.000023
 423	4.1989e+01	4.1933	-2.157490	0.000180	1.802128	0.305289	0.000018
 424	4.2089e+01	4.2051	-2.129383	0.000283	2.826064	0.478748	0.000028
 425	4.2188e+01	4.2132	-2.109423	0.000201	2.006915	0.339981	0.000020
 426	4.2288e+01	4.2242	-2.084983	0.000246	2.457447	0.416303	0.000025
 427	4.2387e+01	4.2356	-2.065023	0.000201	2.006915	0.339981	0.000020
 428	4.2486e+01	4.2450	-2.039768	0.000254	2.539362	0.430180	0.000025
 429	4.2586e+01	4.2580	-2.017771	0.000221	2.211703	0.374673	0.000022
 430	4.2685e+01	4.2651	-2.002700	0.000152	1.515426	0.256720	0.000015
 431	4.2785e+01	4.2723	-1.971334	0.000315	3.153724	0.534255	0.000032
 432	4.2885e+01	4.2834	-1.954633	0.000168	1.679256	0.284474	0.000017
 433	4.2984e+01	4.2942	-1.934266	0.000205	2.047873	0.346919	0.000020
 434	4.3084e+01	4.3043	-1.911048	0.000233	2.334575	0.395488	0.000023
 435	4.3183e+01	4.3144	-1.888236	0.000229	2.293618	0.388549	0.000023
 436	4.3282e+01	4.3247	-1.867869	0.000205	2.047873	0.346919	0.000020
 437	4.3382e+01	4.3353	-1.848724	0.000193	1.925000	0.326104	0.000019
 438	4.3481e+01	4.3465	-1.829172	0.000197	1.965958	0.333042	0.000020
 439	4.3581e+01	4.3572	-1.805953	0.000233	2.334575	0.395488	0.000023
 440	4.3681e+01	4.3661	-1.783142	0.000229	2.293618	0.388549	0.000023
 441	4.3780e+01	4.3728	-1.763997	0.000193	1.925000	0.326104	0.000019
 442	4.3880e+01	4.3816	-1.743630	0.000205	2.047873	0.346919	0.000020
 443	4.3979e+01	4.3952	-1.719597	0.000242	2.416490	0.409364	0.000024
 444	4.4078e+01	4.4022	-1.701266	0.000184	1.843086	0.312227	0.000018
 445	4.4178e+01	4.4123	-1.679270	0.000221	2.211703	0.374673	0.000022
 446	4.4278e+01	4.4251	-1.658903	0.000205	2.047873	0.346919	0.000020
 447	4.4377e+01	4.4338	-1.638943	0.000201	2.006915	0.339981	0.000020
 448	4.4477e+01	4.4438	-1.616946	0.000221	2.211703	0.374673	0.000022
 449	4.4576e+01	4.4560	-1.599023	0.000180	1.802128	0.305289	0.000018
 450	4.4675e+01	4.4637	-1.579878	0.000193	1.925000	0.326104	0.000019
 451	4.4775e+01	4.4754	-1.558696	0.000213	2.129788	0.360796	0.000021
 452	4.4874e+01	4.4833	-1.538736	0.000201	2.006915	0.339981	0.000020
 453	4.4974e+01	4.4933	-1.515111	0.000238	2.375532	0.402426	0.000024
 454	4.5074e+01	4.5037	-1.494336	0.000209	2.088830	0.353857	0.000021
 455	4.5173e+01	4.5129	-1.476413	0.000180	1.802128	0.305289	0.000018
 456	4.5273e+01	4.5231	-1.452380	0.000242	2.416490	0.409364	0.000024
 457	4.5372e+01	4.5336	-1.434049	0.000184	1.843086	0.312227	0.000018
 458	4.5471e+01	4.5437	-1.410831	0.000233	2.334575	0.395488	0.000023
 459	4.5571e+01	4.5535	-1.390464	0.000205	2.047873	0.346919	0.000020
 460	4.5670e+01	4.5628	-1.373763	0.000168	1.679256	0.284474	0.000017
 461	4.5770e+01	4.5741	-1.351766	0.000221	2.211703	0.374673	0.000022
 462	4.5870e+01	4.5834	-1.331399	0.000205	2.047873	0.346919	0.000020
 463	4.5969e+01	4.5934	-1.313476	0.000180	1.802128	0.305289	0.000018
 464	4.6069e+01	4.6035	-1.294738	0.000188	1.884043	0.319166	0.000019
 465	4.6168e+01	4.6149	-1.275593	0.000193	1.925000	0.326104	0.000019
 466	4.6267e+01	4.6224	-1.251560	0.000242	2.416490	0.409364	0.000024
 467	4.6367e+01	4.6319	-1.234044	0.000176	1.761171	0.298350	0.000018
 468	4.6467e+01	4.6408	-1.212862	0.000213	2.129788	0.360796	0.000021
 469	4.6566e+01	4.6531	-1.192903	0.000201	2.006915	0.339981	0.000020
 470	4.6666e+01	4.6644	-1.174572	0.000184	1.843086	0.312227	0.000018
 471	4.6765e+01	4.6721	-1.152576	0.000221	2.211703	0.374673	0.000022
 472	4.6864e+01	4.6824	-1.130579	0.000221	2.211703	0.374673	0.000022
 473	4.6964e+01	4.6935	-1.112656	0.000180	1.802128	0.305289	0.000018
 474	4.7063e+01	4.7022	-1.096770	0.000160	1.597341	0.270597	0.000016
 475	4.7163e+01	4.7119	-1.073144	0.000238	2.375532	0.402426	0.000024
 476	4.7263e+01	4.7221	-1.055221	0.000180	1.802128	0.305289	0.000018
 477	4.7362e+01	4.7305	-1.038520	0.000168	1.679256	0.284474	0.000017
 478	4.7462e+01	4.7414	-1.018560	0.000201	2.006915	0.339981	0.000020
 479	4.7561e+01	4.7498	-0.999008	0.000197	1.965958	0.333042	0.000020
 480	4.7660e+01	4.7605	-0.978640	0.000205	2.047873	0.346919	0.000020
 481	4.7760e+01	4.7728	-0.963976	0.000147	1.474468	0.249782	0.000015
 482	4.7859e+01	4.7799	-0.944016	0.000201	2.006915	0.339981	0.000020
 483	4.7959e+01	4.7926	-0.924057	0.000201	2.006915	0.339981	0.000020
 484	4.8059e+01	4.8004	-0.906541	0.000176	1.761171	0.298350	0.000018
 485	4.8158e+01	4.8104	-0.886581	0.000201	2.006915	0.339981	0.000020
 486	4.8258e+01	4.8212	-0.869473	0.000172	1.720213	0.291412	0.000017
 487	4.8357e+01	4.8317	-0.848698	0.000209	2.088830	0.353857	0.000021
 488	4.8456e+01	4.8425	-0.834441	0.000143	1.433511	0.242843	0.000014
 489	4.8556e+01	4.8537	-0.813259	0.000213	2.129788	0.360796	0.000021
 490	4.8656e+01	4.8630	-0.797780	0.000156	1.556383	0.263658	0.000016
 491	4.8755e+01	4.8724	-0.780672	0.000172	1.720213	0.291412	0.000017
 492	4.8855e+01	4.8837	-0.763564	0.000172	1.720213	0.291412	0.000017
 493	4.8954e+01	4.8912	-0.744011	0.000197	1.965958	0.333042	0.000020
 494	4.9053e+01	4.9023	-0.728532	0.000156	1.556383	0.263658	0.000016
 495	4.9153e+01	4.9117	-0.709387	0.000193	1.925000	0.326104	0.000019
 496	4.9252e+01	4.9224	-0.689835	0.000197	1.965958	0.333042	0.000020
 497	4.9352e+01	4.9316	-0.675578	0.000143	1.433511	0.242843	0.000014
 498	4.9452e+01	4.9424	-0.654803	0.000209	2.088830	0.353857	0.000021
 499	4.9551e+01	4.9514	-0.633621	0.000213	2.129788	0.360796	0.000021
 500	4.9651e+01	4.9624	-0.614884	0.000188	1.884043	0.319166	0.000019
 501	4.9750e+01	4.9709	-0.597368	0.000176	1.761171	0.298350	0.000018
 502	4.9849e+01	4.9804	-0.582704	0.000147	1.474468	0.249782	0.000015
 503	4.9949e+01	4.9941	-0.559485	0.000233	2.334575	0.395488	0.000023
 504	5.0048e+01	5.0019	-0.541562	0.000180	1.802128	0.305289	0.000018
 505	5.0148e+01	5.0114	-0.523232	0.000184	1.843086	0.312227	0.000018
 506	5.0248e+01	5.0198	-0.507752	0.000156	1.556383	0.263658	0.000016
 507	5.0347e+01	5.0286	-0.483719	0.000242	2.416490	0.409364	0.000024
 508	5.0447e+01	5.0400	-0.465389	0.000184	1.843086	0.312227	0.000018
 509	5.0546e+01	5.0506	-0.444207	0.000213	2.129788	0.360796	0.000021
 510	5.0645e+01	5.0587	-0.425877	0.000184	1.843086	0.312227	0.000018
 511	5.0745e+01	5.0694	-0.405510	0.000205	2.047873	0.346919	0.000020
 512	5.0844e+01	5.0793	-0.385550	0.000201	2.006915	0.339981	0.000020
 513	5.0944e+01	5.0896	-0.361924	0.000238	2.375532	0.402426	0.000024
 514	5.1044e+01	5.1012	-0.343186	0.000188	1.884043	0.319166	0.000019
 515	5.1143e+01	5.1105	-0.324448	0.000188	1.884043	0.319166	0.000019
 516	5.1242e+01	5.1223	-0.300415	0.000242	2.416490	0.409364	0.000024
 517	5.1342e+01	5.1292	-0.278826	0.000217	2.170745	0.367734	0.000022
 518	5.1441e+01	5.1392	-0.257644	0.000213	2.129788	0.360796	0.000021
 519	5.1541e+01	5.1495	-0.237277	0.000205	2.047873	0.346919	0.000020
 520	5.1641e+01	5.1595	-0.215281	0.000221	2.211703	0.374673	0.000022
 521	5.1740e+01	5.1662	-0.196950	0.000184	1.843086	0.312227	0.000018
 522	5.1840e+01	5.1797	-0.172917	0.000242	2.416490	0.409364	0.000024
 523	5.1939e+01	5.1920	-0.152142	0.000209	2.088830	0.353857	0.000021
 524	5.2038e+01	5.1972	-0.130553	0.000217	2.170745	0.367734	0.000022
 525	5.2138e+01	5.2097	-0.108964	0.000217	2.170745	0.367734	0.000022
 526	5.2237e+01	5.2195	-0.086560	0.000225	2.252660	0.381611	0.000023
 527	5.2337e+01	5.2294	-0.065378	0.000213	2.129788	0.360796	0.000021
 528	5.2437e+01	5.2377	-0.044197	0.000213	2.129788	0.360796	0.000021
 529	5.2536e+01	5.2503	-0.021793	0.000225	2.252660	0.381611	0.000023
 530	5.2636e+01	5.2575	0.000204	0.000221	2.211703	0.374673	0.000022
 531	5.2735e+01	5.2683	0.024237	0.000242	2.416490	0.409364	0.000024
 532	5.2834e+01	5.2804	0.044604	0.000205	2.047873	0.346919	0.000020
 533	5.2934e+01	5.2907	0.067008	0.000225	2.252660	0.381611	0.000023
 534	5.3033e+01	5.3017	0.090226	0.000233	2.334575	0.395488	0.000023
 535	5.3133e+01	5.3101	0.110186	0.000201	2.006915	0.339981	0.000020
 536	5.3233e+01	5.3179	0.129331	0.000193	1.925000	0.326104	0.000019
 537	5.3332e+01	5.3292	0.154994	0.000258	2.580320	0.437118	0.000026
 538	5.3431e+01	5.3402	0.176583	0.000217	2.170745	0.367734	0.000022
 539	5.3531e+01	5.3500	0.200209	0.000238	2.375532	0.402426	0.000024
 540	5.3630e+01	5.3596	0.216910	0.000168	1.679256	0.284474	0.000017
 541	5.3730e+01	5.3681	0.240536	0.000238	2.375532	0.402426	0.000024
 542	5.3830e+01	5.3785	0.262125	0.000217	2.170745	0.367734	0.000022
 543	5.3929e+01	5.3890	0.284529	0.000225	2.252660	0.381611	0.000023
 544	5.4029e+01	5.3986	0.307747	0.000233	2.334575	0.395488	0.000023
 545	5.4128e+01	5.4079	0.330966	0.000233	2.334575	0.395488	0.000023
 546	5.4227e+01	5.4189	0.354999	0.000242	2.416490	0.409364	0.000024
 547	5.4327e+01	5.4304	0.376588	0.000217	2.170745	0.367734	0.000022
 548	5.4426e+01	5.4379	0.398992	0.000225	2.252660	0.381611	0.000023
 549	5.4526e+01	5.4494	0.420989	0.000221	2.211703	0.374673	0.000022
 550	5.4626e+01	5.4597	0.445022	0.000242	2.416490	0.409364	0.000024
 551	5.4725e+01	5.4693	0.465796	0.000209	2.088830	0.353857	0.000021
 552	5.4825e+01	5.4775	0.485756	0.000201	2.006915	0.339981	0.000020
 553	5.4924e+01	5.4893	0.504494	0.000188	1.884043	0.319166	0.000019
 554	5.5023e+01	5.4981	0.527712	0.000233	2.334575	0.395488	0.000023
 555	5.5123e+01	5.5093	0.554190	0.000266	2.662235	0.450995	0.000027
 556	5.5222e+01	5.5170	0.572927	0.000188	1.884043	0.319166	0.000019
 557	5.5322e+01	5.5299	0.597775	0.000250	2.498405	0.423241	0.000025
 558	5.5422e+01	5.5396	0.615698	0.000180	1.802128	0.305289	0.000018
 559	5.5521e+01	5.5474	0.640954	0.000254	2.539362	0.430180	0.000025
 560	5.5620e+01	5.5582	0.663357	0.000225	2.252660	0.381611	0.000023
 561	5.5720e+01	5.5685	0.686983	0.000238	2.375532	0.402426	0.000024
 562	5.5819e+01	5.5798	0.715090	0.000283	2.826064	0.478748	0.000028
 563	5.5919e+01	5.5886	0.737086	0.000221	2.211703	0.374673	0.000022
 564	5.6019e+01	5.5956	0.758676	0.000217	2.170745	0.367734	0.000022
 565	5.6118e+01	5.6061	0.784338	0.000258	2.580320	0.437118	0.000026
 566	5.6218e+01	5.6179	0.805113	0.000209	2.088830	0.353857	0.000021
 567	5.6317e+01	5.6269	0.829960	0.000250	2.498405	0.423241	0.000025
 568	5.6416e+01	5.6397	0.853994	0.000242	2.416490	0.409364	0.000024
 569	5.6516e+01	5.6496	0.878027	0.000242	2.416490	0.409364	0.000024
 570	5.6615e+01	5.6574	0.899616	0.000217	2.170745	0.367734	0.000022
 571	5.6715e+01	5.6683	0.924464	0.000250	2.498405	0.423241	0.000025
 572	5.6815e+01	5.6757	0.950534	0.000262	2.621277	0.444056	0.000026
 573	5.6914e+01	5.6887	0.973345	0.000229	2.293618	0.388549	0.000023
 574	5.7014e+01	5.6974	1.001044	0.000279	2.785107	0.471810	0.000028
 575	5.7113e+01	5.7073	1.025078	0.000242	2.416490	0.409364	0.000024
 576	5.7212e+01	5.7168	1.048703	0.000238	2.375532	0.402426	0.000024
 577	5.7312e+01	5.7262	1.076810	0.000283	2.826064	0.478748	0.000028
 578	5.7411e+01	5.7409	1.097585	0.000209	2.088830	0.353857	0.000021
 579	5.7511e+01	5.7464	1.119174	0.000217	2.170745	0.367734	0.000022
 580	5.7611e+01	5.7561	1.147688	0.000287	2.867022	0.485687	0.000029
 581	5.7710e+01	5.7685	1.171314	0.000238	2.375532	0.402426	0.000024
 582	5.7809e+01	5.7775	1.192903	0.000217	2.170745	0.367734	0.000022
 583	5.7909e+01	5.7879	1.217751	0.000250	2.498405	0.423241	0.000025
 584	5.8008e+01	5.7949	1.239747	0.000221	2.211703	0.374673	0.000022
 585	5.8108e+01	5.8091	1.263780	0.000242	2.416490	0.409364	0.000024
 586	5.8208e+01	5.8173	1.287406	0.000238	2.375532	0.402426	0.000024
 587	5.8307e+01	5.8266	1.307773	0.000205	2.047873	0.346919	0.000020
 588	5.8407e+01	5.8326	1.328548	0.000209	2.088830	0.353857	0.000021
 589	5.8506e+01	5.8472	1.354210	0.000258	2.580320	0.437118	0.000026
 590	5.8605e+01	5.8538	1.379466	0.000254	2.539362	0.430180	0.000025
 591	5.8705e+01	5.8674	1.399833	0.000205	2.047873	0.346919	0.000020
 592	5.8804e+01	5.8785	1.421014	0.000213	2.129788	0.360796	0.000021
 593	5.8904e+01	5.8863	1.445862	0.000250	2.498405	0.423241	0.000025
 594	5.9004e+01	5.8959	1.464193	0.000184	1.843086	0.312227	0.000018
 595	5.9103e+01	5.9078	1.484560	0.000205	2.047873	0.346919	0.000020
 596	5.9203e+01	5.9164	1.506556	0.000221	2.211703	0.374673	0.000022
 597	5.9302e+01	5.9267	1.528960	0.000225	2.252660	0.381611	0.000023
 598	5.9401e+01	5.9335	1.551364	0.000225	2.252660	0.381611	0.000023
 599	5.9501e+01	5.9454	1.571324	0.000201	2.006915	0.339981	0.000020
 600	5.9600e+01	5.9557	1.590469	0.000193	1.925000	0.326104	0.000019
 601	5.9700e+01	5.9652	1.613280	0.000229	2.293618	0.388549	0.000023
 602	5.9800e+01	5.9779	1.633240	0.000201	2.006915	0.339981	0.000020
 603	5.9899e+01	5.9847	1.654422	0.000213	2.129788	0.360796	0.000021
 604	5.9998e+01	5.9966	1.673160	0.000188	1.884043	0.319166	0.000019
 605	6.0098e+01	6.0077	1.696785	0.000238	2.375532	0.402426	0.000024
 606	6.0197e+01	6.0152	1.720819	0.000242	2.416490	0.409364	0.000024
 607	6.0297e+01	6.0247	1.736705	0.000160	1.597341	0.270597	0.000016
 608	6.0397e+01	6.0372	1.755850	0.000193	1.925000	0.326104	0.000019
 609	6.0496e+01	6.0450	1.779069	0.000233	2.334575	0.395488	0.000023
 610	6.0596e+01	6.0538	1.800658	0.000217	2.170745	0.367734	0.000022
 611	6.0695e+01	6.0641	1.820210	0.000197	1.965958	0.333042	0.000020
 612	6.0794e+01	6.0778	1.841392	0.000213	2.129788	0.360796	0.000021
 613	6.0894e+01	6.0867	1.862574	0.000213	2.129788	0.360796	0.000021
 614	6.0993e+01	6.0934	1.882534	0.000201	2.006915	0.339981	0.000020
 615	6.1093e+01	6.1049	1.896791	0.000143	1.433511	0.242843	0.000014
 616	6.1193e+01	6.1160	1.922861	0.000262	2.621277	0.444056	0.000026
 617	6.1292e+01	6.1221	1.939562	0.000168	1.679256	0.284474	0.000017
 618	6.1392e+01	6.1343	1.958707	0.000193	1.925000	0.326104	0.000019
 619	6.1491e+01	6.1436	1.977444	0.000188	1.884043	0.319166	0.000019
 620	6.1590e+01	6.1517	1.998626	0.000213	2.129788	0.360796	0.000021
 621	6.1690e+01	6.1631	2.021845	0.000233	2.334575	0.395488	0.000023
 622	6.1789e+01	6.1753	2.040990	0.000193	1.925000	0.326104	0.000019
 623	6.1889e+01	6.1877	2.061357	0.000205	2.047873	0.346919	0.000020
 624	6.1989e+01	6.1990	2.079280	0.000180	1.802128	0.305289	0.000018
 625	6.2088e+01	6.2046	2.095981	0.000168	1.679256	0.284474	0.000017
 626	6.2188e+01	6.2138	2.117570	0.000217	2.170745	0.367734	0.000022
 627	6.2287e+01	6.2273	2.138752	0.000213	2.129788	0.360796	0.000021
 628	6.2386e+01	6.2341	2.158712	0.000201	2.006915	0.339981	0.000020
 629	6.2486e+01	6.2444	2.179894	0.000213	2.129788	0.360796	0.000021
 630	6.2586e+01	6.2543	2.193336	0.000135	1.351596	0.228967	0.000014
 631	6.2685e+01	6.2661	2.216962	0.000238	2.375532	0.402426	0.000024
 632	6.2785e+01	6.2717	2.236514	0.000197	1.965958	0.333042	0.000020
 633	6.2884e+01	6.2837	2.256067	0.000197	1.965958	0.333042	0.000020
 634	6.2983e+01	6.2960	2.276434	0.000205	2.047873	0.346919	0.000020
 635	6.3083e+01	6.3055	2.293950	0.000176	1.761171	0.298350	0.000018
 636	6.3182e+01	6.3151	2.312687	0.000188	1.884043	0.319166	0.000019
 637	6.3282e+01	6.3239	2.335091	0.000225	2.252660	0.381611	0.000023
 638	6.3382e+01	6.3348	2.354644	0.000197	1.965958	0.333042	0.000020
 639	6.3481e+01	6.3456	2.375011	0.000205	2.047873	0.346919	0.000020
 640	6.3581e+01	6.3543	2.392526	0.000176	1.761171	0.298350	0.000018
 641	6.3680e+01	6.3650	2.409635	0.000172	1.720213	0.291412	0.000017
 642	6.3779e+01	6.3715	2.428373	0.000188	1.884043	0.319166	0.000019
 643	6.3879e+01	6.3851	2.446703	0.000184	1.843086	0.312227	0.000018
 644	6.3978e+01	6.3946	2.470329	0.000238	2.375532	0.402426	0.000024
 645	6.4078e+01	6.4050	2.486623	0.000164	1.638298	0.277535	0.000016
 646	6.4177e+01	6.4138	2.502509	0.000160	1.597341	0.270597	0.000016
 647	6.4277e+01	6.4244	2.522876	0.000205	2.047873	0.346919	0.000020
 648	6.4376e+01	6.4354	2.537540	0.000147	1.474468	0.249782	0.000015
 649	6.4476e+01	6.4434	2.559130	0.000217	2.170745	0.367734	0.000022
 650	6.4576e+01	6.4520	2.578275	0.000193	1.925000	0.326104	0.000019
 651	6.4675e+01	6.4645	2.592939	0.000147	1.474468	0.249782	0.000015
 652	6.4775e+01	6.4741	2.617380	0.000246	2.457447	0.416303	0.000025
 653	6.4874e+01	6.4833	2.635710	0.000184	1.843086	0.312227	0.000018
 654	6.4974e+01	6.4901	2.650374	0.000147	1.474468	0.249782	0.000015
 655	6.5073e+01	6.5028	2.670741	0.000205	2.047873	0.346919	0.000020
 656	6.5172e+01	6.5130	2.688665	0.000180	1.802128	0.305289	0.000018
 657	6.5272e+01	6.5246	2.706180	0.000176	1.761171	0.298350	0.000018
 658	6.5371e+01	6.5336	2.721659	0.000156	1.556383	0.263658	0.000016
 659	6.5471e+01	6.5452	2.735916	0.000143	1.433511	0.242843	0.000014
 660	6.5570e+01	6.5508	2.751395	0.000156	1.556383	0.263658	0.000016
 661	6.5670e+01	6.5638	2.772170	0.000209	2.088830	0.353857	0.000021
 662	6.5769e+01	6.5763	2.787649	0.000156	1.556383	0.263658	0.000016
 663	6.5869e+01	6.5798	2.805572	0.000180	1.802128	0.305289	0.000018
 664	6.5969e+01	6.5909	2.827976	0.000225	2.252660	0.381611	0.000023
 665	6.6068e+01	6.6024	2.843862	0.000160	1.597341	0.270597	0.000016
 666	6.6168e+01	6.6119	2.863007	0.000193	1.925000	0.326104	0.000019
 667	6.6267e+01	6.6219	2.881338	0.000184	1.843086	0.312227	0.000018
 668	6.6367e+01	6.6331	2.901705	0.000205	2.047873	0.346919	0.000020
 669	6.6466e+01	6.6419	2.919220	0.000176	1.761171	0.298350	0.000018
 670	6.6566e+01	6.6540	2.935107	0.000160	1.597341	0.270597	0.000016
 671	6.6665e+01	6.6628	2.955881	0.000209	2.088830	0.353857	0.000021
 672	6.6764e+01	6.6726	2.974212	0.000184	1.843086	0.312227	0.000018
 673	6.6864e+01	6.6814	2.994171	0.000201	2.006915	0.339981	0.000020
 674	6.6963e+01	6.6930	3.011280	0.000172	1.720213	0.291412	0.000017
 675	6.7063e+01	6.7021	3.035313	0.000242	2.416490	0.409364	0.000024
 676	6.7162e+01	6.7121	3.047941	0.000127	1.269681	0.215090	0.000013
 677	6.7262e+01	6.7232	3.067493	0.000197	1.965958	0.333042	0.000020
 678	6.7362e+01	6.7345	3.092748	0.000254	2.539362	0.430180	0.000025
 679	6.7461e+01	6.7415	3.112301	0.000197	1.965958	0.333042	0.000020
 680	6.7561e+01	6.7500	3.131039	0.000188	1.884043	0.319166	0.000019
 681	6.7660e+01	6.7593	3.150998	0.000201	2.006915	0.339981	0.000020
 682	6.7760e+01	6.7706	3.174624	0.000238	2.375532	0.402426	0.000024
 683	6.7859e+01	6.7796	3.194584	0.000201	2.006915	0.339981	0.000020
 684	6.7959e+01	6.7901	3.215766	0.000213	2.129788	0.360796	0.000021
 685	6.8058e+01	6.8011	3.235318	0.000197	1.965958	0.333042	0.000020
 686	6.8157e+01	6.8124	3.258944	0.000238	2.375532	0.402426	0.000024
 687	6.8257e+01	6.8204	3.280533	0.000217	2.170745	0.367734	0.000022
 688	6.8356e+01	6.8311	3.303344	0.000229	2.293618	0.388549	0.000023
 689	6.8456e+01	6.8398	3.322897	0.000197	1.965958	0.333042	0.000020
 690	6.8555e+01	6.8513	3.340005	0.000172	1.720213	0.291412	0.000017
 691	6.8655e+01	6.8628	3.365668	0.000258	2.580320	0.437118	0.000026
 692	6.8754e+01	6.8702	3.386035	0.000205	2.047873	0.346919	0.000020
 693	6.8854e+01	6.8816	3.410068	0.000242	2.416490	0.409364	0.000024
 694	6.8954e+01	6.8896	3.430028	0.000201	2.006915	0.339981	0.000020
 695	6.9053e+01	6.9011	3.451210	0.000213	2.129788	0.360796	0.000021
 696	6.9153e+01	6.9118	3.472799	0.000217	2.170745	0.367734	0.000022
 697	6.9252e+01	6.9200	3.495203	0.000225	2.252660	0.381611	0.000023
 698	6.9352e+01	6.9316	3.519236	0.000242	2.416490	0.409364	0.000024
 699	6.9451e+01	6.9373	3.537566	0.000184	1.843086	0.312227	0.000018
 700	6.9550e+01	6.9493	3.562007	0.000246	2.457447	0.416303	0.000025
 701	6.9650e+01	6.9624	3.584003	0.000221	2.211703	0.374673	0.000022
 702	6.9749e+01	6.9714	3.604778	0.000209	2.088830	0.353857	0.000021
 703	6.9849e+01	6.9806	3.627182	0.000225	2.252660	0.381611	0.000023
 704	6.9948e+01	6.9929	3.651622	0.000246	2.457447	0.416303	0.000025
 705	7.0048e+01	7.0009	3.671582	0.000201	2.006915	0.339981	0.000020
 706	7.0147e+01	7.0119	3.693171	0.000217	2.170745	0.367734	0.000022
 707	7.0247e+01	7.0177	3.715575	0.000225	2.252660	0.381611	0.000023
 708	7.0347e+01	7.0290	3.740016	0.000246	2.457447	0.416303	0.000025
 709	7.0446e+01	7.0391	3.762012	0.000221	2.211703	0.374673	0.000022
 710	7.0546e+01	7.0489	3.779935	0.000180	1.802128	0.305289	0.000018
 711	7.0645e+01	7.0602	3.803561	0.000238	2.375532	0.402426	0.000024
 712	7.0745e+01	7.0714	3.828002	0.000246	2.457447	0.416303	0.000025
 713	7.0844e+01	7.0788	3.850813	0.000229	2.293618	0.388549	0.000023
 714	7.0944e+01	7.0942	3.872402	0.000217	2.170745	0.367734	0.000022
 715	7.1043e+01	7.0977	3.893991	0.000217	2.170745	0.367734	0.000022
 716	7.1142e+01	7.1143	3.917210	0.000233	2.334575	0.395488	0.000023
 717	7.1242e+01	7.1202	3.942058	0.000250	2.498405	0.423241	0.000025
 718	7.1341e+01	7.1319	3.962832	0.000209	2.088830	0.353857	0.000021
 719	7.1441e+01	7.1398	3.987273	0.000246	2.457447	0.416303	0.000025
 720	7.1540e+01	7.1503	4.006825	0.000197	1.965958	0.333042	0.000020
 721	7.1640e+01	7.1587	4.028007	0.000213	2.129788	0.360796	0.000021
 722	7.1740e+01	7.1706	4.053669	0.000258	2.580320	0.437118	0.000026
 723	7.1839e+01	7.1800	4.071592	0.000180	1.802128	0.305289	0.000018
 724	7.1939e+01	7.1891	4.097662	0.000262	2.621277	0.444056	0.000026
 725	7.2038e+01	7.1984	4.122103	0.000246	2.457447	0.416303	0.000025
 726	7.2138e+01	7.2088	4.143285	0.000213	2.129788	0.360796	0.000021
 727	7.2237e+01	7.2201	4.168947	0.000258	2.580320	0.437118	0.000026
 728	7.2337e+01	7.2281	4.188500	0.000197	1.965958	0.333042	0.000020
 729	7.2436e+01	7.2387	4.216199	0.000279	2.785107	0.471810	0.000028
 730	7.2535e+01	7.2502	4.239418	0.000233	2.334575	0.395488	0.000023
 731	7.2635e+01	7.2597	4.263451	0.000242	2.416490	0.409364	0.000024
 732	7.2734e+01	7.2694	4.289928	0.000266	2.662235	0.450995	0.000027
 733	7.2834e+01	7.2787	4.310703	0.000209	2.088830	0.353857	0.000021
 734	7.2933e+01	7.2876	4.335958	0.000254	2.539362	0.430180	0.000025
 735	7.3033e+01	7.2964	4.361620	0.000258	2.580320	0.437118	0.000026
 736	7.3132e+01	7.3089	4.382395	0.000209	2.088830	0.353857	0.000021
 737	7.3232e+01	7.3205	4.408465	0.000262	2.621277	0.444056	0.000026
 738	7.3332e+01	7.3286	4.430461	0.000221	2.211703	0.374673	0.000022
 739	7.3431e+01	7.3378	4.460197	0.000299	2.989894	0.506502	0.000030
 740	7.3531e+01	7.3470	4.485453	0.000254	2.539362	0.430180	0.000025
 741	7.3630e+01	7.3589	4.508264	0.000229	2.293618	0.388549	0.000023
 742	7.3730e+01	7.3705	4.533112	0.000250	2.498405	0.423241	0.000025
 743	7.3829e+01	7.3772	4.560404	0.000274	2.744150	0.464872	0.000027
 744	7.3928e+01	7.3901	4.586473	0.000262	2.621277	0.444056	0.000026
 745	7.4028e+01	7.3975	4.610914	0.000246	2.457447	0.416303	0.000025
 746	7.4127e+01	7.4080	4.639021	0.000283	2.826064	0.478748	0.000028
 747	7.4227e+01	7.4190	4.661424	0.000225	2.252660	0.381611	0.000023
 748	7.4326e+01	7.4274	4.685458	0.000242	2.416490	0.409364	0.000024
 749	7.4426e+01	7.4378	4.709491	0.000242	2.416490	0.409364	0.000024
 750	7.4525e+01	7.4493	4.731895	0.000225	2.252660	0.381611	0.000023
 751	7.4625e+01	7.4593	4.756743	0.000250	2.498405	0.423241	0.000025
 752	7.4725e+01	7.4676	4.783627	0.000270	2.703192	0.457933	0.000027
 753	7.4824e+01	7.4786	4.807660	0.000242	2.416490	0.409364	0.000024
 754	7.4924e+01	7.4865	4.829250	0.000217	2.170745	0.367734	0.000022
 755	7.5023e+01	7.5005	4.854098	0.000250	2.498405	0.423241	0.000025
 756	7.5123e+01	7.5073	4.881797	0.000279	2.785107	0.471810	0.000028
 757	7.5222e+01	7.5182	4.902164	0.000205	2.047873	0.346919	0.000020
 758	7.5322e+01	7.5309	4.927827	0.000258	2.580320	0.437118	0.000026
 759	7.5421e+01	7.5355	4.947786	0.000201	2.006915	0.339981	0.000020
 760	7.5520e+01	7.5490	4.970597	0.000229	2.293618	0.388549	0.000023
 761	7.5620e+01	7.5587	4.992594	0.000221	2.211703	0.374673	0.000022
 762	7.5719e+01	7.5684	5.015405	0.000229	2.293618	0.388549	0.000023
 763	7.5819e+01	7.5761	5.039846	0.000246	2.457447	0.416303	0.000025
 764	7.5918e+01	7.5871	5.061435	0.000217	2.170745	0.367734	0.000022
 765	7.6018e+01	7.5963	5.083431	0.000221	2.211703	0.374673	0.000022
 766	7.6118e+01	7.6088	5.106650	0.000233	2.334575	0.395488	0.000023
 767	7.6217e+01	7.6167	5.128239	0.000217	2.170745	0.367734	0.000022
 768	7.6317e+01	7.6250	5.151050	0.000229	2.293618	0.388549	0.000023
 769	7.6416e+01	7.6351	5.175491	0.000246	2.457447	0.416303	0.000025
 770	7.6516e+01	7.6455	5.193414	0.000180	1.802128	0.305289	0.000018
 771	7.6615e+01	7.6554	5.217854	0.000246	2.457447	0.416303	0.000025
 772	7.6715e+01	7.6656	5.238222	0.000205	2.047873	0.346919	0.000020
 773	7.6814e+01	7.6766	5.260625	0.000225	2.252660	0.381611	0.000023
 774	7.6913e+01	7.6857	5.283437	0.000229	2.293618	0.388549	0.000023
 775	7.7013e+01	7.6957	5.307062	0.000238	2.375532	0.402426	0.000024
 776	7.7112e+01	7.7053	5.326615	0.000197	1.965958	0.333042	0.000020
 777	7.7212e+01	7.7161	5.351870	0.000254	2.539362	0.430180	0.000025
 778	7.7311e+01	7.7256	5.373052	0.000213	2.129788	0.360796	0.000021
 779	7.7411e+01	7.7372	5.394234	0.000213	2.129788	0.360796	0.000021
 780	7.7510e+01	7.7447	5.417045	0.000229	2.293618	0.388549	0.000023
 781	7.7610e+01	7.7567	5.439449	0.000225	2.252660	0.381611	0.000023
 782	7.7710e+01	7.7662	5.460223	0.000209	2.088830	0.353857	0.000021
 783	7.7809e+01	7.7740	5.478554	0.000184	1.843086	0.312227	0.000018
 784	7.7909e+01	7.7862	5.500957	0.000225	2.252660	0.381611	0.000023
 785	7.8008e+01	7.7956	5.523769	0.000229	2.293618	0.388549	0.000023
 786	7.8108e+01	7.8061	5.545358	0.000217	2.170745	0.367734	0.000022
 787	7.8207e+01	7.8167	5.566540	0.000213	2.129788	0.360796	0.000021
 788	7.8306e+01	7.8265	5.588129	0.000217	2.170745	0.367734	0.000022
 789	7.8406e+01	7.8347	5.612977	0.000250	2.498405	0.423241	0.000025
 790	7.8505e+01	7.8442	5.632936	0.000201	2.006915	0.339981	0.000020
 791	7.8605e+01	7.8567	5.652896	0.000201	2.006915	0.339981	0.000020
 792	7.8704e+01	7.8675	5.677337	0.000246	2.457447	0.416303	0.000025
 793	7.8804e+01	7.8741	5.698926	0.000217	2.170745	0.367734	0.000022
 794	7.8903e+01	7.8864	5.719293	0.000205	2.047873	0.346919	0.000020
 795	7.9003e+01	7.8955	5.741290	0.000221	2.211703	0.374673	0.000022
 796	7.9103e+01	7.9041	5.762064	0.000209	2.088830	0.353857	0.000021
 797	7.9202e+01	7.9151	5.783246	0.000213	2.129788	0.360796	0.000021
 798	7.9302e+01	7.9278	5.804020	0.000209	2.088830	0.353857	0.000021
 799	7.9401e+01	7.9371	5.826832	0.000229	2.293618	0.388549	0.000023
 800	7.9501e+01	7.9444	5.850050	0.000233	2.334575	0.395488	0.000023
 801	7.9600e+01	7.9530	5.870825	0.000209	2.088830	0.353857	0.000021
 802	7.9700e+01	7.9660	5.894450	0.000238	2.375532	0.402426	0.000024
 803	7.9799e+01	7.9780	5.913595	0.000193	1.925000	0.326104	0.000019
 804	7.9898e+01	7.9851	5.936407	0.000229	2.293618	0.388549	0.000023
 805	7.9998e+01	7.9961	5.960847	0.000246	2.457447	0.416303	0.000025
 806	8.0097e+01	8.0045	5.976326	0.000156	1.556383	0.263658	0.000016
 807	8.0197e+01	8.0157	6.001989	0.000258	2.580320	0.437118	0.000026
 808	8.0296e+01	8.0244	6.021134	0.000193	1.925000	0.326104	0.000019
 809	8.0396e+01	8.0336	6.043945	0.000229	2.293618	0.388549	0.000023
 810	8.0496e+01	8.0461	6.064720	0.000209	2.088830	0.353857	0.000021
 811	8.0595e+01	8.0556	6.087938	0.000233	2.334575	0.395488	0.000023
 812	8.0695e+01	8.0668	6.106676	0.000188	1.884043	0.319166	0.000019
 813	8.0794e+01	8.0754	6.126636	0.000201	2.006915	0.339981	0.000020
 814	8.0894e+01	8.0897	6.146188	0.000197	1.965958	0.333042	0.000020
 815	8.0993e+01	8.0954	6.169407	0.000233	2.334575	0.395488	0.000023
 816	8.1093e+01	8.1031	6.185293	0.000160	1.597341	0.270597	0.000016
 817	8.1192e+01	8.1154	6.208511	0.000233	2.334575	0.395488	0.000023
 818	8.1291e+01	8.1253	6.230101	0.000217	2.170745	0.367734	0.000022
 819	8.1391e+01	8.1348	6.250875	0.000209	2.088830	0.353857	0.000021
 820	8.1490e+01	8.1467	6.273279	0.000225	2.252660	0.381611	0.000023
 821	8.1590e+01	8.1552	6.293239	0.000201	2.006915	0.339981	0.000020
 822	8.1689e+01	8.1641	6.314828	0.000217	2.170745	0.367734	0.000022
 823	8.1789e+01	8.1724	6.333566	0.000188	1.884043	0.319166	0.000019
 824	8.1888e+01	8.1844	6.355155	0.000217	2.170745	0.367734	0.000022
 825	8.1988e+01	8.1921	6.375929	0.000209	2.088830	0.353857	0.000021
 826	8.2088e+01	8.2036	6.389372	0.000135	1.351596	0.228967	0.000014
 827	8.2187e+01	8.2133	6.410553	0.000213	2.129788	0.360796	0.000021
 828	8.2287e+01	8.2255	6.430921	0.000205	2.047873	0.346919	0.000020
 829	8.2386e+01	8.2336	6.448844	0.000180	1.802128	0.305289	0.000018
 830	8.2486e+01	8.2447	6.470433	0.000217	2.170745	0.367734	0.000022
 831	8.2585e+01	8.2533	6.491207	0.000209	2.088830	0.353857	0.000021
 832	8.2684e+01	8.2648	6.512796	0.000217	2.170745	0.367734	0.000022
 833	8.2784e+01	8.2745	6.534386	0.000217	2.170745	0.367734	0.000022
 834	8.2883e+01	8.2839	6.557197	0.000229	2.293618	0.388549	0.000023
 835	8.2983e+01	8.2943	6.579193	0.000221	2.211703	0.374673	0.000022
 836	8.3082e+01	8.3060	6.595894	0.000168	1.679256	0.284474	0.000017
 837	8.3182e+01	8.3154	6.619520	0.000238	2.375532	0.402426	0.000024
 838	8.3281e+01	8.3228	6.641924	0.000225	2.252660	0.381611	0.000023
 839	8.3381e+01	8.3317	6.664328	0.000225	2.252660	0.381611	0.000023
 840	8.3481e+01	8.3453	6.687139	0.000229	2.293618	0.388549	0.000023
 841	8.3580e+01	8.3549	6.707099	0.000201	2.006915	0.339981	0.000020
 842	8.3680e+01	8.3625	6.733169	0.000262	2.621277	0.444056	0.000026
 843	8.3779e+01	8.3740	6.752721	0.000197	1.965958	0.333042	0.000020
 844	8.3879e+01	8.3850	6.775532	0.000229	2.293618	0.388549	0.000023
 845	8.3978e+01	8.3921	6.801602	0.000262	2.621277	0.444056	0.000026
 846	8.4078e+01	8.4068	6.824006	0.000225	2.252660	0.381611	0.000023
 847	8.4177e+01	8.4135	6.849261	0.000254	2.539362	0.430180	0.000025
 848	8.4276e+01	8.4229	6.874924	0.000258	2.580320	0.437118	0.000026
 849	8.4376e+01	8.4348	6.897735	0.000229	2.293618	0.388549	0.000023
 850	8.4475e+01	8.4420	6.919324	0.000217	2.170745	0.367734	0.000022
 851	8.4575e+01	8.4515	6.945802	0.000266	2.662235	0.450995	0.000027
 852	8.4674e+01	8.4640	6.970242	0.000246	2.457447	0.416303	0.000025
 853	8.4774e+01	8.4726	6.995090	0.000250	2.498405	0.423241	0.000025
 854	8.4874e+01	8.4823	7.019123	0.000242	2.416490	0.409364	0.000024
 855	8.4973e+01	8.4912	7.043564	0.000246	2.457447	0.416303	0.000025
 856	8.5073e+01	8.5028	7.071263	0.000279	2.785107	0.471810	0.000028
 857	8.5172e+01	8.5158	7.094889	0.000238	2.375532	0.402426	0.000024
 858	8.5272e+01	8.5239	7.120144	0.000254	2.539362	0.430180	0.000025
 859	8.5371e+01	8.5352	7.144177	0.000242	2.416490	0.409364	0.000024
 860	8.5471e+01	8.5462	7.172284	0.000283	2.826064	0.478748	0.000028
 861	8.5570e+01	8.5561	7.196317	0.000242	2.416490	0.409364	0.000024
 862	8.5669e+01	8.5626	7.221980	0.000258	2.580320	0.437118	0.000026
 863	8.5769e+01	8.5708	7.247642	0.000258	2.580320	0.437118	0.000026
 864	8.5868e+01	8.5867	7.272083	0.000246	2.457447	0.416303	0.000025
 865	8.5968e+01	8.5926	7.301004	0.000291	2.907979	0.492625	0.000029
 866	8.6067e+01	8.6025	7.328296	0.000274	2.744150	0.464872	0.000027
 867	8.6167e+01	8.6125	7.351515	0.000233	2.334575	0.395488	0.000023
 868	8.6266e+01	8.6225	7.379214	0.000279	2.785107	0.471810	0.000028
 869	8.6366e+01	8.6318	7.404469	0.000254	2.539362	0.430180	0.000025
 870	8.6466e+01	8.6450	7.429317	0.000250	2.498405	0.423241	0.000025
 871	8.6565e+01	8.6527	7.454165	0.000250	2.498405	0.423241	0.000025
 872	8.6665e+01	8.6616	7.483901	0.000299	2.989894	0.506502	0.000030
 873	8.6764e+01	8.6733	7.510378	0.000266	2.662235	0.450995	0.000027
 874	8.6864e+01	8.6811	7.534004	0.000238	2.375532	0.402426	0.000024
 875	8.6963e+01	8.6946	7.560481	0.000266	2.662235	0.450995	0.000027
 876	8.7063e+01	8.7040	7.586959	0.000266	2.662235	0.450995	0.000027
 877	8.7162e+01	8.7122	7.613029	0.000262	2.621277	0.444056	0.000026
 878	8.7261e+01	8.7215	7.641950	0.000291	2.907979	0.492625	0.000029
 879	8.7361e+01	8.7310	7.674130	0.000324	3.235639	0.548132	0.000032
 880	8.7460e+01	8.7427	7.700607	0.000266	2.662235	0.450995	0.000027
 881	8.7560e+01	8.7522	7.723826	0.000233	2.334575	0.395488	0.000023
 882	8.7659e+01	8.7587	7.751932	0.000283	2.826064	0.478748	0.000028
 883	8.7759e+01	8.7695	7.779632	0.000279	2.785107	0.471810	0.000028
 884	8.7859e+01	8.7827	7.807738	0.000283	2.826064	0.478748	0.000028
 885	8.7958e+01	8.7932	7.834623	0.000270	2.703192	0.457933	0.000027
 886	8.8058e+01	8.8013	7.863952	0.000295	2.948937	0.499563	0.000029
 887	8.8157e+01	8.8115	7.895724	0.000319	3.194682	0.541194	0.000032
 888	8.8257e+01	8.8208	7.917721	0.000221	2.211703	0.374673	0.000022
 889	8.8356e+01	8.8297	7.944605	0.000270	2.703192	0.457933	0.000027
 890	8.8456e+01	8.8393	7.971083	0.000266	2.662235	0.450995	0.000027
 891	8.8555e+01	8.8486	8.002448	0.000315	3.153724	0.534255	0.000032
 892	8.8654e+01	8.8605	8.030555	0.000283	2.826064	0.478748	0.000028
 893	8.8754e+01	8.8712	8.058661	0.000283	2.826064	0.478748	0.000028
 894	8.8853e+01	8.8781	8.090434	0.000319	3.194682	0.541194	0.000032
 895	8.8953e+01	8.8904	8.119355	0.000291	2.907979	0.492625	0.000029
 896	8.9052e+01	8.8996	8.146240	0.000270	2.703192	0.457933	0.000027
 897	8.9152e+01	8.9092	8.182494	0.000365	3.645214	0.617516	0.000036
 898	8.9251e+01	8.9198	8.210193	0.000279	2.785107	0.471810	0.000028
 899	8.9351e+01	8.9301	8.239521	0.000295	2.948937	0.499563	0.000029
 900	8.9451e+01	8.9404	8.269257	0.000299	2.989894	0.506502	0.000030
 901	8.9550e+01	8.9504	8.300216	0.000311	3.112767	0.527317	0.000031
 902	8.9650e+01	8.9587	8.331174	0.000311	3.112767	0.527317	0.000031
 903	8.9749e+01	8.9706	8.362132	0.000311	3.112767	0.527317	0.000031
 904	8.9849e+01	8.9801	8.389016	0.000270	2.703192	0.457933	0.000027
 905	8.9948e+01	8.9908	8.419160	0.000303	3.030852	0.513440	0.000030
 906	9.0047e+01	8.9999	8.451747	0.000328	3.276597	0.555070	0.000033
 907	9.0147e+01	9.0128	8.483927	0.000324	3.235639	0.548132	0.000032
 908	9.0246e+01	9.0214	8.518551	0.000348	3.481384	0.589762	0.000035
 909	9.0346e+01	9.0302	8.548694	0.000303	3.030852	0.513440	0.000030
 910	9.0445e+01	9.0399	8.581689	0.000332	3.317554	0.562009	0.000033
 911	9.0545e+01	9.0495	8.613869	0.000324	3.235639	0.548132	0.000032
 912	9.0644e+01	9.0594	8.645642	0.000319	3.194682	0.541194	0.000032
 913	9.0744e+01	9.0679	8.677007	0.000315	3.153724	0.534255	0.000032
 914	9.0844e+01	9.0797	8.707965	0.000311	3.112767	0.527317	0.000031
 915	9.0943e+01	9.0900	8.739331	0.000315	3.153724	0.534255	0.000032
 916	9.1043e+01	9.0967	8.772733	0.000336	3.358511	0.568947	0.000034
 917	9.1142e+01	9.1119	8.804913	0.000324	3.235639	0.548132	0.000032
 918	9.1242e+01	9.1174	8.834649	0.000299	2.989894	0.506502	0.000030
 919	9.1341e+01	9.1296	8.866014	0.000315	3.153724	0.534255	0.000032
 920	9.1441e+01	9.1402	8.900638	0.000348	3.481384	0.589762	0.000035
 921	9.1540e+01	9.1504	8.930782	0.000303	3.030852	0.513440	0.000030
 922	9.1639e+01	9.1595	8.963777	0.000332	3.317554	0.562009	0.000033
 923	9.1739e+01	9.1702	8.994327	0.000307	3.071809	0.520379	0.000031
 924	9.1838e+01	9.1788	9.027729	0.000336	3.358511	0.568947	0.000034
 925	9.1938e+01	9.1887	9.058280	0.000307	3.071809	0.520379	0.000031
 926	9.2037e+01	9.1992	9.087609	0.000295	2.948937	0.499563	0.000029
 927	9.2137e+01	9.2073	9.119789	0.000324	3.235639	0.548132	0.000032
 928	9.2237e+01	9.2172	9.148303	0.000287	2.867022	0.485687	0.000029
 929	9.2336e+01	9.2303	9.182927	0.000348	3.481384	0.589762	0.000035
 930	9.2436e+01	9.2365	9.213885	0.000311	3.112767	0.527317	0.000031
 931	9.2535e+01	9.2483	9.243214	0.000295	2.948937	0.499563	0.000029
 932	9.2635e+01	9.2590	9.275394	0.000324	3.235639	0.548132	0.000032
 933	9.2734e+01	9.2725	9.304315	0.000291	2.907979	0.492625	0.000029
 934	9.2834e+01	9.2810	9.332829	0.000287	2.867022	0.485687	0.000029
 935	9.2933e+01	9.2881	9.362972	0.000303	3.030852	0.513440	0.000030
 936	9.3032e+01	9.2995	9.393116	0.000303	3.030852	0.513440	0.000030
 937	9.3132e+01	9.3071	9.426518	0.000336	3.358511	0.568947	0.000034
 938	9.3231e+01	9.3176	9.455846	0.000295	2.948937	0.499563	0.000029
 939	9.3331e+01	9.3286	9.489656	0.000340	3.399469	0.575886	0.000034
 940	9.3430e+01	9.3378	9.515726	0.000262	2.621277	0.444056	0.000026
 941	9.3530e+01	9.3497	9.548313	0.000328	3.276597	0.555070	0.000033
 942	9.3629e+01	9.3573	9.578864	0.000307	3.071809	0.520379	0.000031
 943	9.3729e+01	9.3677	9.615525	0.000369	3.686171	0.624454	0.000037
 944	9.3829e+01	9.3790	9.640780	0.000254	2.539362	0.430180	0.000025
 945	9.3928e+01	9.3873	9.677033	0.000365	3.645214	0.617516	0.000036
 946	9.4028e+01	9.3971	9.706769	0.000299	2.989894	0.506502	0.000030
 947	9.4127e+01	9.4067	9.736913	0.000303	3.030852	0.513440	0.000030
 948	9.4227e+01	9.4169	9.769093	0.000324	3.235639	0.548132	0.000032
 949	9.4326e+01	9.4287	9.798421	0.000295	2.948937	0.499563	0.000029
 950	9.4425e+01	9.4375	9.829379	0.000311	3.112767	0.527317	0.000031
 951	9.4525e+01	9.4482	9.859523	0.000303	3.030852	0.513440	0.000030
 952	9.4624e+01	9.4586	9.887629	0.000283	2.826064	0.478748	0.000028
 953	9.4724e+01	9.4631	9.919809	0.000324	3.235639	0.548132	0.000032
 954	9.4823e+01	9.4775	9.950768	0.000311	3.112767	0.527317	0.000031
 955	9.4923e+01	9.4855	9.984170	0.000336	3.358511	0.568947	0.000034
 956	9.5022e+01	9.4989	10.015535	0.000315	3.153724	0.534255	0.000032
 957	9.5122e+01	9.5058	10.048530	0.000332	3.317554	0.562009	0.000033
 958	9.5222e+01	9.5184	10.080710	0.000324	3.235639	0.548132	0.000032
 959	9.5321e+01	9.5283	10.108816	0.000283	2.826064	0.478748	0.000028
 960	9.5421e+01	9.5370	10.143033	0.000344	3.440426	0.582824	0.000034
 961	9.5520e+01	9.5444	10.170325	0.000274	2.744150	0.464872	0.000027
 962	9.5620e+01	9.5565	10.206986	0.000369	3.686171	0.624454	0.000037
 963	9.5719e+01	9.5662	10.236722	0.000299	2.989894	0.506502	0.000030
 964	9.5819e+01	9.5757	10.269309	0.000328	3.276597	0.555070	0.000033
 965	9.5918e+01	9.5856	10.301897	0.000328	3.276597	0.555070	0.000033
 966	9.6017e+01	9.5972	10.333670	0.000319	3.194682	0.541194	0.000032
 967	9.6117e+01	9.6066	10.364628	0.000311	3.112767	0.527317	0.000031
 968	9.6216e+01	9.6179	10.396808	0.000324	3.235639	0.548132	0.000032
 969	9.6316e+01	9.6241	10.426544	0.000299	2.989894	0.506502	0.000030
 970	9.6415e+01	9.6365	10.465241	0.000389	3.890958	0.659146	0.000039
 971	9.6515e+01	9.6463	10.494570	0.000295	2.948937	0.499563	0.000029
 972	9.6615e+01	9.6582	10.525935	0.000315	3.153724	0.534255	0.000032
 973	9.6714e+01	9.6656	10.561781	0.000360	3.604256	0.610578	0.000036
 974	9.6814e+01	9.6753	10.599664	0.000381	3.809043	0.645269	0.000038
 975	9.6913e+01	9.6875	10.626956	0.000274	2.744150	0.464872	0.000027
 976	9.7013e+01	9.6949	10.662802	0.000360	3.604256	0.610578	0.000036
 977	9.7112e+01	9.7041	10.697426	0.000348	3.481384	0.589762	0.000035
 978	9.7212e+01	9.7153	10.729606	0.000324	3.235639	0.548132	0.000032
 979	9.7311e+01	9.7266	10.763009	0.000336	3.358511	0.568947	0.000034
 980	9.7410e+01	9.7334	10.794781	0.000319	3.194682	0.541194	0.000032
 981	9.7510e+01	9.7468	10.830220	0.000356	3.563299	0.603639	0.000036
 982	9.7609e+01	9.7559	10.863622	0.000336	3.358511	0.568947	0.000034
 983	9.7709e+01	9.7662	10.897024	0.000336	3.358511	0.568947	0.000034
 984	9.7808e+01	9.7760	10.931648	0.000348	3.481384	0.589762	0.000035
 985	9.7908e+01	9.7855	10.966272	0.000348	3.481384	0.589762	0.000035
 986	9.8007e+01	9.7943	10.999267	0.000332	3.317554	0.562009	0.000033
 987	9.8107e+01	9.8047	11.032669	0.000336	3.358511	0.568947	0.000034
 988	9.8207e+01	9.8138	11.071367	0.000389	3.890958	0.659146	0.000039
 989	9.8306e+01	9.8259	11.103140	0.000319	3.194682	0.541194	0.000032
 990	9.8406e+01	9.8359	11.136542	0.000336	3.358511	0.568947	0.000034
 991	9.8505e+01	9.8447	11.169129	0.000328	3.276597	0.555070	0.000033
 992	9.8605e+01	9.8560	11.204975	0.000360	3.604256	0.610578	0.000036
 993	9.8704e+01	9.8647	11.235933	0.000311	3.112767	0.527317	0.000031
 994	9.8803e+01	9.8759	11.266484	0.000307	3.071809	0.520379	0.000031
 995	9.8903e+01	9.8831	11.299886	0.000336	3.358511	0.568947	0.000034
 996	9.9002e+01	9.8945	11.331251	0.000315	3.153724	0.534255	0.000032
 997	9.9102e+01	9.9048	11.365876	0.000348	3.481384	0.589762	0.000035
 998	9.9201e+01	9.9143	11.400500	0.000348	3.481384	0.589762	0.000035
 999	9.9301e+01	9.9250	11.436346	0.000360	3.604256	0.610578	0.000036
1000	9.9400e+01	9.9341	11.474636	0.000385	3.850001	0.652208	0.000038
1001	9.9500e+01	9.9447	11.506816	0.000324	3.235639	0.548132	0.000032
1002	9.9600e+01	9.9561	11.543884	0.000373	3.727129	0.631393	0.000037
1003	9.9699e+01	9.9666	11.581360	0.000377	3.768086	0.638331	0.000038
1004	9.9799e+01	9.9744	11.613132	0.000319	3.194682	0.541194	0.000032
1005	9.9898e+01	9.9854	11.651423	0.000385	3.850001	0.652208	0.000038
1006	9.9998e+01	9.9942	11.688084	0.000369	3.686171	0.624454	0.000037
1007	1.0010e+02	9.9860	11.692564	-0.000045	-0.450532	-0.076322	0.000005
1008	1.0020e+02	9.9738	11.693379	-0.000008	-0.081915	-0.013877	0.000001
1009	1.0030e+02	9.9625	11.701526	-0.000082	-0.819149	-0.138768	0.000008
1010	1.0040e+02	9.9536	11.704785	-0.000033	-0.327660	-0.055507	0.000003
1011	1.0050e+02	9.9447	11.707636	-0.000029	-0.286702	-0.048569	0.000003
1012	1.0059e+02	9.9343	11.712524	-0.000049	-0.491489	-0.083261	0.000005
1013	1.0069e+02	9.9228	11.712931	-0.000004	-0.040957	-0.006938	0.000000
1014	1.0079e+02	9.9158	11.710895	0.000020	0.204787	0.034692	-0.000002
1015	1.0089e+02	9.9054	11.717820	-0.000070	-0.696277	-0.117952	0.000007
1016	1.0099e+02	9.8950	11.722708	-0.000049	-0.491489	-0.083261	0.000005
1017	1.0109e+02	9.8856	11.721893	0.000008	0.081915	0.013877	-0.000001
1018	1.0119e+02	9.8743	11.723522	-0.000016	-0.163830	-0.027754	0.000002
1019	1.0129e+02	9.8685	11.726781	-0.000033	-0.327660	-0.055507	0.000003
1020	1.0139e+02	9.8566	11.730447	-0.000037	-0.368617	-0.062445	0.000004
1021	1.0149e+02	9.8443	11.731262	-0.000008	-0.081915	-0.013877	0.000001
1022	1.0159e+02	9.8353	11.734113	-0.000029	-0.286702	-0.048569	0.000003
1023	1.0169e+02	9.8260	11.734928	-0.000008	-0.081915	-0.013877	0.000001
1024	1.0179e+02	9.8152	11.732891	0.000020	0.204787	0.034692	-0.000002
1025	1.0189e+02	9.8056	11.733706	-0.000008	-0.081915	-0.013877	0.000001
1026	1.0199e+02	9.7971	11.733706	-0.000000	-0.000000	-0.000000	0.000000
1027	1.0209e+02	9.7852	11.731669	0.000020	0.204787	0.034692	-0.000002
1028	1.0219e+02	9.7733	11.732484	-0.000008	-0.081915	-0.013877	0.000001
1029	1.0229e+02	9.7645	11.731669	0.000008	0.081915	0.013877	-0.000001
1030	1.0239e+02	9.7571	11.728818	0.000029	0.286702	0.048569	-0.000003
1031	1.0248e+02	9.7461	11.729632	-0.000008	-0.081915	-0.013877	0.000001
1032	1.0258e+02	9.7351	11.730040	-0.000004	-0.040957	-0.006938	0.000000
1033	1.0268e+02	9.7257	11.728818	0.000012	0.122872	0.020815	-0.000001
1034	1.0278e+02	9.7170	11.730447	-0.000016	-0.163830	-0.027754	0.000002
1035	1.0288e+02	9.7041	11.725966	0.000045	0.450532	0.076322	-0.000005
1036	1.0298e+02	9.6949	11.726374	-0.000004	-0.040957	-0.006938	0.000000
1037	1.0308e+02	9.6852	11.719449	0.000070	0.696277	0.117952	-0.000007
1038	1.0318e+02	9.6759	11.719042	0.000004	0.040957	0.006938	-0.000000
1039	1.0328e+02	9.6661	11.717005	0.000020	0.204787	0.034692	-0.000002
1040	1.0338e+02	9.6574	11.713339	0.000037	0.368617	0.062445	-0.000004
1041	1.0348e+02	9.6455	11.711709	0.000016	0.163830	0.027754	-0.000002
1042	1.0358e+02	9.6349	11.707229	0.000045	0.450532	0.076322	-0.000005
1043	1.0368e+02	9.6271	11.702340	0.000049	0.491489	0.083261	-0.000005
1044	1.0378e+02	9.6158	11.699896	0.000025	0.245745	0.041630	-0.000002
1045	1.0388e+02	9.6052	11.693786	0.000061	0.614362	0.104076	-0.000006
1046	1.0398e+02	9.5972	11.693379	0.000004	0.040957	0.006938	-0.000000
1047	1.0408e+02	9.5868	11.687269	0.000061	0.614362	0.104076	-0.000006
1048	1.0418e+02	9.5746	11.686047	0.000012	0.122872	0.020815	-0.000001
1049	1.0428e+02	9.5679	11.682381	0.000037	0.368617	0.062445	-0.000004
1050	1.0438e+02	9.5577	11.677900	0.000045	0.450532	0.076322	-0.000005
1051	1.0447e+02	9.5467	11.668938	0.000090	0.901064	0.152644	-0.000009
1052	1.0457e+02	9.5377	11.664865	0.000041	0.409575	0.069384	-0.000004
1053	1.0467e+02	9.5258	11.662014	0.000029	0.286702	0.048569	-0.000003
1054	1.0477e+02	9.5174	11.655496	0.000066	0.655319	0.111014	-0.000007
1055	1.0487e+02	9.5071	11.645720	0.000098	0.982979	0.166521	-0.000010
1056	1.0497e+02	9.4943	11.643276	0.000025	0.245745	0.041630	-0.000002
1057	1.0507e+02	9.4894	11.637980	0.000053	0.532447	0.090199	-0.000005
1058	1.0517e+02	9.4761	11.631870	0.000061	0.614362	0.104076	-0.000006
1059	1.0527e+02	9.4685	11.624945	0.000070	0.696277	0.117952	-0.000007
1060	1.0537e+02	9.4566	11.620057	0.000049	0.491489	0.083261	-0.000005
1061	1.0547e+02	9.4464	11.613540	0.000066	0.655319	0.111014	-0.000007
1062	1.0557e+02	9.4369	11.609059	0.000045	0.450532	0.076322	-0.000005
1063	1.0567e+02	9.4266	11.607837	0.000012	0.122872	0.020815	-0.000001
1064	1.0577e+02	9.4168	11.600098	0.000078	0.778192	0.131829	-0.000008
1065	1.0587e+02	9.4062	11.593987	0.000061	0.614362	0.104076	-0.000006
1066	1.0597e+02	9.3988	11.589507	0.000045	0.450532	0.076322	-0.000005
1067	1.0607e+02	9.3890	11.586655	0.000029	0.286702	0.048569	-0.000003
1068	1.0617e+02	9.3784	11.578101	0.000086	0.860107	0.145706	-0.000009
1069	1.0627e+02	9.3674	11.570769	0.000074	0.737234	0.124891	-0.000007
1070	1.0637e+02	9.3590	11.564659	0.000061	0.614362	0.104076	-0.000006
1071	1.0647e+02	9.3497	11.560585	0.000041	0.409575	0.069384	-0.000004
1072	1.0656e+02	9.3397	11.552438	0.000082	0.819149	0.138768	-0.000008
1073	1.0666e+02	9.3286	11.547550	0.000049	0.491489	0.083261	-0.000005
1074	1.0676e+02	9.3169	11.537774	0.000098	0.982979	0.166521	-0.000010
1075	1.0686e+02	9.3072	11.535330	0.000025	0.245745	0.041630	-0.000002
1076	1.0696e+02	9.2996	11.531664	0.000037	0.368617	0.062445	-0.000004
1077	1.0706e+02	9.2864	11.523924	0.000078	0.778192	0.131829	-0.000008
1078	1.0716e+02	9.2799	11.519444	0.000045	0.450532	0.076322	-0.000005
1079	1.0726e+02	9.2718	11.516185	0.000033	0.327660	0.055507	-0.000003
1080	1.0736e+02	9.2588	11.510075	0.000061	0.614362	0.104076	-0.000006
1081	1.0746e+02	9.2480	11.504372	0.000057	0.573404	0.097137	-0.000006
1082	1.0756e+02	9.2365	11.498262	0.000061	0.614362	0.104076	-0.000006
1083	1.0766e+02	9.2291	11.491744	0.000066	0.655319	0.111014	-0.000007
1084	1.0776e+02	9.2197	11.481968	0.000098	0.982979	0.166521	-0.000010
1085	1.0786e+02	9.2082	11.471377	0.000106	1.064894	0.180398	-0.000011
1086	1.0796e+02	9.1975	11.468933	0.000025	0.245745	0.041630	-0.000002
1087	1.0806e+02	9.1888	11.462823	0.000061	0.614362	0.104076	-0.000006
1088	1.0816e+02	9.1782	11.452232	0.000106	1.064894	0.180398	-0.000011
1089	1.0826e+02	9.1708	11.445715	0.000066	0.655319	0.111014	-0.000007
1090	1.0836e+02	9.1583	11.435531	0.000102	1.023936	0.173460	-0.000010
1091	1.0845e+02	9.1483	11.430643	0.000049	0.491489	0.083261	-0.000005
1092	1.0855e+02	9.1387	11.424533	0.000061	0.614362	0.104076	-0.000006
1093	1.0865e+02	9.1305	11.410683	0.000139	1.392554	0.235905	-0.000014
1094	1.0875e+02	9.1190	11.407017	0.000037	0.368617	0.062445	-0.000004
1095	1.0885e+02	9.1092	11.395204	0.000119	1.187766	0.201213	-0.000012
1096	1.0895e+02	9.1006	11.383391	0.000119	1.187766	0.201213	-0.000012
1097	1.0905e+02	9.0887	11.370764	0.000127	1.269681	0.215090	-0.000013
1098	1.0915e+02	9.0800	11.363024	0.000078	0.778192	0.131829	-0.000008
1099	1.0925e+02	9.0748	11.354877	0.000082	0.819149	0.138768	-0.000008
1100	1.0935e+02	9.0614	11.339398	0.000156	1.556383	0.263658	-0.000016
1101	1.0945e+02	9.0479	11.328807	0.000106	1.064894	0.180398	-0.000011
1102	1.0955e+02	9.0394	11.318216	0.000106	1.064894	0.180398	-0.000011
1103	1.0965e+02	9.0302	11.308440	0.000098	0.982979	0.166521	-0.000010
1104	1.0975e+02	9.0191	11.291739	0.000168	1.679256	0.284474	-0.000017
1105	1.0985e+02	9.0088	11.284814	0.000070	0.696277	0.117952	-0.000007
1106	1.0995e+02	8.9985	11.270150	0.000147	1.474468	0.249782	-0.000015
1107	1.1005e+02	8.9893	11.260781	0.000094	0.942021	0.159583	-0.000009
1108	1.1015e+02	8.9761	11.248561	0.000123	1.228724	0.208151	-0.000012
1109	1.1025e+02	8.9688	11.235526	0.000131	1.310639	0.222028	-0.000013
1110	1.1035e+02	8.9588	11.225342	0.000102	1.023936	0.173460	-0.000010
1111	1.1044e+02	8.9523	11.209049	0.000164	1.638298	0.277535	-0.000016
1112	1.1054e+02	8.9395	11.200494	0.000086	0.860107	0.145706	-0.000009
1113	1.1064e+02	8.9279	11.185015	0.000156	1.556383	0.263658	-0.000016
1114	1.1074e+02	8.9182	11.171166	0.000139	1.392554	0.235905	-0.000014
1115	1.1084e+02	8.9104	11.158131	0.000131	1.310639	0.222028	-0.000013
1116	1.1094e+02	8.8993	11.144281	0.000139	1.392554	0.235905	-0.000014
1117	1.1104e+02	8.8879	11.133283	0.000111	1.105851	0.187336	-0.000011
1118	1.1114e+02	8.8792	11.117397	0.000160	1.597341	0.270597	-0.000016
1119	1.1124e+02	8.8679	11.104769	0.000127	1.269681	0.215090	-0.000013
1120	1.1134e+02	8.8614	11.091327	0.000135	1.351596	0.228967	-0.000014
1121	1.1144e+02	8.8493	11.078699	0.000127	1.269681	0.215090	-0.000013
1122	1.1154e+02	8.8393	11.068108	0.000106	1.064894	0.180398	-0.000011
1123	1.1164e+02	8.8289	11.048148	0.000201	2.006915	0.339981	-0.000020
1124	1.1174e+02	8.8220	11.039594	0.000086	0.860107	0.145706	-0.000009
1125	1.1184e+02	8.8114	11.026152	0.000135	1.351596	0.228967	-0.000014
1126	1.1194e+02	8.8013	11.016376	0.000098	0.982979	0.166521	-0.000010
1127	1.1204e+02	8.7919	10.998453	0.000180	1.802128	0.305289	-0.000018
1128	1.1214e+02	8.7805	10.983788	0.000147	1.474468	0.249782	-0.000015
1129	1.1224e+02	8.7720	10.968717	0.000152	1.515426	0.256720	-0.000015
1130	1.1234e+02	8.7635	10.954052	0.000147	1.474468	0.249782	-0.000015
1131	1.1244e+02	8.7530	10.937351	0.000168	1.679256	0.284474	-0.000017
1132	1.1253e+02	8.7432	10.920243	0.000172	1.720213	0.291412	-0.000017
1133	1.1263e+02	8.7327	10.908023	0.000123	1.228724	0.208151	-0.000012
1134	1.1273e+02	8.7222	10.892951	0.000152	1.515426	0.256720	-0.000015
1135	1.1283e+02	8.7112	10.877472	0.000156	1.556383	0.263658	-0.000016
1136	1.1293e+02	8.7040	10.860771	0.000168	1.679256	0.284474	-0.000017
1137	1.1303e+02	8.6929	10.848958	0.000119	1.187766	0.201213	-0.000012
1138	1.1313e+02	8.6803	10.834701	0.000143	1.433511	0.242843	-0.000014
1139	1.1323e+02	8.6741	10.817185	0.000176	1.761171	0.298350	-0.000018
1140	1.1333e+02	8.6636	10.804558	0.000127	1.269681	0.215090	-0.000013
1141	1.1343e+02	8.6525	10.790301	0.000143	1.433511	0.242843	-0.000014
1142	1.1353e+02	8.6396	10.771970	0.000184	1.843086	0.312227	-0.000018
1143	1.1363e+02	8.6328	10.755676	0.000164	1.638298	0.277535	-0.000016
1144	1.1373e+02	8.6213	10.740197	0.000156	1.556383	0.263658	-0.000016
1145	1.1383e+02	8.6110	10.726348	0.000139	1.392554	0.235905	-0.000014
1146	1.1393e+02	8.6019	10.710054	0.000164	1.638298	0.277535	-0.000016
1147	1.1403e+02	8.5928	10.690909	0.000193	1.925000	0.326104	-0.000019
1148	1.1413e+02	8.5808	10.673801	0.000172	1.720213	0.291412	-0.000017
1149	1.1423e+02	8.5717	10.657507	0.000164	1.638298	0.277535	-0.000016
1150	1.1433e+02	8.5623	10.639991	0.000176	1.761171	0.298350	-0.000018
1151	1.1442e+02	8.5519	10.621253	0.000188	1.884043	0.319166	-0.000019
1152	1.1452e+02	8.5416	10.604552	0.000168	1.679256	0.284474	-0.000017
1153	1.1462e+02	8.5361	10.592739	0.000119	1.187766	0.201213	-0.000012
1154	1.1472e+02	8.5234	10.575631	0.000172	1.720213	0.291412	-0.000017
1155	1.1482e+02	8.5144	10.556893	0.000188	1.884043	0.319166	-0.000019
1156	1.1492e+02	8.5024	10.540600	0.000164	1.638298	0.277535	-0.000016
1157	1.1502e+02	8.4934	10.523084	0.000176	1.761171	0.298350	-0.000018
1158	1.1512e+02	8.4814	10.503124	0.000201	2.006915	0.339981	-0.000020
1159	1.1522e+02	8.4727	10.486830	0.000164	1.638298	0.277535	-0.000016
1160	1.1532e+02	8.4628	10.465241	0.000217	2.170745	0.367734	-0.000022
1161	1.1542e+02	8.4531	10.448133	0.000172	1.720213	0.291412	-0.000017
1162	1.1552e+02	8.4412	10.427766	0.000205	2.047873	0.346919	-0.000020
1163	1.1562e+02	8.4318	10.411065	0.000168	1.679256	0.284474	-0.000017
1164	1.1572e+02	8.4223	10.389883	0.000213	2.129788	0.360796	-0.000021
1165	1.1582e+02	8.4109	10.371145	0.000188	1.884043	0.319166	-0.000019
1166	1.1592e+02	8.4038	10.359739	0.000115	1.146809	0.194275	-0.000011
1167	1.1602e+02	8.3926	10.338965	0.000209	2.088830	0.353857	-0.000021
1168	1.1612e+02	8.3847	10.323079	0.000160	1.597341	0.270597	-0.000016
1169	1.1622e+02	8.3712	10.307600	0.000156	1.556383	0.263658	-0.000016
1170	1.1632e+02	8.3619	10.290084	0.000176	1.761171	0.298350	-0.000018
1171	1.1642e+02	8.3546	10.267680	0.000225	2.252660	0.381611	-0.000023
1172	1.1651e+02	8.3424	10.255460	0.000123	1.228724	0.208151	-0.000012
1173	1.1661e+02	8.3351	10.230205	0.000254	2.539362	0.430180	-0.000025
1174	1.1671e+02	8.3237	10.213503	0.000168	1.679256	0.284474	-0.000017
1175	1.1681e+02	8.3136	10.197210	0.000164	1.638298	0.277535	-0.000016
1176	1.1691e+02	8.3067	10.180916	0.000164	1.638298	0.277535	-0.000016
1177	1.1701e+02	8.2932	10.162993	0.000180	1.802128	0.305289	-0.000018
1178	1.1711e+02	8.2847	10.145070	0.000180	1.802128	0.305289	-0.000018
1179	1.1721e+02	8.2750	10.127147	0.000180	1.802128	0.305289	-0.000018
1180	1.1731e+02	8.2648	10.111260	0.000160	1.597341	0.270597	-0.000016
1181	1.1741e+02	8.2535	10.097818	0.000135	1.351596	0.228967	-0.000014
1182	1.1751e+02	8.2436	10.077451	0.000205	2.047873	0.346919	-0.000020
1183	1.1761e+02	8.2327	10.064009	0.000135	1.351596	0.228967	-0.000014
1184	1.1771e+02	8.2211	10.047308	0.000168	1.679256	0.284474	-0.000017
1185	1.1781e+02	8.2129	10.037531	0.000098	0.982979	0.166521	-0.000010
1186	1.1791e+02	8.2035	10.015942	0.000217	2.170745	0.367734	-0.000022
1187	1.1801e+02	8.1939	9.998834	0.000172	1.720213	0.291412	-0.000017
1188	1.1811e+02	8.1840	9.984577	0.000143	1.433511	0.242843	-0.000014
1189	1.1821e+02	8.1766	9.971542	0.000131	1.310639	0.222028	-0.000013
1190	1.1831e+02	8.1632	9.957692	0.000139	1.392554	0.235905	-0.000014
1191	1.1841e+02	8.1562	9.940177	0.000176	1.761171	0.298350	-0.000018
1192	1.1850e+02	8.1479	9.923883	0.000164	1.638298	0.277535	-0.000016
1193	1.1860e+02	8.1325	9.906367	0.000176	1.761171	0.298350	-0.000018
1194	1.1870e+02	8.1224	9.894147	0.000123	1.228724	0.208151	-0.000012
1195	1.1880e+02	8.1161	9.873780	0.000205	2.047873	0.346919	-0.000020
1196	1.1890e+02	8.1059	9.858708	0.000152	1.515426	0.256720	-0.000015
1197	1.1900e+02	8.0933	9.846488	0.000123	1.228724	0.208151	-0.000012
1198	1.1910e+02	8.0869	9.831823	0.000147	1.474468	0.249782	-0.000015
1199	1.1920e+02	8.0753	9.812678	0.000193	1.925000	0.326104	-0.000019
1200	1.1930e+02	8.0659	9.800051	0.000127	1.269681	0.215090	-0.000013
1201	1.1940e+02	8.0563	9.786201	0.000139	1.392554	0.235905	-0.000014
1202	1.1950e+02	8.0458	9.769093	0.000172	1.720213	0.291412	-0.000017
1203	1.1960e+02	8.0386	9.754428	0.000147	1.474468	0.249782	-0.000015
1204	1.1970e+02	8.0253	9.738949	0.000156	1.556383	0.263658	-0.000016
1205	1.1980e+02	8.0132	9.725507	0.000135	1.351596	0.228967	-0.000014
1206	1.1990e+02	8.0032	9.708806	0.000168	1.679256	0.284474	-0.000017
1207	1.2000e+02	7.9941	9.689254	0.000197	1.965958	0.333042	-0.000020
1208	1.2010e+02	7.9884	9.676219	0.000131	1.310639	0.222028	-0.000013
1209	1.2020e+02	7.9783	9.659110	0.000172	1.720213	0.291412	-0.000017
1210	1.2030e+02	7.9639	9.647297	0.000119	1.187766	0.201213	-0.000012
1211	1.2039e+02	7.9557	9.628152	0.000193	1.925000	0.326104	-0.000019
1212	1.2049e+02	7.9492	9.615932	0.000123	1.228724	0.208151	-0.000012
1213	1.2059e+02	7.9379	9.597194	0.000188	1.884043	0.319166	-0.000019
1214	1.2069e+02	7.9241	9.586603	0.000106	1.064894	0.180398	-0.000011
1215	1.2079e+02	7.9163	9.573161	0.000135	1.351596	0.228967	-0.000014
1216	1.2089e+02	7.9064	9.558089	0.000152	1.515426	0.256720	-0.000015
1217	1.2099e+02	7.8949	9.540574	0.000176	1.761171	0.298350	-0.000018
1218	1.2109e+02	7.8850	9.527131	0.000135	1.351596	0.228967	-0.000014
1219	1.2119e+02	7.8770	9.511652	0.000156	1.556383	0.263658	-0.000016
1220	1.2129e+02	7.8687	9.494137	0.000176	1.761171	0.298350	-0.000018
1221	1.2139e+02	7.8575	9.479472	0.000147	1.474468	0.249782	-0.000015
1222	1.2149e+02	7.8426	9.461142	0.000184	1.843086	0.312227	-0.000018
1223	1.2159e+02	7.8388	9.446477	0.000147	1.474468	0.249782	-0.000015
1224	1.2169e+02	7.8234	9.433035	0.000135	1.351596	0.228967	-0.000014
1225	1.2179e+02	7.8178	9.417963	0.000152	1.515426	0.256720	-0.000015
1226	1.2189e+02	7.8076	9.398818	0.000193	1.925000	0.326104	-0.000019
1227	1.2199e+02	7.7964	9.386191	0.000127	1.269681	0.215090	-0.000013
1228	1.2209e+02	7.7858	9.374785	0.000115	1.146809	0.194275	-0.000011
1229	1.2219e+02	7.7757	9.356455	0.000184	1.843086	0.312227	-0.000018
1230	1.2229e+02	7.7663	9.341790	0.000147	1.474468	0.249782	-0.000015
1231	1.2239e+02	7.7599	9.326719	0.000152	1.515426	0.256720	-0.000015
1232	1.2248e+02	7.7443	9.316535	0.000102	1.023936	0.173460	-0.000010
1233	1.2258e+02	7.7378	9.301871	0.000147	1.474468	0.249782	-0.000015
1234	1.2268e+02	7.7265	9.286392	0.000156	1.556383	0.263658	-0.000016
1235	1.2278e+02	7.7155	9.272542	0.000139	1.392554	0.235905	-0.000014
1236	1.2288e+02	7.7058	9.259507	0.000131	1.310639	0.222028	-0.000013
1237	1.2298e+02	7.6944	9.242399	0.000172	1.720213	0.291412	-0.000017
1238	1.2308e+02	7.6881	9.230586	0.000119	1.187766	0.201213	-0.000012
1239	1.2318e+02	7.6807	9.214700	0.000160	1.597341	0.270597	-0.000016
1240	1.2328e+02	7.6660	9.199221	0.000156	1.556383	0.263658	-0.000016
1241	1.2338e+02	7.6585	9.185778	0.000135	1.351596	0.228967	-0.000014
1242	1.2348e+02	7.6459	9.175187	0.000106	1.064894	0.180398	-0.000011
1243	1.2358e+02	7.6367	9.158486	0.000168	1.679256	0.284474	-0.000017
1244	1.2368e+02	7.6279	9.147895	0.000106	1.064894	0.180398	-0.000011
1245	1.2378e+02	7.6163	9.134860	0.000131	1.310639	0.222028	-0.000013
1246	1.2388e+02	7.6074	9.121825	0.000131	1.310639	0.222028	-0.000013
1247	1.2398e+02	7.5954	9.109605	0.000123	1.228724	0.208151	-0.000012
1248	1.2408e+02	7.5886	9.095348	0.000143	1.433511	0.242843	-0.000014
1249	1.2418e+02	7.5753	9.079869	0.000156	1.556383	0.263658	-0.000016
1250	1.2428e+02	7.5668	9.065205	0.000147	1.474468	0.249782	-0.000015
1251	1.2438e+02	7.5575	9.051763	0.000135	1.351596	0.228967	-0.000014
1252	1.2447e+02	7.5492	9.037506	0.000143	1.433511	0.242843	-0.000014
1253	1.2457e+02	7.5398	9.020804	0.000168	1.679256	0.284474	-0.000017
1254	1.2467e+02	7.5269	9.006955	0.000139	1.392554	0.235905	-0.000014
1255	1.2477e+02	7.5186	8.993920	0.000131	1.310639	0.222028	-0.000013
1256	1.2487e+02	7.5082	8.978848	0.000152	1.515426	0.256720	-0.000015
1257	1.2497e+02	7.4998	8.964999	0.000139	1.392554	0.235905	-0.000014
1258	1.2507e+02	7.4876	8.950742	0.000143	1.433511	0.242843	-0.000014
1259	1.2517e+02	7.4769	8.934855	0.000160	1.597341	0.270597	-0.000016
1260	1.2527e+02	7.4670	8.919376	0.000156	1.556383	0.263658	-0.000016
1261	1.2537e+02	7.4578	8.903082	0.000164	1.638298	0.277535	-0.000016
1262	1.2547e+02	7.4474	8.886789	0.000164	1.638298	0.277535	-0.000016
1263	1.2557e+02	7.4394	8.868866	0.000180	1.802128	0.305289	-0.000018
1264	1.2567e+02	7.4292	8.855831	0.000131	1.310639	0.222028	-0.000013
1265	1.2577e+02	7.4187	8.836278	0.000197	1.965958	0.333042	-0.000020
1266	1.2587e+02	7.4090	8.817133	0.000193	1.925000	0.326104	-0.000019
1267	1.2597e+02	7.3971	8.802062	0.000152	1.515426	0.256720	-0.000015
1268	1.2607e+02	7.3888	8.785360	0.000168	1.679256	0.284474	-0.000017
1269	1.2617e+02	7.3817	8.767437	0.000180	1.802128	0.305289	-0.000018
1270	1.2627e+02	7.3682	8.750736	0.000168	1.679256	0.284474	-0.000017
1271	1.2636e+02	7.3598	8.733628	0.000172	1.720213	0.291412	-0.000017
1272	1.2646e+02	7.3488	8.715298	0.000184	1.843086	0.312227	-0.000018
1273	1.2656e+02	7.3406	8.701041	0.000143	1.433511	0.242843	-0.000014
1274	1.2666e+02	7.3279	8.683525	0.000176	1.761171	0.298350	-0.000018
1275	1.2676e+02	7.3171	8.664380	0.000193	1.925000	0.326104	-0.000019
1276	1.2686e+02	7.3087	8.644013	0.000205	2.047873	0.346919	-0.000020
1277	1.2696e+02	7.3003	8.626904	0.000172	1.720213	0.291412	-0.000017
1278	1.2706e+02	7.2926	8.612647	0.000143	1.433511	0.242843	-0.000014
1279	1.2716e+02	7.2803	8.592687	0.000201	2.006915	0.339981	-0.000020
1280	1.2726e+02	7.2684	8.575172	0.000176	1.761171	0.298350	-0.000018
1281	1.2736e+02	7.2576	8.557656	0.000176	1.761171	0.298350	-0.000018
1282	1.2746e+02	7.2482	8.540140	0.000176	1.761171	0.298350	-0.000018
1283	1.2756e+02	7.2390	8.518958	0.000213	2.129788	0.360796	-0.000021
1284	1.2766e+02	7.2308	8.501035	0.000180	1.802128	0.305289	-0.000018
1285	1.2776e+02	7.2202	8.485964	0.000152	1.515426	0.256720	-0.000015
1286	1.2786e+02	7.2082	8.468041	0.000180	1.802128	0.305289	-0.000018
1287	1.2796e+02	7.1976	8.446451	0.000217	2.170745	0.367734	-0.000022
1288	1.2806e+02	7.1877	8.427714	0.000188	1.884043	0.319166	-0.000019
1289	1.2816e+02	7.1802	8.408976	0.000188	1.884043	0.319166	-0.000019
1290	1.2826e+02	7.1694	8.390238	0.000188	1.884043	0.319166	-0.000019
1291	1.2835e+02	7.1593	8.373945	0.000164	1.638298	0.277535	-0.000016
1292	1.2845e+02	7.1502	8.354799	0.000193	1.925000	0.326104	-0.000019
1293	1.2855e+02	7.1389	8.337284	0.000176	1.761171	0.298350	-0.000018
1294	1.2865e+02	7.1279	8.317324	0.000201	2.006915	0.339981	-0.000020
1295	1.2875e+02	7.1151	8.297364	0.000201	2.006915	0.339981	-0.000020
1296	1.2885e+02	7.1108	8.279034	0.000184	1.843086	0.312227	-0.000018
1297	1.2895e+02	7.0986	8.262333	0.000168	1.679256	0.284474	-0.000017
1298	1.2905e+02	7.0914	8.239929	0.000225	2.252660	0.381611	-0.000023
1299	1.2915e+02	7.0803	8.222006	0.000180	1.802128	0.305289	-0.000018
1300	1.2925e+02	7.0687	8.203268	0.000188	1.884043	0.319166	-0.000019
1301	1.2935e+02	7.0605	8.186974	0.000164	1.638298	0.277535	-0.000016
1302	1.2945e+02	7.0515	8.162941	0.000242	2.416490	0.409364	-0.000024
1303	1.2955e+02	7.0416	8.147869	0.000152	1.515426	0.256720	-0.000015
1304	1.2965e+02	7.0290	8.129132	0.000188	1.884043	0.319166	-0.000019
1305	1.2975e+02	7.0216	8.107950	0.000213	2.129788	0.360796	-0.000021
1306	1.2985e+02	7.0120	8.090027	0.000180	1.802128	0.305289	-0.000018
1307	1.2995e+02	7.0002	8.073733	0.000164	1.638298	0.277535	-0.000016
1308	1.3005e+02	6.9887	8.050922	0.000229	2.293618	0.388549	-0.000023
1309	1.3015e+02	6.9788	8.030555	0.000205	2.047873	0.346919	-0.000020
1310	1.3025e+02	6.9735	8.010595	0.000201	2.006915	0.339981	-0.000020
1311	1.3034e+02	6.9612	7.992265	0.000184	1.843086	0.312227	-0.000018
1312	1.3044e+02	6.9494	7.974749	0.000176	1.761171	0.298350	-0.000018
1313	1.3054e+02	6.9421	7.956418	0.000184	1.843086	0.312227	-0.000018
1314	1.3064e+02	6.9302	7.930756	0.000258	2.580320	0.437118	-0.000026
1315	1.3074e+02	6.9191	7.912018	0.000188	1.884043	0.319166	-0.000019
1316	1.3084e+02	6.9141	7.890836	0.000213	2.129788	0.360796	-0.000021
1317	1.3094e+02	6.9008	7.870876	0.000201	2.006915	0.339981	-0.000020
1318	1.3104e+02	6.8905	7.851324	0.000197	1.965958	0.333042	-0.000020
1319	1.3114e+02	6.8825	7.830550	0.000209	2.088830	0.353857	-0.000021
1320	1.3124e+02	6.8694	7.811404	0.000193	1.925000	0.326104	-0.000019
1321	1.3134e+02	6.8629	7.792259	0.000193	1.925000	0.326104	-0.000019
1322	1.3144e+02	6.8514	7.772300	0.000201	2.006915	0.339981	-0.000020
1323	1.3154e+02	6.8409	7.750710	0.000217	2.170745	0.367734	-0.000022
1324	1.3164e+02	6.8320	7.730751	0.000201	2.006915	0.339981	-0.000020
1325	1.3174e+02	6.8198	7.704681	0.000262	2.621277	0.444056	-0.000026
1326	1.3184e+02	6.8096	7.686350	0.000184	1.843086	0.312227	-0.000018
1327	1.3194e+02	6.8029	7.663132	0.000233	2.334575	0.395488	-0.000023
1328	1.3204e+02	6.7908	7.640728	0.000225	2.252660	0.381611	-0.000023
1329	1.3214e+02	6.7827	7.617102	0.000238	2.375532	0.402426	-0.000024
1330	1.3224e+02	6.7693	7.596735	0.000205	2.047873	0.346919	-0.000020
1331	1.3234e+02	6.7617	7.574331	0.000225	2.252660	0.381611	-0.000023
1332	1.3243e+02	6.7506	7.552742	0.000217	2.170745	0.367734	-0.000022
1333	1.3253e+02	6.7407	7.530745	0.000221	2.211703	0.374673	-0.000022
1334	1.3263e+02	6.7315	7.512008	0.000188	1.884043	0.319166	-0.000019
1335	1.3273e+02	6.7208	7.491233	0.000209	2.088830	0.353857	-0.000021
1336	1.3283e+02	6.7123	7.472903	0.000184	1.843086	0.312227	-0.000018
1337	1.3293e+02	6.7023	7.454572	0.000184	1.843086	0.312227	-0.000018
1338	1.3303e+02	6.6927	7.428910	0.000258	2.580320	0.437118	-0.000026
1339	1.3313e+02	6.6813	7.410987	0.000180	1.802128	0.305289	-0.000018
1340	1.3323e+02	6.6708	7.388990	0.000221	2.211703	0.374673	-0.000022
1341	1.3333e+02	6.6608	7.369030	0.000201	2.006915	0.339981	-0.000020
1342	1.3343e+02	6.6504	7.346627	0.000225	2.252660	0.381611	-0.000023
1343	1.3353e+02	6.6432	7.328296	0.000184	1.843086	0.312227	-0.000018
1344	1.3363e+02	6.6318	7.306300	0.000221	2.211703	0.374673	-0.000022
1345	1.3373e+02	6.6240	7.287155	0.000193	1.925000	0.326104	-0.000019
1346	1.3383e+02	6.6103	7.266787	0.000205	2.047873	0.346919	-0.000020
1347	1.3393e+02	6.6035	7.250086	0.000168	1.679256	0.284474	-0.000017
1348	1.3403e+02	6.5922	7.229312	0.000209	2.088830	0.353857	-0.000021
1349	1.3413e+02	6.5842	7.214240	0.000152	1.515426	0.256720	-0.000015
1350	1.3423e+02	6.5710	7.193466	0.000209	2.088830	0.353857	-0.000021
1351	1.3432e+02	6.5641	7.173913	0.000197	1.965958	0.333042	-0.000020
1352	1.3442e+02	6.5507	7.158842	0.000152	1.515426	0.256720	-0.000015
1353	1.3452e+02	6.5432	7.137660	0.000213	2.129788	0.360796	-0.000021
1354	1.3462e+02	6.5314	7.117700	0.000201	2.006915	0.339981	-0.000020
1355	1.3472e+02	6.5240	7.103036	0.000147	1.474468	0.249782	-0.000015
1356	1.3482e+02	6.5122	7.083076	0.000201	2.006915	0.339981	-0.000020
1357	1.3492e+02	6.5010	7.063931	0.000193	1.925000	0.326104	-0.000019
1358	1.3502e+02	6.4953	7.045600	0.000184	1.843086	0.312227	-0.000018
1359	1.3512e+02	6.4842	7.029714	0.000160	1.597341	0.270597	-0.000016
1360	1.3522e+02	6.4730	7.008940	0.000209	2.088830	0.353857	-0.000021
1361	1.3532e+02	6.4606	6.992239	0.000168	1.679256	0.284474	-0.000017
1362	1.3542e+02	6.4502	6.970242	0.000221	2.211703	0.374673	-0.000022
1363	1.3552e+02	6.4433	6.955170	0.000152	1.515426	0.256720	-0.000015
1364	1.3562e+02	6.4332	6.934803	0.000205	2.047873	0.346919	-0.000020
1365	1.3572e+02	6.4236	6.919324	0.000156	1.556383	0.263658	-0.000016
1366	1.3582e+02	6.4124	6.898550	0.000209	2.088830	0.353857	-0.000021
1367	1.3592e+02	6.4039	6.886737	0.000119	1.187766	0.201213	-0.000012
1368	1.3602e+02	6.3954	6.865148	0.000217	2.170745	0.367734	-0.000022
1369	1.3612e+02	6.3819	6.850076	0.000152	1.515426	0.256720	-0.000015
1370	1.3622e+02	6.3747	6.831338	0.000188	1.884043	0.319166	-0.000019
1371	1.3631e+02	6.3631	6.814230	0.000172	1.720213	0.291412	-0.000017
1372	1.3641e+02	6.3529	6.792233	0.000221	2.211703	0.374673	-0.000022
1373	1.3651e+02	6.3415	6.778791	0.000135	1.351596	0.228967	-0.000014
1374	1.3661e+02	6.3348	6.759239	0.000197	1.965958	0.333042	-0.000020
1375	1.3671e+02	6.3274	6.746204	0.000131	1.310639	0.222028	-0.000013
1376	1.3681e+02	6.3119	6.723800	0.000225	2.252660	0.381611	-0.000023
1377	1.3691e+02	6.3046	6.705469	0.000184	1.843086	0.312227	-0.000018
1378	1.3701e+02	6.2965	6.689176	0.000164	1.638298	0.277535	-0.000016
1379	1.3711e+02	6.2859	6.672882	0.000164	1.638298	0.277535	-0.000016
1380	1.3721e+02	6.2737	6.657403	0.000156	1.556383	0.263658	-0.000016
1381	1.3731e+02	6.2647	6.641109	0.000164	1.638298	0.277535	-0.000016
1382	1.3741e+02	6.2535	6.620335	0.000209	2.088830	0.353857	-0.000021
1383	1.3751e+02	6.2463	6.604041	0.000164	1.638298	0.277535	-0.000016
1384	1.3761e+02	6.2350	6.584896	0.000193	1.925000	0.326104	-0.000019
1385	1.3771e+02	6.2252	6.569824	0.000152	1.515426	0.256720	-0.000015
1386	1.3781e+02	6.2165	6.551087	0.000188	1.884043	0.319166	-0.000019
1387	1.3791e+02	6.2061	6.536422	0.000147	1.474468	0.249782	-0.000015
1388	1.3801e+02	6.1959	6.518092	0.000184	1.843086	0.312227	-0.000018
1389	1.3811e+02	6.1845	6.498947	0.000193	1.925000	0.326104	-0.000019
1390	1.3821e+02	6.1753	6.478172	0.000209	2.088830	0.353857	-0.000021
1391	1.3831e+02	6.1654	6.463915	0.000143	1.433511	0.242843	-0.000014
1392	1.3840e+02	6.1550	6.443955	0.000201	2.006915	0.339981	-0.000020
1393	1.3850e+02	6.1437	6.425218	0.000188	1.884043	0.319166	-0.000019
1394	1.3860e+02	6.1356	6.411368	0.000139	1.392554	0.235905	-0.000014
1395	1.3870e+02	6.1260	6.392630	0.000188	1.884043	0.319166	-0.000019
1396	1.3880e+02	6.1144	6.378373	0.000143	1.433511	0.242843	-0.000014
1397	1.3890e+02	6.1063	6.361265	0.000172	1.720213	0.291412	-0.000017
1398	1.3900e+02	6.0952	6.344157	0.000172	1.720213	0.291412	-0.000017
1399	1.3910e+02	6.0860	6.328270	0.000160	1.597341	0.270597	-0.000016
1400	1.3920e+02	6.0746	6.313199	0.000152	1.515426	0.256720	-0.000015
1401	1.3930e+02	6.0642	6.296497	0.000168	1.679256	0.284474	-0.000017
1402	1.3940e+02	6.0567	6.281833	0.000147	1.474468	0.249782	-0.000015
1403	1.3950e+02	6.0474	6.262688	0.000193	1.925000	0.326104	-0.000019
1404	1.3960e+02	6.0354	6.245987	0.000168	1.679256	0.284474	-0.000017
1405	1.3970e+02	6.0255	6.232545	0.000135	1.351596	0.228967	-0.000014
1406	1.3980e+02	6.0134	6.214622	0.000180	1.802128	0.305289	-0.000018
1407	1.3990e+02	6.0061	6.197106	0.000176	1.761171	0.298350	-0.000018
1408	1.4000e+02	5.9942	6.183664	0.000135	1.351596	0.228967	-0.000014
1409	1.4010e+02	5.9879	6.167777	0.000160	1.597341	0.270597	-0.000016
1410	1.4020e+02	5.9756	6.151891	0.000160	1.597341	0.270597	-0.000016
1411	1.4029e+02	5.9652	6.133968	0.000180	1.802128	0.305289	-0.000018
1412	1.4039e+02	5.9530	6.123377	0.000106	1.064894	0.180398	-0.000011
1413	1.4049e+02	5.9481	6.109120	0.000143	1.433511	0.242843	-0.000014
1414	1.4059e+02	5.9357	6.094863	0.000143	1.433511	0.242843	-0.000014
1415	1.4069e+02	5.9261	6.079791	0.000152	1.515426	0.256720	-0.000015
1416	1.4079e+02	5.9177	6.059424	0.000205	2.047873	0.346919	-0.000020
1417	1.4089e+02	5.9072	6.043130	0.000164	1.638298	0.277535	-0.000016
1418	1.4099e+02	5.8959	6.026022	0.000172	1.720213	0.291412	-0.000017
1419	1.4109e+02	5.8857	6.009728	0.000164	1.638298	0.277535	-0.000016
1420	1.4119e+02	5.8767	5.997101	0.000127	1.269681	0.215090	-0.000013
1421	1.4129e+02	5.8662	5.978770	0.000184	1.843086	0.312227	-0.000018
1422	1.4139e+02	5.8556	5.964513	0.000143	1.433511	0.242843	-0.000014
1423	1.4149e+02	5.8459	5.945776	0.000188	1.884043	0.319166	-0.000019
1424	1.4159e+02	5.8366	5.929889	0.000160	1.597341	0.270597	-0.000016
1425	1.4169e+02	5.8276	5.910337	0.000197	1.965958	0.333042	-0.000020
1426	1.4179e+02	5.8163	5.895265	0.000152	1.515426	0.256720	-0.000015
1427	1.4189e+02	5.8099	5.876527	0.000188	1.884043	0.319166	-0.000019
1428	1.4199e+02	5.7998	5.863085	0.000135	1.351596	0.228967	-0.000014
1429	1.4209e+02	5.7886	5.843125	0.000201	2.006915	0.339981	-0.000020
1430	1.4219e+02	5.7764	5.821536	0.000217	2.170745	0.367734	-0.000022
1431	1.4228e+02	5.7670	5.804835	0.000168	1.679256	0.284474	-0.000017
1432	1.4238e+02	5.7546	5.784468	0.000205	2.047873	0.346919	-0.000020
1433	1.4248e+02	5.7475	5.768582	0.000160	1.597341	0.270597	-0.000016
1434	1.4258e+02	5.7380	5.749844	0.000188	1.884043	0.319166	-0.000019
1435	1.4268e+02	5.7278	5.730291	0.000197	1.965958	0.333042	-0.000020
1436	1.4278e+02	5.7192	5.712368	0.000180	1.802128	0.305289	-0.000018
1437	1.4288e+02	5.7098	5.693631	0.000188	1.884043	0.319166	-0.000019
1438	1.4298e+02	5.6959	5.673263	0.000205	2.047873	0.346919	-0.000020
1439	1.4308e+02	5.6873	5.654118	0.000193	1.925000	0.326104	-0.000019
1440	1.4318e+02	5.6756	5.633751	0.000205	2.047873	0.346919	-0.000020
1441	1.4328e+02	5.6653	5.617865	0.000160	1.597341	0.270597	-0.000016
1442	1.4338e+02	5.6592	5.594239	0.000238	2.375532	0.402426	-0.000024
1443	1.4348e+02	5.6469	5.574686	0.000197	1.965958	0.333042	-0.000020
1444	1.4358e+02	5.6387	5.557578	0.000172	1.720213	0.291412	-0.000017
1445	1.4368e+02	5.6289	5.541692	0.000160	1.597341	0.270597	-0.000016
1446	1.4378e+02	5.6173	5.518066	0.000238	2.375532	0.402426	-0.000024
1447	1.4388e+02	5.6077	5.500957	0.000172	1.720213	0.291412	-0.000017
1448	1.4398e+02	5.5975	5.481812	0.000193	1.925000	0.326104	-0.000019
1449	1.4408e+02	5.5878	5.459816	0.000221	2.211703	0.374673	-0.000022
1450	1.4418e+02	5.5776	5.440671	0.000193	1.925000	0.326104	-0.000019
1451	1.4428e+02	5.5660	5.418267	0.000225	2.252660	0.381611	-0.000023
1452	1.4437e+02	5.5575	5.397900	0.000205	2.047873	0.346919	-0.000020
1453	1.4447e+02	5.5489	5.375903	0.000221	2.211703	0.374673	-0.000022
1454	1.4457e+02	5.5358	5.358388	0.000176	1.761171	0.298350	-0.000018
1455	1.4467e+02	5.5273	5.335984	0.000225	2.252660	0.381611	-0.000023
1456	1.4477e+02	5.5173	5.316431	0.000197	1.965958	0.333042	-0.000020
1457	1.4487e+02	5.5093	5.296879	0.000197	1.965958	0.333042	-0.000020
1458	1.4497e+02	5.4997	5.274882	0.000221	2.211703	0.374673	-0.000022
1459	1.4507e+02	5.4858	5.258181	0.000168	1.679256	0.284474	-0.000017
1460	1.4517e+02	5.4769	5.236592	0.000217	2.170745	0.367734	-0.000022
1461	1.4527e+02	5.4671	5.218262	0.000184	1.843086	0.312227	-0.000018
1462	1.4537e+02	5.4595	5.197487	0.000209	2.088830	0.353857	-0.000021
1463	1.4547e+02	5.4475	5.175083	0.000225	2.252660	0.381611	-0.000023
1464	1.4557e+02	5.4395	5.157568	0.000176	1.761171	0.298350	-0.000018
1465	1.4567e+02	5.4311	5.135571	0.000221	2.211703	0.374673	-0.000022
1466	1.4577e+02	5.4165	5.112353	0.000233	2.334575	0.395488	-0.000023
1467	1.4587e+02	5.4089	5.088727	0.000238	2.375532	0.402426	-0.000024
1468	1.4597e+02	5.3996	5.069582	0.000193	1.925000	0.326104	-0.000019
1469	1.4607e+02	5.3884	5.050029	0.000197	1.965958	0.333042	-0.000020
1470	1.4617e+02	5.3760	5.027625	0.000225	2.252660	0.381611	-0.000023
1471	1.4626e+02	5.3707	5.009295	0.000184	1.843086	0.312227	-0.000018
1472	1.4636e+02	5.3605	4.982818	0.000266	2.662235	0.450995	-0.000027
1473	1.4646e+02	5.3484	4.968968	0.000139	1.392554	0.235905	-0.000014
1474	1.4656e+02	5.3418	4.946564	0.000225	2.252660	0.381611	-0.000023
1475	1.4666e+02	5.3289	4.925382	0.000213	2.129788	0.360796	-0.000021
1476	1.4676e+02	5.3207	4.906645	0.000188	1.884043	0.319166	-0.000019
1477	1.4686e+02	5.3109	4.881797	0.000250	2.498405	0.423241	-0.000025
1478	1.4696e+02	5.3005	4.861430	0.000205	2.047873	0.346919	-0.000020
1479	1.4706e+02	5.2876	4.843507	0.000180	1.802128	0.305289	-0.000018
1480	1.4716e+02	5.2788	4.817029	0.000266	2.662235	0.450995	-0.000027
1481	1.4726e+02	5.2708	4.799921	0.000172	1.720213	0.291412	-0.000017
1482	1.4736e+02	5.2613	4.775073	0.000250	2.498405	0.423241	-0.000025
1483	1.4746e+02	5.2506	4.750225	0.000250	2.498405	0.423241	-0.000025
1484	1.4756e+02	5.2396	4.730673	0.000197	1.965958	0.333042	-0.000020
1485	1.4766e+02	5.2306	4.709491	0.000213	2.129788	0.360796	-0.000021
1486	1.4776e+02	5.2193	4.685865	0.000238	2.375532	0.402426	-0.000024
1487	1.4786e+02	5.2105	4.666313	0.000197	1.965958	0.333042	-0.000020
1488	1.4796e+02	5.1980	4.640243	0.000262	2.621277	0.444056	-0.000026
1489	1.4806e+02	5.1913	4.618654	0.000217	2.170745	0.367734	-0.000022
1490	1.4816e+02	5.1797	4.598694	0.000201	2.006915	0.339981	-0.000020
1491	1.4825e+02	5.1678	4.575475	0.000233	2.334575	0.395488	-0.000023
1492	1.4835e+02	5.1586	4.555108	0.000205	2.047873	0.346919	-0.000020
1493	1.4845e+02	5.1482	4.531075	0.000242	2.416490	0.409364	-0.000024
1494	1.4855e+02	5.1382	4.508264	0.000229	2.293618	0.388549	-0.000023
1495	1.4865e+02	5.1311	4.482601	0.000258	2.580320	0.437118	-0.000026
1496	1.4875e+02	5.1225	4.460197	0.000225	2.252660	0.381611	-0.000023
1497	1.4885e+02	5.1095	4.435757	0.000246	2.457447	0.416303	-0.000025
1498	1.4895e+02	5.1011	4.408465	0.000274	2.744150	0.464872	-0.000027
1499	1.4905e+02	5.0906	4.389320	0.000193	1.925000	0.326104	-0.000019
1500	1.4915e+02	5.0790	4.364879	0.000246	2.457447	0.416303	-0.000025
1501	1.4925e+02	5.0710	4.340846	0.000242	2.416490	0.409364	-0.000024
1502	1.4935e+02	5.0602	4.324145	0.000168	1.679256	0.284474	-0.000017
1503	1.4945e+02	5.0497	4.299704	0.000246	2.457447	0.416303	-0.000025
1504	1.4955e+02	5.0430	4.275671	0.000242	2.416490	0.409364	-0.000024
1505	1.4965e+02	5.0316	4.253675	0.000221	2.211703	0.374673	-0.000022
1506	1.4975e+02	5.0200	4.230456	0.000233	2.334575	0.395488	-0.000023
1507	1.4985e+02	5.0098	4.210904	0.000197	1.965958	0.333042	-0.000020
1508	1.4995e+02	5.0002	4.187278	0.000238	2.375532	0.402426	-0.000024
1509	1.5005e+02	4.9915	4.164874	0.000225	2.252660	0.381611	-0.000023
1510	1.5015e+02	4.9812	4.143692	0.000213	2.129788	0.360796	-0.000021
1511	1.5025e+02	4.9716	4.121696	0.000221	2.211703	0.374673	-0.000022
1512	1.5034e+02	4.9615	4.102143	0.000197	1.965958	0.333042	-0.000020
1513	1.5044e+02	4.9521	4.082998	0.000193	1.925000	0.326104	-0.000019
1514	1.5054e+02	4.9404	4.056521	0.000266	2.662235	0.450995	-0.000027
1515	1.5064e+02	4.9306	4.039820	0.000168	1.679256	0.284474	-0.000017
1516	1.5074e+02	4.9221	4.015787	0.000242	2.416490	0.409364	-0.000024
1517	1.5084e+02	4.9118	3.999493	0.000164	1.638298	0.277535	-0.000016
1518	1.5094e+02	4.9030	3.978718	0.000209	2.088830	0.353857	-0.000021
1519	1.5104e+02	4.8957	3.957537	0.000213	2.129788	0.360796	-0.000021
1520	1.5114e+02	4.8818	3.933096	0.000246	2.457447	0.416303	-0.000025
1521	1.5124e+02	4.8709	3.917617	0.000156	1.556383	0.263658	-0.000016
1522	1.5134e+02	4.8605	3.893991	0.000238	2.375532	0.402426	-0.000024
1523	1.5144e+02	4.8508	3.873217	0.000209	2.088830	0.353857	-0.000021
1524	1.5154e+02	4.8431	3.853664	0.000197	1.965958	0.333042	-0.000020
1525	1.5164e+02	4.8332	3.839407	0.000143	1.433511	0.242843	-0.000014
1526	1.5174e+02	4.8205	3.817818	0.000217	2.170745	0.367734	-0.000022
1527	1.5184e+02	4.8118	3.795822	0.000221	2.211703	0.374673	-0.000022
1528	1.5194e+02	4.8025	3.778713	0.000172	1.720213	0.291412	-0.000017
1529	1.5204e+02	4.7930	3.757939	0.000209	2.088830	0.353857	-0.000021
1530	1.5214e+02	4.7803	3.736350	0.000217	2.170745	0.367734	-0.000022
1531	1.5224e+02	4.7717	3.716390	0.000201	2.006915	0.339981	-0.000020
1532	1.5233e+02	4.7626	3.696837	0.000197	1.965958	0.333042	-0.000020
1533	1.5243e+02	4.7555	3.679322	0.000176	1.761171	0.298350	-0.000018
1534	1.5253e+02	4.7444	3.657325	0.000221	2.211703	0.374673	-0.000022
1535	1.5263e+02	4.7347	3.638995	0.000184	1.843086	0.312227	-0.000018
1536	1.5273e+02	4.7207	3.621479	0.000176	1.761171	0.298350	-0.000018
1537	1.5283e+02	4.7106	3.601927	0.000197	1.965958	0.333042	-0.000020
1538	1.5293e+02	4.7053	3.586447	0.000156	1.556383	0.263658	-0.000016
1539	1.5303e+02	4.6928	3.564858	0.000217	2.170745	0.367734	-0.000022
1540	1.5313e+02	4.6828	3.543269	0.000217	2.170745	0.367734	-0.000022
1541	1.5323e+02	4.6725	3.525346	0.000180	1.802128	0.305289	-0.000018
1542	1.5333e+02	4.6616	3.507016	0.000184	1.843086	0.312227	-0.000018
1543	1.5343e+02	4.6529	3.481760	0.000254	2.539362	0.430180	-0.000025
1544	1.5353e+02	4.6429	3.467911	0.000139	1.392554	0.235905	-0.000014
1545	1.5363e+02	4.6314	3.448358	0.000197	1.965958	0.333042	-0.000020
1546	1.5373e+02	4.6221	3.426362	0.000221	2.211703	0.374673	-0.000022
1547	1.5383e+02	4.6136	3.404773	0.000217	2.170745	0.367734	-0.000022
1548	1.5393e+02	4.6014	3.390108	0.000147	1.474468	0.249782	-0.000015
1549	1.5403e+02	4.5910	3.370556	0.000197	1.965958	0.333042	-0.000020
1550	1.5413e+02	4.5849	3.352226	0.000184	1.843086	0.312227	-0.000018
1551	1.5422e+02	4.5725	3.335117	0.000172	1.720213	0.291412	-0.000017
1552	1.5432e+02	4.5631	3.314343	0.000209	2.088830	0.353857	-0.000021
1553	1.5442e+02	4.5524	3.296420	0.000180	1.802128	0.305289	-0.000018
1554	1.5452e+02	4.5438	3.277274	0.000193	1.925000	0.326104	-0.000019
1555	1.5462e+02	4.5332	3.255685	0.000217	2.170745	0.367734	-0.000022
1556	1.5472e+02	4.5240	3.237762	0.000180	1.802128	0.305289	-0.000018
1557	1.5482e+02	4.5158	3.217802	0.000201	2.006915	0.339981	-0.000020
1558	1.5492e+02	4.5058	3.199472	0.000184	1.843086	0.312227	-0.000018
1559	1.5502e+02	4.4924	3.178290	0.000213	2.129788	0.360796	-0.000021
1560	1.5512e+02	4.4846	3.156294	0.000221	2.211703	0.374673	-0.000022
1561	1.5522e+02	4.4740	3.140000	0.000164	1.638298	0.277535	-0.000016
1562	1.5532e+02	4.4640	3.122077	0.000180	1.802128	0.305289	-0.000018
1563	1.5542e+02	4.4530	3.104561	0.000176	1.761171	0.298350	-0.000018
1564	1.5552e+02	4.4432	3.084194	0.000205	2.047873	0.346919	-0.000020
1565	1.5562e+02	4.4334	3.064642	0.000197	1.965958	0.333042	-0.000020
1566	1.5572e+02	4.4245	3.049570	0.000152	1.515426	0.256720	-0.000015
1567	1.5582e+02	4.4122	3.033276	0.000164	1.638298	0.277535	-0.000016
1568	1.5592e+02	4.4032	3.013724	0.000197	1.965958	0.333042	-0.000020
1569	1.5602e+02	4.3932	2.999060	0.000147	1.474468	0.249782	-0.000015
1570	1.5612e+02	4.3840	2.979507	0.000197	1.965958	0.333042	-0.000020
1571	1.5622e+02	4.3764	2.962806	0.000168	1.679256	0.284474	-0.000017
1572	1.5631e+02	4.3640	2.941624	0.000213	2.129788	0.360796	-0.000021
1573	1.5641e+02	4.3571	2.924516	0.000172	1.720213	0.291412	-0.000017
1574	1.5651e+02	4.3442	2.905778	0.000188	1.884043	0.319166	-0.000019
1575	1.5661e+02	4.3360	2.888262	0.000176	1.761171	0.298350	-0.000018
1576	1.5671e+02	4.3244	2.874005	0.000143	1.433511	0.242843	-0.000014
1577	1.5681e+02	4.3171	2.852009	0.000221	2.211703	0.374673	-0.000022
1578	1.5691e+02	4.3046	2.837345	0.000147	1.474468	0.249782	-0.000015
1579	1.5701e+02	4.2959	2.820643	0.000168	1.679256	0.284474	-0.000017
1580	1.5711e+02	4.2858	2.806387	0.000143	1.433511	0.242843	-0.000014
1581	1.5721e+02	4.2715	2.791315	0.000152	1.515426	0.256720	-0.000015
1582	1.5731e+02	4.2635	2.771355	0.000201	2.006915	0.339981	-0.000020
1583	1.5741e+02	4.2556	2.752210	0.000193	1.925000	0.326104	-0.000019
1584	1.5751e+02	4.2457	2.737953	0.000143	1.433511	0.242843	-0.000014
1585	1.5761e+02	4.2355	2.717993	0.000201	2.006915	0.339981	-0.000020
1586	1.5771e+02	4.2262	2.699255	0.000188	1.884043	0.319166	-0.000019
1587	1.5781e+02	4.2142	2.678888	0.000205	2.047873	0.346919	-0.000020
1588	1.5791e+02	4.2054	2.666668	0.000123	1.228724	0.208151	-0.000012
1589	1.5801e+02	4.1955	2.647930	0.000188	1.884043	0.319166	-0.000019
1590	1.5811e+02	4.1846	2.627970	0.000201	2.006915	0.339981	-0.000020
1591	1.5821e+02	4.1743	2.610862	0.000172	1.720213	0.291412	-0.000017
1592	1.5830e+02	4.1655	2.592532	0.000184	1.843086	0.312227	-0.000018
1593	1.5840e+02	4.1556	2.573387	0.000193	1.925000	0.326104	-0.000019
1594	1.5850e+02	4.1442	2.550168	0.000233	2.334575	0.395488	-0.000023
1595	1.5860e+02	4.1355	2.535504	0.000147	1.474468	0.249782	-0.000015
1596	1.5870e+02	4.1243	2.515544	0.000201	2.006915	0.339981	-0.000020
1597	1.5880e+02	4.1137	2.493955	0.000217	2.170745	0.367734	-0.000022
1598	1.5890e+02	4.1055	2.476846	0.000172	1.720213	0.291412	-0.000017
1599	1.5900e+02	4.0945	2.458109	0.000188	1.884043	0.319166	-0.000019
1600	1.5910e+02	4.0852	2.439371	0.000188	1.884043	0.319166	-0.000019
1601	1.5920e+02	4.0768	2.414930	0.000246	2.457447	0.416303	-0.000025
1602	1.5930e+02	4.0655	2.393341	0.000217	2.170745	0.367734	-0.000022
1603	1.5940e+02	4.0543	2.372974	0.000205	2.047873	0.346919	-0.000020
1604	1.5950e+02	4.0459	2.351792	0.000213	2.129788	0.360796	-0.000021
1605	1.5960e+02	4.0352	2.335499	0.000164	1.638298	0.277535	-0.000016
1606	1.5970e+02	4.0257	2.309021	0.000266	2.662235	0.450995	-0.000027
1607	1.5980e+02	4.0154	2.290283	0.000188	1.884043	0.319166	-0.000019
1608	1.5990e+02	4.0061	2.267880	0.000225	2.252660	0.381611	-0.000023
1609	1.6000e+02	3.9949	2.247920	0.000201	2.006915	0.339981	-0.000020
1610	1.6010e+02	3.9861	2.229182	0.000188	1.884043	0.319166	-0.000019
1611	1.6019e+02	3.9763	2.205149	0.000242	2.416490	0.409364	-0.000024
1612	1.6029e+02	3.9669	2.184782	0.000205	2.047873	0.346919	-0.000020
1613	1.6039e+02	3.9532	2.165637	0.000193	1.925000	0.326104	-0.000019
1614	1.6049e+02	3.9439	2.146084	0.000197	1.965958	0.333042	-0.000020
1615	1.6059e+02	3.9381	2.122866	0.000233	2.334575	0.395488	-0.000023
1616	1.6069e+02	3.9245	2.102499	0.000205	2.047873	0.346919	-0.000020
1617	1.6079e+02	3.9182	2.079687	0.000229	2.293618	0.388549	-0.000023
1618	1.6089e+02	3.9072	2.054025	0.000258	2.580320	0.437118	-0.000026
1619	1.6099e+02	3.8967	2.034880	0.000193	1.925000	0.326104	-0.000019
1620	1.6109e+02	3.8848	2.011661	0.000233	2.334575	0.395488	-0.000023
1621	1.6119e+02	3.8767	1.991294	0.000205	2.047873	0.346919	-0.000020
1622	1.6129e+02	3.8665	1.968890	0.000225	2.252660	0.381611	-0.000023
1623	1.6139e+02	3.8563	1.947708	0.000213	2.129788	0.360796	-0.000021
1624	1.6149e+02	3.8457	1.926934	0.000209	2.088830	0.353857	-0.000021
1625	1.6159e+02	3.8360	1.902493	0.000246	2.457447	0.416303	-0.000025
1626	1.6169e+02	3.8264	1.881719	0.000209	2.088830	0.353857	-0.000021
1627	1.6179e+02	3.8178	1.860944	0.000209	2.088830	0.353857	-0.000021
1628	1.6189e+02	3.8071	1.839355	0.000217	2.170745	0.367734	-0.000022
1629	1.6199e+02	3.7984	1.818581	0.000209	2.088830	0.353857	-0.000021
1630	1.6209e+02	3.7850	1.791289	0.000274	2.744150	0.464872	-0.000027
1631	1.6219e+02	3.7782	1.770107	0.000213	2.129788	0.360796	-0.000021
1632	1.6228e+02	3.7690	1.748111	0.000221	2.211703	0.374673	-0.000022
1633	1.6238e+02	3.7588	1.727743	0.000205	2.047873	0.346919	-0.000020
1634	1.6248e+02	3.7468	1.701674	0.000262	2.621277	0.444056	-0.000026
1635	1.6258e+02	3.7368	1.678048	0.000238	2.375532	0.402426	-0.000024
1636	1.6268e+02	3.7282	1.663383	0.000147	1.474468	0.249782	-0.000015
1637	1.6278e+02	3.7167	1.636906	0.000266	2.662235	0.450995	-0.000027
1638	1.6288e+02	3.7061	1.615317	0.000217	2.170745	0.367734	-0.000022
1639	1.6298e+02	3.6981	1.593320	0.000221	2.211703	0.374673	-0.000022
1640	1.6308e+02	3.6874	1.569287	0.000242	2.416490	0.409364	-0.000024
1641	1.6318e+02	3.6798	1.549327	0.000201	2.006915	0.339981	-0.000020
1642	1.6328e+02	3.6683	1.524887	0.000246	2.457447	0.416303	-0.000025
1643	1.6338e+02	3.6597	1.505742	0.000193	1.925000	0.326104	-0.000019
1644	1.6348e+02	3.6469	1.478042	0.000279	2.785107	0.471810	-0.000028
1645	1.6358e+02	3.6385	1.459305	0.000188	1.884043	0.319166	-0.000019
1646	1.6368e+02	3.6275	1.435271	0.000242	2.416490	0.409364	-0.000024
1647	1.6378e+02	3.6166	1.413275	0.000221	2.211703	0.374673	-0.000022
1648	1.6388e+02	3.6079	1.392908	0.000205	2.047873	0.346919	-0.000020
1649	1.6398e+02	3.5971	1.366431	0.000266	2.662235	0.450995	-0.000027
1650	1.6408e+02	3.5876	1.344434	0.000221	2.211703	0.374673	-0.000022
1651	1.6418e+02	3.5783	1.316735	0.000279	2.785107	0.471810	-0.000028
1652	1.6427e+02	3.5686	1.292294	0.000246	2.457447	0.416303	-0.000025
1653	1.6437e+02	3.5589	1.269076	0.000233	2.334575	0.395488	-0.000023
1654	1.6447e+02	3.5497	1.244635	0.000246	2.457447	0.416303	-0.000025
1655	1.6457e+02	3.5373	1.221009	0.000238	2.375532	0.402426	-0.000024
1656	1.6467e+02	3.5293	1.194939	0.000262	2.621277	0.444056	-0.000026
1657	1.6477e+02	3.5174	1.172536	0.000225	2.252660	0.381611	-0.000023
1658	1.6487e+02	3.5102	1.150132	0.000225	2.252660	0.381611	-0.000023
1659	1.6497e+02	3.4991	1.128135	0.000221	2.211703	0.374673	-0.000022
1660	1.6507e+02	3.4882	1.101251	0.000270	2.703192	0.457933	-0.000027
1661	1.6517e+02	3.4772	1.075588	0.000258	2.580320	0.437118	-0.000026
1662	1.6527e+02	3.4686	1.048296	0.000274	2.744150	0.464872	-0.000027
1663	1.6537e+02	3.4577	1.026707	0.000217	2.170745	0.367734	-0.000022
1664	1.6547e+02	3.4501	0.999008	0.000279	2.785107	0.471810	-0.000028
1665	1.6557e+02	3.4372	0.974567	0.000246	2.457447	0.416303	-0.000025
1666	1.6567e+02	3.4264	0.948497	0.000262	2.621277	0.444056	-0.000026
1667	1.6577e+02	3.4209	0.924057	0.000246	2.457447	0.416303	-0.000025
1668	1.6587e+02	3.4106	0.899209	0.000250	2.498405	0.423241	-0.000025
1669	1.6597e+02	3.3986	0.876805	0.000225	2.252660	0.381611	-0.000023
1670	1.6607e+02	3.3894	0.851957	0.000250	2.498405	0.423241	-0.000025
1671	1.6616e+02	3.3783	0.829146	0.000229	2.293618	0.388549	-0.000023
1672	1.6626e+02	3.3701	0.805520	0.000238	2.375532	0.402426	-0.000024
1673	1.6636e+02	3.3593	0.781487	0.000242	2.416490	0.409364	-0.000024
1674	1.6646e+02	3.3484	0.757861	0.000238	2.375532	0.402426	-0.000024
1675	1.6656e+02	3.3401	0.737494	0.000205	2.047873	0.346919	-0.000020
1676	1.6666e+02	3.3315	0.709794	0.000279	2.785107	0.471810	-0.000028
1677	1.6676e+02	3.3227	0.683317	0.000266	2.662235	0.450995	-0.000027
1678	1.6686e+02	3.3098	0.664172	0.000193	1.925000	0.326104	-0.000019
1679	1.6696e+02	3.2982	0.638509	0.000258	2.580320	0.437118	-0.000026
1680	1.6706e+02	3.2859	0.615291	0.000233	2.334575	0.395488	-0.000023
1681	1.6716e+02	3.2767	0.592887	0.000225	2.252660	0.381611	-0.000023
1682	1.6726e+02	3.2700	0.568854	0.000242	2.416490	0.409364	-0.000024
1683	1.6736e+02	3.2600	0.550116	0.000188	1.884043	0.319166	-0.000019
1684	1.6746e+02	3.2499	0.525676	0.000246	2.457447	0.416303	-0.000025
1685	1.6756e+02	3.2389	0.504494	0.000213	2.129788	0.360796	-0.000021
1686	1.6766e+02	3.2313	0.482905	0.000217	2.170745	0.367734	-0.000022
1687	1.6776e+02	3.2206	0.459686	0.000233	2.334575	0.395488	-0.000023
1688	1.6786e+02	3.2104	0.436875	0.000229	2.293618	0.388549	-0.000023
1689	1.6796e+02	3.1999	0.415286	0.000217	2.170745	0.367734	-0.000022
1690	1.6806e+02	3.1912	0.394104	0.000213	2.129788	0.360796	-0.000021
1691	1.6816e+02	3.1763	0.371700	0.000225	2.252660	0.381611	-0.000023
1692	1.6825e+02	3.1690	0.352148	0.000197	1.965958	0.333042	-0.000020
1693	1.6835e+02	3.1611	0.332188	0.000201	2.006915	0.339981	-0.000020
1694	1.6845e+02	3.1498	0.308562	0.000238	2.375532	0.402426	-0.000024
1695	1.6855e+02	3.1408	0.287380	0.000213	2.129788	0.360796	-0.000021
1696	1.6865e+02	3.1316	0.264976	0.000225	2.252660	0.381611	-0.000023
1697	1.6875e+02	3.1190	0.243795	0.000213	2.129788	0.360796	-0.000021
1698	1.6885e+02	3.1080	0.227093	0.000168	1.679256	0.284474	-0.000017
1699	1.6895e+02	3.1003	0.203875	0.000233	2.334575	0.395488	-0.000023
1700	1.6905e+02	3.0904	0.177398	0.000266	2.662235	0.450995	-0.000027
1701	1.6915e+02	3.0810	0.156216	0.000213	2.129788	0.360796	-0.000021
1702	1.6925e+02	3.0697	0.137885	0.000184	1.843086	0.312227	-0.000018
1703	1.6935e+02	3.0614	0.117926	0.000201	2.006915	0.339981	-0.000020
1704	1.6945e+02	3.0531	0.099188	0.000188	1.884043	0.319166	-0.000019
1705	1.6955e+02	3.0418	0.076784	0.000225	2.252660	0.381611	-0.000023
1706	1.6965e+02	3.0294	0.056824	0.000201	2.006915	0.339981	-0.000020
1707	1.6975e+02	3.0199	0.036457	0.000205	2.047873	0.346919	-0.000020
1708	1.6985e+02	3.0141	0.014461	0.000221	2.211703	0.374673	-0.000022
1709	1.6995e+02	3.0029	-0.006721	0.000213	2.129788	0.360796	-0.000021
1710	1.7005e+02	2.9929	-0.027496	0.000209	2.088830	0.353857	-0.000021
1711	1.7015e+02	2.9800	-0.048270	0.000209	2.088830	0.353857	-0.000021
1712	1.7024e+02	2.9684	-0.073118	0.000250	2.498405	0.423241	-0.000025
1713	1.7034e+02	2.9636	-0.090634	0.000176	1.761171	0.298350	-0.000018
1714	1.7044e+02	2.9539	-0.114667	0.000242	2.416490	0.409364	-0.000024
1715	1.7054e+02	2.9406	-0.131775	0.000172	1.720213	0.291412	-0.000017
1716	1.7064e+02	2.9302	-0.153364	0.000217	2.170745	0.367734	-0.000022
1717	1.7074e+02	2.9209	-0.175768	0.000225	2.252660	0.381611	-0.000023
1718	1.7084e+02	2.9116	-0.191655	0.000160	1.597341	0.270597	-0.000016
1719	1.7094e+02	2.9016	-0.217725	0.000262	2.621277	0.444056	-0.000026
1720	1.7104e+02	2.8918	-0.235240	0.000176	1.761171	0.298350	-0.000018
1721	1.7114e+02	2.8795	-0.257237	0.000221	2.211703	0.374673	-0.000022
1722	1.7124e+02	2.8712	-0.277604	0.000205	2.047873	0.346919	-0.000020
1723	1.7134e+02	2.8603	-0.297564	0.000201	2.006915	0.339981	-0.000020
1724	1.7144e+02	2.8524	-0.319153	0.000217	2.170745	0.367734	-0.000022
1725	1.7154e+02	2.8416	-0.341964	0.000229	2.293618	0.388549	-0.000023
1726	1.7164e+02	2.8317	-0.362739	0.000209	2.088830	0.353857	-0.000021
1727	1.7174e+02	2.8214	-0.384735	0.000221	2.211703	0.374673	-0.000022
1728	1.7184e+02	2.8129	-0.403473	0.000188	1.884043	0.319166	-0.000019
1729	1.7194e+02	2.8009	-0.423025	0.000197	1.965958	0.333042	-0.000020
1730	1.7204e+02	2.7916	-0.445836	0.000229	2.293618	0.388549	-0.000023
1731	1.7213e+02	2.7831	-0.465389	0.000197	1.965958	0.333042	-0.000020
1732	1.7223e+02	2.7708	-0.486163	0.000209	2.088830	0.353857	-0.000021
1733	1.7233e+02	2.7629	-0.502457	0.000164	1.638298	0.277535	-0.000016
1734	1.7243e+02	2.7517	-0.526083	0.000238	2.375532	0.402426	-0.000024
1735	1.7253e+02	2.7414	-0.544006	0.000180	1.802128	0.305289	-0.000018
1736	1.7263e+02	2.7318	-0.561929	0.000180	1.802128	0.305289	-0.000018
1737	1.7273e+02	2.7226	-0.579037	0.000172	1.720213	0.291412	-0.000017
1738	1.7283e+02	2.7106	-0.601849	0.000229	2.293618	0.388549	-0.000023
1739	1.7293e+02	2.7020	-0.623845	0.000221	2.211703	0.374673	-0.000022
1740	1.7303e+02	2.6914	-0.643805	0.000201	2.006915	0.339981	-0.000020
1741	1.7313e+02	2.6830	-0.659691	0.000160	1.597341	0.270597	-0.000016
1742	1.7323e+02	2.6691	-0.680058	0.000205	2.047873	0.346919	-0.000020
1743	1.7333e+02	2.6633	-0.701240	0.000213	2.129788	0.360796	-0.000021
1744	1.7343e+02	2.6512	-0.717127	0.000160	1.597341	0.270597	-0.000016
1745	1.7353e+02	2.6414	-0.737901	0.000209	2.088830	0.353857	-0.000021
1746	1.7363e+02	2.6340	-0.754195	0.000164	1.638298	0.277535	-0.000016
1747	1.7373e+02	2.6209	-0.776599	0.000225	2.252660	0.381611	-0.000023
1748	1.7383e+02	2.6156	-0.792078	0.000156	1.556383	0.263658	-0.000016
1749	1.7393e+02	2.6037	-0.811630	0.000197	1.965958	0.333042	-0.000020
1750	1.7403e+02	2.5916	-0.829146	0.000176	1.761171	0.298350	-0.000018
1751	1.7413e+02	2.5835	-0.845847	0.000168	1.679256	0.284474	-0.000017
1752	1.7422e+02	2.5730	-0.865399	0.000197	1.965958	0.333042	-0.000020
1753	1.7432e+02	2.5616	-0.886988	0.000217	2.170745	0.367734	-0.000022
1754	1.7442e+02	2.5542	-0.906948	0.000201	2.006915	0.339981	-0.000020
1755	1.7452e+02	2.5414	-0.931389	0.000246	2.457447	0.416303	-0.000025
1756	1.7462e+02	2.5346	-0.947682	0.000164	1.638298	0.277535	-0.000016
1757	1.7472e+02	2.5226	-0.968050	0.000205	2.047873	0.346919	-0.000020
1758	1.7482e+02	2.5127	-0.987602	0.000197	1.965958	0.333042	-0.000020
1759	1.7492e+02	2.5014	-1.007154	0.000197	1.965958	0.333042	-0.000020
1760	1.7502e+02	2.4940	-1.028744	0.000217	2.170745	0.367734	-0.000022
1761	1.7512e+02	2.4831	-1.047074	0.000184	1.843086	0.312227	-0.000018
1762	1.7522e+02	2.4740	-1.070700	0.000238	2.375532	0.402426	-0.000024
1763	1.7532e+02	2.4628	-1.089438	0.000188	1.884043	0.319166	-0.000019
1764	1.7542e+02	2.4545	-1.110619	0.000213	2.129788	0.360796	-0.000021
1765	1.7552e+02	2.4446	-1.133023	0.000225	2.252660	0.381611	-0.000023
1766	1.7562e+02	2.4329	-1.152168	0.000193	1.925000	0.326104	-0.000019
1767	1.7572e+02	2.4226	-1.173758	0.000217	2.170745	0.367734	-0.000022
1768	1.7582e+02	2.4141	-1.197791	0.000242	2.416490	0.409364	-0.000024
1769	1.7592e+02	2.4047	-1.218158	0.000205	2.047873	0.346919	-0.000020
1770	1.7602e+02	2.3922	-1.242598	0.000246	2.457447	0.416303	-0.000025
1771	1.7612e+02	2.3840	-1.263373	0.000209	2.088830	0.353857	-0.000021
1772	1.7621e+02	2.3761	-1.286591	0.000233	2.334575	0.395488	-0.000023
1773	1.7631e+02	2.3635	-1.310625	0.000242	2.416490	0.409364	-0.000024
1774	1.7641e+02	2.3540	-1.329362	0.000188	1.884043	0.319166	-0.000019
1775	1.7651e+02	2.3457	-1.354210	0.000250	2.498405	0.423241	-0.000025
1776	1.7661e+02	2.3350	-1.374985	0.000209	2.088830	0.353857	-0.000021
1777	1.7671e+02	2.3247	-1.402277	0.000274	2.744150	0.464872	-0.000027
1778	1.7681e+02	2.3134	-1.424681	0.000225	2.252660	0.381611	-0.000023
1779	1.7691e+02	2.3013	-1.446270	0.000217	2.170745	0.367734	-0.000022
1780	1.7701e+02	2.2939	-1.465822	0.000197	1.965958	0.333042	-0.000020
1781	1.7711e+02	2.2858	-1.491077	0.000254	2.539362	0.430180	-0.000025
1782	1.7721e+02	2.2731	-1.517147	0.000262	2.621277	0.444056	-0.000026
1783	1.7731e+02	2.2641	-1.540773	0.000238	2.375532	0.402426	-0.000024
1784	1.7741e+02	2.2551	-1.559104	0.000184	1.843086	0.312227	-0.000018
1785	1.7751e+02	2.2471	-1.583137	0.000242	2.416490	0.409364	-0.000024
1786	1.7761e+02	2.2353	-1.606763	0.000238	2.375532	0.402426	-0.000024
1787	1.7771e+02	2.2248	-1.632018	0.000254	2.539362	0.430180	-0.000025
1788	1.7781e+02	2.2129	-1.657681	0.000258	2.580320	0.437118	-0.000026
1789	1.7791e+02	2.2033	-1.678048	0.000205	2.047873	0.346919	-0.000020
1790	1.7801e+02	2.1931	-1.703303	0.000254	2.539362	0.430180	-0.000025
1791	1.7810e+02	2.1844	-1.727743	0.000246	2.457447	0.416303	-0.000025
1792	1.7820e+02	2.1757	-1.748111	0.000205	2.047873	0.346919	-0.000020
1793	1.7830e+02	2.1632	-1.774995	0.000270	2.703192	0.457933	-0.000027
1794	1.7840e+02	2.1564	-1.796584	0.000217	2.170745	0.367734	-0.000022
1795	1.7850e+02	2.1455	-1.818581	0.000221	2.211703	0.374673	-0.000022
1796	1.7860e+02	2.1320	-1.842207	0.000238	2.375532	0.402426	-0.000024
1797	1.7870e+02	2.1262	-1.865425	0.000233	2.334575	0.395488	-0.000023
1798	1.7880e+02	2.1124	-1.893532	0.000283	2.826064	0.478748	-0.000028
1799	1.7890e+02	2.1048	-1.913492	0.000201	2.006915	0.339981	-0.000020
1800	1.7900e+02	2.0942	-1.944857	0.000315	3.153724	0.534255	-0.000032
1801	1.7910e+02	2.0856	-1.965224	0.000205	2.047873	0.346919	-0.000020
1802	1.7920e+02	2.0748	-1.988850	0.000238	2.375532	0.402426	-0.000024
1803	1.7930e+02	2.0666	-2.014513	0.000258	2.580320	0.437118	-0.000026
1804	1.7940e+02	2.0541	-2.040175	0.000258	2.580320	0.437118	-0.000026
1805	1.7950e+02	2.0443	-2.059728	0.000197	1.965958	0.333042	-0.000020
1806	1.7960e+02	2.0347	-2.086612	0.000270	2.703192	0.457933	-0.000027
1807	1.7970e+02	2.0245	-2.109016	0.000225	2.252660	0.381611	-0.000023
1808	1.7980e+02	2.0142	-2.134271	0.000254	2.539362	0.430180	-0.000025
1809	1.7990e+02	2.0070	-2.159934	0.000258	2.580320	0.437118	-0.000026
1810	1.8000e+02	1.9980	-2.181116	0.000213	2.129788	0.360796	-0.000021
1811	1.8009e+02	1.9862	-2.208000	0.000270	2.703192	0.457933	-0.000027
1812	1.8019e+02	1.9766	-2.231626	0.000238	2.375532	0.402426	-0.000024
1813	1.8029e+02	1.9674	-2.253623	0.000221	2.211703	0.374673	-0.000022
1814	1.8039e+02	1.9544	-2.280915	0.000274	2.744150	0.464872	-0.000027
1815	1.8049e+02	1.9439	-2.303318	0.000225	2.252660	0.381611	-0.000023
1816	1.8059e+02	1.9363	-2.328166	0.000250	2.498405	0.423241	-0.000025
1817	1.8069e+02	1.9251	-2.356273	0.000283	2.826064	0.478748	-0.000028
1818	1.8079e+02	1.9162	-2.388453	0.000324	3.235639	0.548132	-0.000032
1819	1.8089e+02	1.9082	-2.408413	0.000201	2.006915	0.339981	-0.000020
1820	1.8099e+02	1.8961	-2.435705	0.000274	2.744150	0.464872	-0.000027
1821	1.8109e+02	1.8855	-2.461775	0.000262	2.621277	0.444056	-0.000026
1822	1.8119e+02	1.8779	-2.484586	0.000229	2.293618	0.388549	-0.000023
1823	1.8129e+02	1.8670	-2.509026	0.000246	2.457447	0.416303	-0.000025
1824	1.8139e+02	1.8562	-2.536726	0.000279	2.785107	0.471810	-0.000028
1825	1.8149e+02	1.8451	-2.559944	0.000233	2.334575	0.395488	-0.000023
1826	1.8159e+02	1.8388	-2.586422	0.000266	2.662235	0.450995	-0.000027
1827	1.8169e+02	1.8269	-2.613306	0.000270	2.703192	0.457933	-0.000027
1828	1.8179e+02	1.8167	-2.641005	0.000279	2.785107	0.471810	-0.000028
1829	1.8189e+02	1.8079	-2.664224	0.000233	2.334575	0.395488	-0.000023
1830	1.8199e+02	1.7978	-2.692331	0.000283	2.826064	0.478748	-0.000028
1831	1.8209e+02	1.7873	-2.721252	0.000291	2.907979	0.492625	-0.000029
1832	1.8218e+02	1.7767	-2.748544	0.000274	2.744150	0.464872	-0.000027
1833	1.8228e+02	1.7679	-2.775021	0.000266	2.662235	0.450995	-0.000027
1834	1.8238e+02	1.7567	-2.803535	0.000287	2.867022	0.485687	-0.000029
1835	1.8248e+02	1.7477	-2.830827	0.000274	2.744150	0.464872	-0.000027
1836	1.8258e+02	1.7365	-2.851194	0.000205	2.047873	0.346919	-0.000020
1837	1.8268e+02	1.7305	-2.881745	0.000307	3.071809	0.520379	-0.000031
1838	1.8278e+02	1.7162	-2.906185	0.000246	2.457447	0.416303	-0.000025
1839	1.8288e+02	1.7081	-2.928997	0.000229	2.293618	0.388549	-0.000023
1840	1.8298e+02	1.6948	-2.954252	0.000254	2.539362	0.430180	-0.000025
1841	1.8308e+02	1.6897	-2.981136	0.000270	2.703192	0.457933	-0.000027
1842	1.8318e+02	1.6730	-3.012094	0.000311	3.112767	0.527317	-0.000031
1843	1.8328e+02	1.6663	-3.035313	0.000233	2.334575	0.395488	-0.000023
1844	1.8338e+02	1.6568	-3.058124	0.000229	2.293618	0.388549	-0.000023
1845	1.8348e+02	1.6479	-3.086638	0.000287	2.867022	0.485687	-0.000029
1846	1.8358e+02	1.6366	-3.113930	0.000274	2.744150	0.464872	-0.000027
1847	1.8368e+02	1.6252	-3.135927	0.000221	2.211703	0.374673	-0.000022
1848	1.8378e+02	1.6171	-3.161997	0.000262	2.621277	0.444056	-0.000026
1849	1.8388e+02	1.6080	-3.184400	0.000225	2.252660	0.381611	-0.000023
1850	1.8398e+02	1.5960	-3.212507	0.000283	2.826064	0.478748	-0.000028
1851	1.8407e+02	1.5873	-3.235726	0.000233	2.334575	0.395488	-0.000023
1852	1.8417e+02	1.5761	-3.260573	0.000250	2.498405	0.423241	-0.000025
1853	1.8427e+02	1.5655	-3.282977	0.000225	2.252660	0.381611	-0.000023
1854	1.8437e+02	1.5569	-3.304974	0.000221	2.211703	0.374673	-0.000022
1855	1.8447e+02	1.5484	-3.328192	0.000233	2.334575	0.395488	-0.000023
1856	1.8457e+02	1.5383	-3.351003	0.000229	2.293618	0.388549	-0.000023
1857	1.8467e+02	1.5282	-3.375444	0.000246	2.457447	0.416303	-0.000025
1858	1.8477e+02	1.5164	-3.399477	0.000242	2.416490	0.409364	-0.000024
1859	1.8487e+02	1.5061	-3.421474	0.000221	2.211703	0.374673	-0.000022
1860	1.8497e+02	1.4977	-3.448358	0.000270	2.703192	0.457933	-0.000027
1861	1.8507e+02	1.4889	-3.468725	0.000205	2.047873	0.346919	-0.000020
1862	1.8517e+02	1.4819	-3.490722	0.000221	2.211703	0.374673	-0.000022
1863	1.8527e+02	1.4702	-3.516792	0.000262	2.621277	0.444056	-0.000026
1864	1.8537e+02	1.4620	-3.537159	0.000205	2.047873	0.346919	-0.000020
1865	1.8547e+02	1.4495	-3.565266	0.000283	2.826064	0.478748	-0.000028
1866	1.8557e+02	1.4378	-3.584003	0.000188	1.884043	0.319166	-0.000019
1867	1.8567e+02	1.4285	-3.607629	0.000238	2.375532	0.402426	-0.000024
1868	1.8577e+02	1.4201	-3.629626	0.000221	2.211703	0.374673	-0.000022
1869	1.8587e+02	1.4095	-3.653252	0.000238	2.375532	0.402426	-0.000024
1870	1.8597e+02	1.3994	-3.679322	0.000262	2.621277	0.444056	-0.000026
1871	1.8606e+02	1.3885	-3.700503	0.000213	2.129788	0.360796	-0.000021
1872	1.8616e+02	1.3769	-3.723315	0.000229	2.293618	0.388549	-0.000023
1873	1.8626e+02	1.3677	-3.741645	0.000184	1.843086	0.312227	-0.000018
1874	1.8636e+02	1.3607	-3.765678	0.000242	2.416490	0.409364	-0.000024
1875	1.8646e+02	1.3512	-3.787675	0.000221	2.211703	0.374673	-0.000022
1876	1.8656e+02	1.3398	-3.809671	0.000221	2.211703	0.374673	-0.000022
1877	1.8666e+02	1.3274	-3.832890	0.000233	2.334575	0.395488	-0.000023
1878	1.8676e+02	1.3194	-3.858552	0.000258	2.580320	0.437118	-0.000026
1879	1.8686e+02	1.3100	-3.884622	0.000262	2.621277	0.444056	-0.000026
1880	1.8696e+02	1.3009	-3.900509	0.000160	1.597341	0.270597	-0.000016
1881	1.8706e+02	1.2911	-3.928208	0.000279	2.785107	0.471810	-0.000028
1882	1.8716e+02	1.2777	-3.949390	0.000213	2.129788	0.360796	-0.000021
1883	1.8726e+02	1.2681	-3.974238	0.000250	2.498405	0.423241	-0.000025
1884	1.8736e+02	1.2599	-3.996234	0.000221	2.211703	0.374673	-0.000022
1885	1.8746e+02	1.2495	-4.015787	0.000197	1.965958	0.333042	-0.000020
1886	1.8756e+02	1.2378	-4.037783	0.000221	2.211703	0.374673	-0.000022
1887	1.8766e+02	1.2305	-4.057335	0.000197	1.965958	0.333042	-0.000020
1888	1.8776e+02	1.2202	-4.080961	0.000238	2.375532	0.402426	-0.000024
1889	1.8786e+02	1.2096	-4.106217	0.000254	2.539362	0.430180	-0.000025
1890	1.8796e+02	1.2003	-4.126991	0.000209	2.088830	0.353857	-0.000021
1891	1.8806e+02	1.1888	-4.149395	0.000225	2.252660	0.381611	-0.000023
1892	1.8815e+02	1.1784	-4.175465	0.000262	2.621277	0.444056	-0.000026
1893	1.8825e+02	1.1703	-4.197869	0.000225	2.252660	0.381611	-0.000023
1894	1.8835e+02	1.1588	-4.217014	0.000193	1.925000	0.326104	-0.000019
1895	1.8845e+02	1.1498	-4.245528	0.000287	2.867022	0.485687	-0.000029
1896	1.8855e+02	1.1414	-4.267117	0.000217	2.170745	0.367734	-0.000022
1897	1.8865e+02	1.1311	-4.287891	0.000209	2.088830	0.353857	-0.000021
1898	1.8875e+02	1.1194	-4.311110	0.000233	2.334575	0.395488	-0.000023
1899	1.8885e+02	1.1111	-4.331477	0.000205	2.047873	0.346919	-0.000020
1900	1.8895e+02	1.1006	-4.354288	0.000229	2.293618	0.388549	-0.000023
1901	1.8905e+02	1.0909	-4.374248	0.000201	2.006915	0.339981	-0.000020
1902	1.8915e+02	1.0793	-4.391764	0.000176	1.761171	0.298350	-0.000018
1903	1.8925e+02	1.0693	-4.418648	0.000270	2.703192	0.457933	-0.000027
1904	1.8935e+02	1.0587	-4.437386	0.000188	1.884043	0.319166	-0.000019
1905	1.8945e+02	1.0480	-4.456939	0.000197	1.965958	0.333042	-0.000020
1906	1.8955e+02	1.0416	-4.477306	0.000205	2.047873	0.346919	-0.000020
1907	1.8965e+02	1.0321	-4.500524	0.000233	2.334575	0.395488	-0.000023
1908	1.8975e+02	1.0205	-4.522521	0.000221	2.211703	0.374673	-0.000022
1909	1.8985e+02	1.0119	-4.544925	0.000225	2.252660	0.381611	-0.000023
1910	1.8995e+02	0.9994	-4.566921	0.000221	2.211703	0.374673	-0.000022
1911	1.9004e+02	0.9911	-4.585251	0.000184	1.843086	0.312227	-0.000018
1912	1.9014e+02	0.9809	-4.605211	0.000201	2.006915	0.339981	-0.000020
1913	1.9024e+02	0.9728	-4.628022	0.000229	2.293618	0.388549	-0.000023
1914	1.9034e+02	0.9603	-4.645131	0.000172	1.720213	0.291412	-0.000017
1915	1.9044e+02	0.9514	-4.667127	0.000221	2.211703	0.374673	-0.000022
1916	1.9054e+02	0.9418	-4.687087	0.000201	2.006915	0.339981	-0.000020
1917	1.9064e+02	0.9280	-4.707862	0.000209	2.088830	0.353857	-0.000021
1918	1.9074e+02	0.9201	-4.727821	0.000201	2.006915	0.339981	-0.000020
1919	1.9084e+02	0.9098	-4.746966	0.000193	1.925000	0.326104	-0.000019
1920	1.9094e+02	0.9032	-4.773444	0.000266	2.662235	0.450995	-0.000027
1921	1.9104e+02	0.8909	-4.788923	0.000156	1.556383	0.263658	-0.000016
1922	1.9114e+02	0.8813	-4.815807	0.000270	2.703192	0.457933	-0.000027
1923	1.9124e+02	0.8723	-4.837396	0.000217	2.170745	0.367734	-0.000022
1924	1.9134e+02	0.8599	-4.856134	0.000188	1.884043	0.319166	-0.000019
1925	1.9144e+02	0.8513	-4.880575	0.000246	2.457447	0.416303	-0.000025
1926	1.9154e+02	0.8417	-4.900127	0.000197	1.965958	0.333042	-0.000020
1927	1.9164e+02	0.8333	-4.925382	0.000254	2.539362	0.430180	-0.000025
1928	1.9174e+02	0.8215	-4.946564	0.000213	2.129788	0.360796	-0.000021
1929	1.9184e+02	0.8121	-4.964487	0.000180	1.802128	0.305289	-0.000018
1930	1.9194e+02	0.8022	-4.990965	0.000266	2.662235	0.450995	-0.000027
1931	1.9203e+02	0.7925	-5.015813	0.000250	2.498405	0.423241	-0.000025
1932	1.9213e+02	0.7826	-5.036587	0.000209	2.088830	0.353857	-0.000021
1933	1.9223e+02	0.7742	-5.061842	0.000254	2.539362	0.430180	-0.000025
1934	1.9233e+02	0.7624	-5.084653	0.000229	2.293618	0.388549	-0.000023
1935	1.9243e+02	0.7515	-5.107465	0.000229	2.293618	0.388549	-0.000023
1936	1.9253e+02	0.7420	-5.133127	0.000258	2.580320	0.437118	-0.000026
1937	1.9263e+02	0.7347	-5.157568	0.000246	2.457447	0.416303	-0.000025
1938	1.9273e+02	0.7224	-5.179157	0.000217	2.170745	0.367734	-0.000022
1939	1.9283e+02	0.7133	-5.204005	0.000250	2.498405	0.423241	-0.000025
1940	1.9293e+02	0.7005	-5.230482	0.000266	2.662235	0.450995	-0.000027
1941	1.9303e+02	0.6915	-5.253293	0.000229	2.293618	0.388549	-0.000023
1942	1.9313e+02	0.6843	-5.277734	0.000246	2.457447	0.416303	-0.000025
1943	1.9323e+02	0.6696	-5.297694	0.000201	2.006915	0.339981	-0.000020
1944	1.9333e+02	0.6631	-5.324171	0.000266	2.662235	0.450995	-0.000027
1945	1.9343e+02	0.6496	-5.352685	0.000287	2.867022	0.485687	-0.000029
1946	1.9353e+02	0.6445	-5.372645	0.000201	2.006915	0.339981	-0.000020
1947	1.9363e+02	0.6300	-5.398715	0.000262	2.621277	0.444056	-0.000026
1948	1.9373e+02	0.6217	-5.425192	0.000266	2.662235	0.450995	-0.000027
1949	1.9383e+02	0.6152	-5.445559	0.000205	2.047873	0.346919	-0.000020
1950	1.9393e+02	0.6013	-5.474073	0.000287	2.867022	0.485687	-0.000029
1951	1.9403e+02	0.5930	-5.499735	0.000258	2.580320	0.437118	-0.000026
1952	1.9412e+02	0.5812	-5.524583	0.000250	2.498405	0.423241	-0.000025
1953	1.9422e+02	0.5724	-5.546173	0.000217	2.170745	0.367734	-0.000022
1954	1.9432e+02	0.5616	-5.571835	0.000258	2.580320	0.437118	-0.000026
1955	1.9442e+02	0.5551	-5.599127	0.000274	2.744150	0.464872	-0.000027
1956	1.9452e+02	0.5444	-5.625197	0.000262	2.621277	0.444056	-0.000026
1957	1.9462e+02	0.5344	-5.648008	0.000229	2.293618	0.388549	-0.000023
1958	1.9472e+02	0.5234	-5.675300	0.000274	2.744150	0.464872	-0.000027
1959	1.9482e+02	0.5132	-5.699741	0.000246	2.457447	0.416303	-0.000025
1960	1.9492e+02	0.5048	-5.727440	0.000279	2.785107	0.471810	-0.000028
1961	1.9502e+02	0.4927	-5.751066	0.000238	2.375532	0.402426	-0.000024
1962	1.9512e+02	0.4846	-5.774284	0.000233	2.334575	0.395488	-0.000023
1963	1.9522e+02	0.4732	-5.801169	0.000270	2.703192	0.457933	-0.000027
1964	1.9532e+02	0.4632	-5.828461	0.000274	2.744150	0.464872	-0.000027
1965	1.9542e+02	0.4512	-5.850457	0.000221	2.211703	0.374673	-0.000022
1966	1.9552e+02	0.4430	-5.876527	0.000262	2.621277	0.444056	-0.000026
1967	1.9562e+02	0.4317	-5.905041	0.000287	2.867022	0.485687	-0.000029
1968	1.9572e+02	0.4227	-5.932741	0.000279	2.785107	0.471810	-0.000028
1969	1.9582e+02	0.4140	-5.958811	0.000262	2.621277	0.444056	-0.000026
1970	1.9592e+02	0.4040	-5.985695	0.000270	2.703192	0.457933	-0.000027
1971	1.9601e+02	0.3963	-6.009321	0.000238	2.375532	0.402426	-0.000024
1972	1.9611e+02	0.3831	-6.037020	0.000279	2.785107	0.471810	-0.000028
1973	1.9621e+02	0.3756	-6.062683	0.000258	2.580320	0.437118	-0.000026
1974	1.9631e+02	0.3632	-6.086716	0.000242	2.416490	0.409364	-0.000024
1975	1.9641e+02	0.3533	-6.113601	0.000270	2.703192	0.457933	-0.000027
1976	1.9651e+02	0.3425	-6.137634	0.000242	2.416490	0.409364	-0.000024
1977	1.9661e+02	0.3337	-6.165333	0.000279	2.785107	0.471810	-0.000028
1978	1.9671e+02	0.3240	-6.188959	0.000238	2.375532	0.402426	-0.000024
1979	1.9681e+02	0.3132	-6.216658	0.000279	2.785107	0.471810	-0.000028
1980	1.9691e+02	0.3038	-6.244765	0.000283	2.826064	0.478748	-0.000028
1981	1.9701e+02	0.2957	-6.266761	0.000221	2.211703	0.374673	-0.000022
1982	1.9711e+02	0.2836	-6.295275	0.000287	2.867022	0.485687	-0.000029
1983	1.9721e+02	0.2748	-6.321753	0.000266	2.662235	0.450995	-0.000027
1984	1.9731e+02	0.2644	-6.346601	0.000250	2.498405	0.423241	-0.000025
1985	1.9741e+02	0.2546	-6.378781	0.000324	3.235639	0.548132	-0.000032
1986	1.9751e+02	0.2452	-6.407295	0.000287	2.867022	0.485687	-0.000029
1987	1.9761e+02	0.2359	-6.432143	0.000250	2.498405	0.423241	-0.000025
1988	1.9771e+02	0.2247	-6.460249	0.000283	2.826064	0.478748	-0.000028
1989	1.9781e+02	0.2124	-6.487134	0.000270	2.703192	0.457933	-0.000027
1990	1.9791e+02	0.2023	-6.512796	0.000258	2.580320	0.437118	-0.000026
1991	1.9800e+02	0.1964	-6.542125	0.000295	2.948937	0.499563	-0.000029
1992	1.9810e+02	0.1837	-6.567380	0.000254	2.539362	0.430180	-0.000025
1993	1.9820e+02	0.1743	-6.593450	0.000262	2.621277	0.444056	-0.000026
1994	1.9830e+02	0.1631	-6.621964	0.000287	2.867022	0.485687	-0.000029
1995	1.9840e+02	0.1582	-6.651293	0.000295	2.948937	0.499563	-0.000029
1996	1.9850e+02	0.1463	-6.681436	0.000303	3.030852	0.513440	-0.000030
1997	1.9860e+02	0.1316	-6.705469	0.000242	2.416490	0.409364	-0.000024
1998	1.9870e+02	0.1280	-6.737649	0.000324	3.235639	0.548132	-0.000032
1999	1.9880e+02	0.1167	-6.765756	0.000283	2.826064	0.478748	-0.000028
2000	1.9890e+02	0.1073	-6.797529	0.000319	3.194682	0.541194	-0.000032
2001	1.9900e+02	0.0966	-6.825228	0.000279	2.785107	0.471810	-0.000028
2002	1.9910e+02	0.0845	-6.853335	0.000283	2.826064	0.478748	-0.000028
2003	1.9920e+02	0.0754	-6.880219	0.000270	2.703192	0.457933	-0.000027
2004	1.9930e+02	0.0638	-6.905475	0.000254	2.539362	0.430180	-0.000025
2005	1.9940e+02	0.0561	-6.934396	0.000291	2.907979	0.492625	-0.000029
2006	1.9950e+02	0.0451	-6.960059	0.000258	2.580320	0.437118	-0.000026
2007	1.9960e+02	0.0349	-6.988165	0.000283	2.826064	0.478748	-0.000028
2008	1.9970e+02	0.0242	-7.014235	0.000262	2.621277	0.444056	-0.000026
2009	1.9980e+02	0.0180	-7.042342	0.000283	2.826064	0.478748	-0.000028
2010	1.9990e+02	0.0053	-7.066375	0.000242	2.416490	0.409364	-0.000024
2011	2.0000e+02	-0.0023	-7.097333	0.000242	2.416490	0.409364	-0.000031

PMax (uC/cm2):	2.34e+01
Pr (uC/cm2):	4.62e+00
-Pr (uC/cm2):	0.00e+00
PLoss (uC/cm2):	0.00e+00
C (Max-Eff) (nF):	2.34e-01
K (Eff):	3.97e+02
Vert. (+/-Pr) Shift (uC/cm2):	2.31e+00
Offset (uC/cm2):	1.17e+01

A (Loop Area - uC/cm2·Volts):	-4.51e-02



Hysteresis Version: 5.48.1 - Radiant Technologies, Inc., 1999 - 9/12/24

