»»»»»»»»»»»»»»»»»»»»»»»»»»»»»»»»»»»» Hysteresis ««««««««««««««««««««««««««««««««««««
»»»  Executed Version:	5.48.1
»»»  Vision Version:	5.48.4 (R)
»»»  Vision Compiled:	9/18/24
»»»  Driver Version:	5.47.0
»»»  Windows Version:	Windows 8 or 8.1
»»»  Processor Information:	x86 (AMD or Intel) - 32 Processors
»»»  Tester Name:	PMF21124-494 (100V)
»»»  Tester S/N:	PMF21124-494
»»»  Internal Amp Type:	100V RevK 270k
»»»  Internal Amp S/N:	iAB2-596/K     
»»»  Execution Count:	1
»»»»»»»»»»»»»»»»»»»»»»»»»»»»»»»»»»»»»»»»»»««««««««««««««««««««««««««««««««««««««««««

Stored:	6/26/2025 - 14:47:53
Configured:	06/26/25 10:24:47 AM
Executed:	06/26/25 02:47:19 PM

»»»»»»»»»»»»»»»»»»»»»»»»»»»»»»»»»»» Sample Info ««««««««««««««««««««««««««««««««««««
Sample Name:	
Lot Name:	
Wafer Name:	
Die Row/Column:	0/0
Capacitor Number:	0
Sample Area (cm2):	1.00e-04
Sample Thickness (microns):	1.50e-01

Amplifier:	Internal

»»»»»»»»»»»»»»»»»»»»»»»»»»»»»»»»»»» Tester Info «««««««««««««««««««««««««««««««««««
Tester Name:	PMF21124-494 (100V)
Tester Serial Number:	PMF21124-494
Return Signal Amp. Level:	1.9 [Index: 2]

»»»»»»»»»»»»»»»»»»»»»»»»»»»»»»»» Hysteresis Info ««««««««««««««««««««««««««««««««««
Task Name:	Hyst-562
Volts:	10.00
Field:	666.67 (kV/cm)
DCBias:	0.00
DCField:	0.00 (kV/cm)
Hysteresis Period (ms):	2.00e+02
Preset:	Enabled
Preset Delay (ms):	1.00e+03
Profile:	Standard Monopolar

»»»»»»»»»»»»»»»»»»»»»»»»»»»»»»»»»»»»»» Data «««««««««««««««««««««««««««««««««««««««
Points:	2011

Valid Data

Point	Time (ms)	Drive Voltage	Measured Polarization (uC/cm2)	Capacitance (uF)	Normalized Capacitance (uF/cm2)	Dielectric Constant	Instantaneous Current (mA)
   1	0.0000e+00	-0.0009	-16.288203	0.000262	2.620747	0.443967	0.000026
   2	9.9500e-02	0.0053	-16.262133	0.000262	2.620747	0.443967	0.000026
   3	1.9900e-01	0.0143	-16.243803	0.000184	1.842713	0.312164	0.000018
   4	2.9850e-01	0.0240	-16.223028	0.000209	2.088408	0.353786	0.000021
   5	3.9800e-01	0.0353	-16.200217	0.000229	2.293154	0.388471	0.000023
   6	4.9750e-01	0.0452	-16.174554	0.000258	2.579798	0.437030	0.000026
   7	5.9700e-01	0.0524	-16.155002	0.000197	1.965560	0.332975	0.000020
   8	6.9650e-01	0.0650	-16.131783	0.000233	2.334103	0.395408	0.000023
   9	7.9600e-01	0.0738	-16.111416	0.000205	2.047459	0.346849	0.000020
  10	8.9550e-01	0.0835	-16.084532	0.000270	2.702645	0.457841	0.000027
  11	9.9500e-01	0.0954	-16.064572	0.000201	2.006509	0.339912	0.000020
  12	1.0945e+00	0.1027	-16.043390	0.000213	2.129357	0.360723	0.000021
  13	1.1940e+00	0.1151	-16.022208	0.000213	2.129357	0.360723	0.000021
  14	1.2935e+00	0.1244	-15.997768	0.000246	2.456950	0.416219	0.000025
  15	1.3930e+00	0.1343	-15.978623	0.000192	1.924611	0.326038	0.000019
  16	1.4925e+00	0.1454	-15.951331	0.000274	2.743595	0.464778	0.000027
  17	1.5920e+00	0.1556	-15.934222	0.000172	1.719865	0.291353	0.000017
  18	1.6915e+00	0.1643	-15.909782	0.000246	2.456950	0.416219	0.000025
  19	1.7910e+00	0.1768	-15.891451	0.000184	1.842713	0.312164	0.000018
  20	1.8905e+00	0.1856	-15.868640	0.000229	2.293154	0.388471	0.000023
  21	1.9900e+00	0.1933	-15.844200	0.000246	2.456950	0.416219	0.000025
  22	2.0895e+00	0.2039	-15.825462	0.000188	1.883662	0.319101	0.000019
  23	2.1890e+00	0.2145	-15.800207	0.000254	2.538849	0.430093	0.000025
  24	2.2885e+00	0.2232	-15.779432	0.000209	2.088408	0.353786	0.000021
  25	2.3880e+00	0.2327	-15.758250	0.000213	2.129357	0.360723	0.000021
  26	2.4875e+00	0.2444	-15.736254	0.000221	2.211255	0.374597	0.000022
  27	2.5870e+00	0.2530	-15.710591	0.000258	2.579798	0.437030	0.000026
  28	2.6865e+00	0.2657	-15.693483	0.000172	1.719865	0.291353	0.000017
  29	2.7860e+00	0.2754	-15.671894	0.000217	2.170306	0.367660	0.000022
  30	2.8855e+00	0.2811	-15.643787	0.000283	2.825493	0.478651	0.000028
  31	2.9850e+00	0.2943	-15.624642	0.000192	1.924611	0.326038	0.000019
  32	3.0845e+00	0.3034	-15.603053	0.000217	2.170306	0.367660	0.000022
  33	3.1840e+00	0.3143	-15.583093	0.000201	2.006509	0.339912	0.000020
  34	3.2835e+00	0.3234	-15.562319	0.000209	2.088408	0.353786	0.000021
  35	3.3830e+00	0.3363	-15.537063	0.000254	2.538849	0.430093	0.000025
  36	3.4825e+00	0.3439	-15.516696	0.000205	2.047459	0.346849	0.000020
  37	3.5820e+00	0.3537	-15.494292	0.000225	2.252205	0.381534	0.000023
  38	3.6815e+00	0.3637	-15.473925	0.000205	2.047459	0.346849	0.000020
  39	3.7810e+00	0.3733	-15.451114	0.000229	2.293154	0.388471	0.000023
  40	3.8805e+00	0.3825	-15.423822	0.000274	2.743595	0.464778	0.000027
  41	3.9800e+00	0.3933	-15.403862	0.000201	2.006509	0.339912	0.000020
  42	4.0795e+00	0.4044	-15.381051	0.000229	2.293154	0.388471	0.000023
  43	4.1790e+00	0.4163	-15.359462	0.000217	2.170306	0.367660	0.000022
  44	4.2785e+00	0.4229	-15.339909	0.000197	1.965560	0.332975	0.000020
  45	4.3780e+00	0.4347	-15.317506	0.000225	2.252205	0.381534	0.000023
  46	4.4775e+00	0.4451	-15.294694	0.000229	2.293154	0.388471	0.000023
  47	4.5770e+00	0.4520	-15.277179	0.000176	1.760814	0.298290	0.000018
  48	4.6765e+00	0.4652	-15.258034	0.000192	1.924611	0.326038	0.000019
  49	4.7760e+00	0.4752	-15.235630	0.000225	2.252205	0.381534	0.000023
  50	4.8755e+00	0.4844	-15.216077	0.000197	1.965560	0.332975	0.000020
  51	4.9750e+00	0.4947	-15.199376	0.000168	1.678916	0.284416	0.000017
  52	5.0745e+00	0.5006	-15.179417	0.000201	2.006509	0.339912	0.000020
  53	5.1740e+00	0.5124	-15.159049	0.000205	2.047459	0.346849	0.000020
  54	5.2735e+00	0.5230	-15.139090	0.000201	2.006509	0.339912	0.000020
  55	5.3730e+00	0.5347	-15.118315	0.000209	2.088408	0.353786	0.000021
  56	5.4725e+00	0.5430	-15.095911	0.000225	2.252205	0.381534	0.000023
  57	5.5720e+00	0.5553	-15.078396	0.000176	1.760814	0.298290	0.000018
  58	5.6715e+00	0.5640	-15.059250	0.000192	1.924611	0.326038	0.000019
  59	5.7710e+00	0.5724	-15.042142	0.000172	1.719865	0.291353	0.000017
  60	5.8705e+00	0.5843	-15.024626	0.000176	1.760814	0.298290	0.000018
  61	5.9700e+00	0.5933	-15.002630	0.000221	2.211255	0.374597	0.000022
  62	6.0695e+00	0.6026	-14.983892	0.000188	1.883662	0.319101	0.000019
  63	6.1690e+00	0.6135	-14.963525	0.000205	2.047459	0.346849	0.000020
  64	6.2685e+00	0.6230	-14.943973	0.000197	1.965560	0.332975	0.000020
  65	6.3680e+00	0.6339	-14.923198	0.000209	2.088408	0.353786	0.000021
  66	6.4675e+00	0.6421	-14.899980	0.000233	2.334103	0.395408	0.000023
  67	6.5670e+00	0.6527	-14.883278	0.000168	1.678916	0.284416	0.000017
  68	6.6665e+00	0.6633	-14.856801	0.000266	2.661696	0.450904	0.000027
  69	6.7660e+00	0.6705	-14.836841	0.000201	2.006509	0.339912	0.000020
  70	6.8655e+00	0.6809	-14.812808	0.000242	2.416001	0.409282	0.000024
  71	6.9650e+00	0.6905	-14.790812	0.000221	2.211255	0.374597	0.000022
  72	7.0645e+00	0.7031	-14.767186	0.000238	2.375052	0.402345	0.000024
  73	7.1640e+00	0.7146	-14.743560	0.000238	2.375052	0.402345	0.000024
  74	7.2635e+00	0.7198	-14.720341	0.000233	2.334103	0.395408	0.000023
  75	7.3630e+00	0.7325	-14.697123	0.000233	2.334103	0.395408	0.000023
  76	7.4625e+00	0.7436	-14.670646	0.000266	2.661696	0.450904	0.000027
  77	7.5620e+00	0.7512	-14.649057	0.000217	2.170306	0.367660	0.000022
  78	7.6615e+00	0.7591	-14.628282	0.000209	2.088408	0.353786	0.000021
  79	7.7610e+00	0.7699	-14.604249	0.000242	2.416001	0.409282	0.000024
  80	7.8605e+00	0.7851	-14.583067	0.000213	2.129357	0.360723	0.000021
  81	7.9600e+00	0.7924	-14.558626	0.000246	2.456950	0.416219	0.000025
  82	8.0595e+00	0.7986	-14.535815	0.000229	2.293154	0.388471	0.000023
  83	8.1590e+00	0.8138	-14.501191	0.000348	3.480680	0.589643	0.000035
  84	8.2585e+00	0.8214	-14.483268	0.000180	1.801764	0.305227	0.000018
  85	8.3580e+00	0.8309	-14.461679	0.000217	2.170306	0.367660	0.000022
  86	8.4575e+00	0.8449	-14.436016	0.000258	2.579798	0.437030	0.000026
  87	8.5570e+00	0.8498	-14.414427	0.000217	2.170306	0.367660	0.000022
  88	8.6565e+00	0.8607	-14.389579	0.000250	2.497900	0.423156	0.000025
  89	8.7560e+00	0.8710	-14.359843	0.000299	2.989290	0.506399	0.000030
  90	8.8555e+00	0.8789	-14.338254	0.000217	2.170306	0.367660	0.000022
  91	8.9550e+00	0.8933	-14.317480	0.000209	2.088408	0.353786	0.000021
  92	9.0545e+00	0.9024	-14.291002	0.000266	2.661696	0.450904	0.000027
  93	9.1540e+00	0.9138	-14.264932	0.000262	2.620747	0.443967	0.000026
  94	9.2535e+00	0.9195	-14.244565	0.000205	2.047459	0.346849	0.000020
  95	9.3530e+00	0.9300	-14.218088	0.000266	2.661696	0.450904	0.000027
  96	9.4525e+00	0.9390	-14.194462	0.000238	2.375052	0.402345	0.000024
  97	9.5520e+00	0.9513	-14.172873	0.000217	2.170306	0.367660	0.000022
  98	9.6515e+00	0.9621	-14.146803	0.000262	2.620747	0.443967	0.000026
  99	9.7510e+00	0.9689	-14.124399	0.000225	2.252205	0.381534	0.000023
 100	9.8505e+00	0.9819	-14.099144	0.000254	2.538849	0.430093	0.000025
 101	9.9500e+00	0.9917	-14.070223	0.000291	2.907391	0.492525	0.000029
 102	1.0050e+01	1.0008	-14.045782	0.000246	2.456950	0.416219	0.000025
 103	1.0149e+01	1.0103	-14.021749	0.000242	2.416001	0.409282	0.000024
 104	1.0248e+01	1.0205	-13.998938	0.000229	2.293154	0.388471	0.000023
 105	1.0348e+01	1.0305	-13.970424	0.000287	2.866442	0.485588	0.000029
 106	1.0447e+01	1.0410	-13.946391	0.000242	2.416001	0.409282	0.000024
 107	1.0547e+01	1.0522	-13.922765	0.000238	2.375052	0.402345	0.000024
 108	1.0646e+01	1.0583	-13.897917	0.000250	2.497900	0.423156	0.000025
 109	1.0746e+01	1.0725	-13.873476	0.000246	2.456950	0.416219	0.000025
 110	1.0845e+01	1.0812	-13.849036	0.000246	2.456950	0.416219	0.000025
 111	1.0945e+01	1.0889	-13.825817	0.000233	2.334103	0.395408	0.000023
 112	1.1044e+01	1.0981	-13.796081	0.000299	2.989290	0.506399	0.000030
 113	1.1144e+01	1.1123	-13.771641	0.000246	2.456950	0.416219	0.000025
 114	1.1243e+01	1.1201	-13.747200	0.000246	2.456950	0.416219	0.000025
 115	1.1343e+01	1.1308	-13.723167	0.000242	2.416001	0.409282	0.000024
 116	1.1443e+01	1.1402	-13.696282	0.000270	2.702645	0.457841	0.000027
 117	1.1542e+01	1.1512	-13.672656	0.000238	2.375052	0.402345	0.000024
 118	1.1642e+01	1.1594	-13.643328	0.000295	2.948340	0.499462	0.000029
 119	1.1741e+01	1.1736	-13.622961	0.000205	2.047459	0.346849	0.000020
 120	1.1841e+01	1.1804	-13.598927	0.000242	2.416001	0.409282	0.000024
 121	1.1940e+01	1.1903	-13.573265	0.000258	2.579798	0.437030	0.000026
 122	1.2040e+01	1.2014	-13.547602	0.000258	2.579798	0.437030	0.000026
 123	1.2139e+01	1.2089	-13.524791	0.000229	2.293154	0.388471	0.000023
 124	1.2239e+01	1.2231	-13.498721	0.000262	2.620747	0.443967	0.000026
 125	1.2338e+01	1.2294	-13.475503	0.000233	2.334103	0.395408	0.000023
 126	1.2438e+01	1.2389	-13.450655	0.000250	2.497900	0.423156	0.000025
 127	1.2537e+01	1.2513	-13.426622	0.000242	2.416001	0.409282	0.000024
 128	1.2636e+01	1.2584	-13.397293	0.000295	2.948340	0.499462	0.000029
 129	1.2736e+01	1.2707	-13.372852	0.000246	2.456950	0.416219	0.000025
 130	1.2835e+01	1.2772	-13.349634	0.000233	2.334103	0.395408	0.000023
 131	1.2935e+01	1.2907	-13.318268	0.000315	3.153086	0.534147	0.000032
 132	1.3034e+01	1.2988	-13.291791	0.000266	2.661696	0.450904	0.000027
 133	1.3134e+01	1.3077	-13.262055	0.000299	2.989290	0.506399	0.000030
 134	1.3233e+01	1.3184	-13.236393	0.000258	2.579798	0.437030	0.000026
 135	1.3333e+01	1.3302	-13.207064	0.000295	2.948340	0.499462	0.000029
 136	1.3432e+01	1.3393	-13.181809	0.000254	2.538849	0.430093	0.000025
 137	1.3532e+01	1.3488	-13.154517	0.000274	2.743595	0.464778	0.000027
 138	1.3632e+01	1.3579	-13.128039	0.000266	2.661696	0.450904	0.000027
 139	1.3731e+01	1.3663	-13.102377	0.000258	2.579798	0.437030	0.000026
 140	1.3831e+01	1.3805	-13.071826	0.000307	3.071188	0.520273	0.000031
 141	1.3930e+01	1.3894	-13.049422	0.000225	2.252205	0.381534	0.000023
 142	1.4030e+01	1.3963	-13.019686	0.000299	2.989290	0.506399	0.000030
 143	1.4129e+01	1.4061	-12.988321	0.000315	3.153086	0.534147	0.000032
 144	1.4229e+01	1.4172	-12.962251	0.000262	2.620747	0.443967	0.000026
 145	1.4328e+01	1.4297	-12.932515	0.000299	2.989290	0.506399	0.000030
 146	1.4428e+01	1.4379	-12.902372	0.000303	3.030239	0.513336	0.000030
 147	1.4527e+01	1.4471	-12.879968	0.000225	2.252205	0.381534	0.000023
 148	1.4627e+01	1.4552	-12.851861	0.000283	2.825493	0.478651	0.000028
 149	1.4726e+01	1.4663	-12.825791	0.000262	2.620747	0.443967	0.000026
 150	1.4825e+01	1.4746	-12.802165	0.000238	2.375052	0.402345	0.000024
 151	1.4925e+01	1.4877	-12.778947	0.000233	2.334103	0.395408	0.000023
 152	1.5024e+01	1.4982	-12.749618	0.000295	2.948340	0.499462	0.000029
 153	1.5124e+01	1.5067	-12.725178	0.000246	2.456950	0.416219	0.000025
 154	1.5223e+01	1.5179	-12.700330	0.000250	2.497900	0.423156	0.000025
 155	1.5323e+01	1.5241	-12.677926	0.000225	2.252205	0.381534	0.000023
 156	1.5422e+01	1.5405	-12.653078	0.000250	2.497900	0.423156	0.000025
 157	1.5522e+01	1.5478	-12.629045	0.000242	2.416001	0.409282	0.000024
 158	1.5621e+01	1.5558	-12.604604	0.000246	2.456950	0.416219	0.000025
 159	1.5721e+01	1.5659	-12.583830	0.000209	2.088408	0.353786	0.000021
 160	1.5820e+01	1.5789	-12.559389	0.000246	2.456950	0.416219	0.000025
 161	1.5920e+01	1.5900	-12.534949	0.000246	2.456950	0.416219	0.000025
 162	1.6020e+01	1.6000	-12.513360	0.000217	2.170306	0.367660	0.000022
 163	1.6119e+01	1.6060	-12.488512	0.000250	2.497900	0.423156	0.000025
 164	1.6218e+01	1.6196	-12.467330	0.000213	2.129357	0.360723	0.000021
 165	1.6318e+01	1.6277	-12.438816	0.000287	2.866442	0.485588	0.000029
 166	1.6418e+01	1.6357	-12.415190	0.000238	2.375052	0.402345	0.000024
 167	1.6517e+01	1.6463	-12.391971	0.000233	2.334103	0.395408	0.000023
 168	1.6616e+01	1.6577	-12.368346	0.000238	2.375052	0.402345	0.000024
 169	1.6716e+01	1.6664	-12.346756	0.000217	2.170306	0.367660	0.000022
 170	1.6816e+01	1.6789	-12.322723	0.000242	2.416001	0.409282	0.000024
 171	1.6915e+01	1.6864	-12.296653	0.000262	2.620747	0.443967	0.000026
 172	1.7015e+01	1.6977	-12.276693	0.000201	2.006509	0.339912	0.000020
 173	1.7114e+01	1.7083	-12.252253	0.000246	2.456950	0.416219	0.000025
 174	1.7213e+01	1.7161	-12.229849	0.000225	2.252205	0.381534	0.000023
 175	1.7313e+01	1.7284	-12.206631	0.000233	2.334103	0.395408	0.000023
 176	1.7413e+01	1.7381	-12.180968	0.000258	2.579798	0.437030	0.000026
 177	1.7512e+01	1.7458	-12.163045	0.000180	1.801764	0.305227	0.000018
 178	1.7611e+01	1.7552	-12.136568	0.000266	2.661696	0.450904	0.000027
 179	1.7711e+01	1.7664	-12.112534	0.000242	2.416001	0.409282	0.000024
 180	1.7811e+01	1.7736	-12.090945	0.000217	2.170306	0.367660	0.000022
 181	1.7910e+01	1.7849	-12.067727	0.000233	2.334103	0.395408	0.000023
 182	1.8009e+01	1.7971	-12.046545	0.000213	2.129357	0.360723	0.000021
 183	1.8109e+01	1.8069	-12.021290	0.000254	2.538849	0.430093	0.000025
 184	1.8209e+01	1.8130	-12.001330	0.000201	2.006509	0.339912	0.000020
 185	1.8308e+01	1.8276	-11.980148	0.000213	2.129357	0.360723	0.000021
 186	1.8407e+01	1.8356	-11.956522	0.000238	2.375052	0.402345	0.000024
 187	1.8507e+01	1.8442	-11.936562	0.000201	2.006509	0.339912	0.000020
 188	1.8607e+01	1.8620	-11.910900	0.000258	2.579798	0.437030	0.000026
 189	1.8706e+01	1.8681	-11.892569	0.000184	1.842713	0.312164	0.000018
 190	1.8805e+01	1.8794	-11.869758	0.000229	2.293154	0.388471	0.000023
 191	1.8905e+01	1.8896	-11.847762	0.000221	2.211255	0.374597	0.000022
 192	1.9005e+01	1.8958	-11.827395	0.000205	2.047459	0.346849	0.000020
 193	1.9104e+01	1.9054	-11.801325	0.000262	2.620747	0.443967	0.000026
 194	1.9203e+01	1.9149	-11.775662	0.000258	2.579798	0.437030	0.000026
 195	1.9303e+01	1.9265	-11.759368	0.000164	1.637967	0.277479	0.000016
 196	1.9402e+01	1.9360	-11.736150	0.000233	2.334103	0.395408	0.000023
 197	1.9502e+01	1.9470	-11.712931	0.000233	2.334103	0.395408	0.000023
 198	1.9602e+01	1.9570	-11.691342	0.000217	2.170306	0.367660	0.000022
 199	1.9701e+01	1.9662	-11.668938	0.000225	2.252205	0.381534	0.000023
 200	1.9800e+01	1.9745	-11.648164	0.000209	2.088408	0.353786	0.000021
 201	1.9900e+01	1.9862	-11.624945	0.000233	2.334103	0.395408	0.000023
 202	2.0000e+01	1.9946	-11.605800	0.000192	1.924611	0.326038	0.000019
 203	2.0099e+01	2.0040	-11.582174	0.000238	2.375052	0.402345	0.000024
 204	2.0198e+01	2.0146	-11.560993	0.000213	2.129357	0.360723	0.000021
 205	2.0298e+01	2.0231	-11.539811	0.000213	2.129357	0.360723	0.000021
 206	2.0398e+01	2.0377	-11.517000	0.000229	2.293154	0.388471	0.000023
 207	2.0497e+01	2.0466	-11.490522	0.000266	2.661696	0.450904	0.000027
 208	2.0596e+01	2.0568	-11.468526	0.000221	2.211255	0.374597	0.000022
 209	2.0696e+01	2.0657	-11.447344	0.000213	2.129357	0.360723	0.000021
 210	2.0796e+01	2.0739	-11.426162	0.000213	2.129357	0.360723	0.000021
 211	2.0895e+01	2.0882	-11.399685	0.000266	2.661696	0.450904	0.000027
 212	2.0994e+01	2.0965	-11.381762	0.000180	1.801764	0.305227	0.000018
 213	2.1094e+01	2.1032	-11.363839	0.000180	1.801764	0.305227	0.000018
 214	2.1194e+01	2.1165	-11.342250	0.000217	2.170306	0.367660	0.000022
 215	2.1293e+01	2.1269	-11.321883	0.000205	2.047459	0.346849	0.000020
 216	2.1392e+01	2.1360	-11.301515	0.000205	2.047459	0.346849	0.000020
 217	2.1492e+01	2.1468	-11.286851	0.000147	1.474170	0.249731	0.000015
 218	2.1591e+01	2.1549	-11.264447	0.000225	2.252205	0.381534	0.000023
 219	2.1691e+01	2.1634	-11.246117	0.000184	1.842713	0.312164	0.000018
 220	2.1791e+01	2.1777	-11.224528	0.000217	2.170306	0.367660	0.000022
 221	2.1890e+01	2.1841	-11.208234	0.000164	1.637967	0.277479	0.000016
 222	2.1989e+01	2.1940	-11.187867	0.000205	2.047459	0.346849	0.000020
 223	2.2089e+01	2.2031	-11.163426	0.000246	2.456950	0.416219	0.000025
 224	2.2189e+01	2.2131	-11.147133	0.000164	1.637967	0.277479	0.000016
 225	2.2288e+01	2.2237	-11.127173	0.000201	2.006509	0.339912	0.000020
 226	2.2387e+01	2.2355	-11.108842	0.000184	1.842713	0.312164	0.000018
 227	2.2487e+01	2.2445	-11.090512	0.000184	1.842713	0.312164	0.000018
 228	2.2587e+01	2.2567	-11.075848	0.000147	1.474170	0.249731	0.000015
 229	2.2686e+01	2.2633	-11.053036	0.000229	2.293154	0.388471	0.000023
 230	2.2785e+01	2.2702	-11.035521	0.000176	1.760814	0.298290	0.000018
 231	2.2885e+01	2.2809	-11.011895	0.000238	2.375052	0.402345	0.000024
 232	2.2985e+01	2.2927	-10.991528	0.000205	2.047459	0.346849	0.000020
 233	2.3084e+01	2.3037	-10.970753	0.000209	2.088408	0.353786	0.000021
 234	2.3183e+01	2.3148	-10.949979	0.000209	2.088408	0.353786	0.000021
 235	2.3283e+01	2.3230	-10.931241	0.000188	1.883662	0.319101	0.000019
 236	2.3383e+01	2.3322	-10.906800	0.000246	2.456950	0.416219	0.000025
 237	2.3482e+01	2.3424	-10.884804	0.000221	2.211255	0.374597	0.000022
 238	2.3581e+01	2.3533	-10.864844	0.000201	2.006509	0.339912	0.000020
 239	2.3681e+01	2.3640	-10.843662	0.000213	2.129357	0.360723	0.000021
 240	2.3780e+01	2.3757	-10.817185	0.000266	2.661696	0.450904	0.000027
 241	2.3880e+01	2.3859	-10.791523	0.000258	2.579798	0.437030	0.000026
 242	2.3980e+01	2.3978	-10.771970	0.000197	1.965560	0.332975	0.000020
 243	2.4079e+01	2.4032	-10.744678	0.000274	2.743595	0.464778	0.000027
 244	2.4178e+01	2.4145	-10.725940	0.000188	1.883662	0.319101	0.000019
 245	2.4278e+01	2.4231	-10.702315	0.000238	2.375052	0.402345	0.000024
 246	2.4378e+01	2.4323	-10.679096	0.000233	2.334103	0.395408	0.000023
 247	2.4477e+01	2.4448	-10.654655	0.000246	2.456950	0.416219	0.000025
 248	2.4576e+01	2.4540	-10.633474	0.000213	2.129357	0.360723	0.000021
 249	2.4676e+01	2.4603	-10.610662	0.000229	2.293154	0.388471	0.000023
 250	2.4776e+01	2.4731	-10.588666	0.000221	2.211255	0.374597	0.000022
 251	2.4875e+01	2.4869	-10.564225	0.000246	2.456950	0.416219	0.000025
 252	2.4974e+01	2.4932	-10.539785	0.000246	2.456950	0.416219	0.000025
 253	2.5074e+01	2.5030	-10.519825	0.000201	2.006509	0.339912	0.000020
 254	2.5174e+01	2.5123	-10.497421	0.000225	2.252205	0.381534	0.000023
 255	2.5273e+01	2.5243	-10.468093	0.000295	2.948340	0.499462	0.000029
 256	2.5372e+01	2.5352	-10.446911	0.000213	2.129357	0.360723	0.000021
 257	2.5472e+01	2.5425	-10.425322	0.000217	2.170306	0.367660	0.000022
 258	2.5572e+01	2.5570	-10.401288	0.000242	2.416001	0.409282	0.000024
 259	2.5671e+01	2.5613	-10.376440	0.000250	2.497900	0.423156	0.000025
 260	2.5770e+01	2.5711	-10.356481	0.000201	2.006509	0.339912	0.000020
 261	2.5870e+01	2.5804	-10.334484	0.000221	2.211255	0.374597	0.000022
 262	2.5970e+01	2.5927	-10.302711	0.000319	3.194036	0.541084	0.000032
 263	2.6069e+01	2.6042	-10.283566	0.000192	1.924611	0.326038	0.000019
 264	2.6169e+01	2.6162	-10.261977	0.000217	2.170306	0.367660	0.000022
 265	2.6268e+01	2.6233	-10.233871	0.000283	2.825493	0.478651	0.000028
 266	2.6367e+01	2.6324	-10.209023	0.000250	2.497900	0.423156	0.000025
 267	2.6467e+01	2.6439	-10.187841	0.000213	2.129357	0.360723	0.000021
 268	2.6567e+01	2.6525	-10.159327	0.000287	2.866442	0.485588	0.000029
 269	2.6666e+01	2.6639	-10.138960	0.000205	2.047459	0.346849	0.000020
 270	2.6765e+01	2.6704	-10.111668	0.000274	2.743595	0.464778	0.000027
 271	2.6865e+01	2.6832	-10.086005	0.000258	2.579798	0.437030	0.000026
 272	2.6965e+01	2.6929	-10.064009	0.000221	2.211255	0.374597	0.000022
 273	2.7064e+01	2.6997	-10.040383	0.000238	2.375052	0.402345	0.000024
 274	2.7163e+01	2.7117	-10.015128	0.000254	2.538849	0.430093	0.000025
 275	2.7263e+01	2.7209	-9.991909	0.000233	2.334103	0.395408	0.000023
 276	2.7363e+01	2.7293	-9.970727	0.000213	2.129357	0.360723	0.000021
 277	2.7462e+01	2.7409	-9.942621	0.000283	2.825493	0.478651	0.000028
 278	2.7561e+01	2.7527	-9.921032	0.000217	2.170306	0.367660	0.000022
 279	2.7661e+01	2.7619	-9.894962	0.000262	2.620747	0.443967	0.000026
 280	2.7761e+01	2.7733	-9.873780	0.000213	2.129357	0.360723	0.000021
 281	2.7860e+01	2.7825	-9.847710	0.000262	2.620747	0.443967	0.000026
 282	2.7959e+01	2.7897	-9.822862	0.000250	2.497900	0.423156	0.000025
 283	2.8059e+01	2.8002	-9.798829	0.000242	2.416001	0.409282	0.000024
 284	2.8159e+01	2.8107	-9.776425	0.000225	2.252205	0.381534	0.000023
 285	2.8258e+01	2.8228	-9.750762	0.000258	2.579798	0.437030	0.000026
 286	2.8358e+01	2.8312	-9.723878	0.000270	2.702645	0.457841	0.000027
 287	2.8457e+01	2.8418	-9.703511	0.000205	2.047459	0.346849	0.000020
 288	2.8556e+01	2.8508	-9.679070	0.000246	2.456950	0.416219	0.000025
 289	2.8656e+01	2.8631	-9.655037	0.000242	2.416001	0.409282	0.000024
 290	2.8756e+01	2.8716	-9.629782	0.000254	2.538849	0.430093	0.000025
 291	2.8855e+01	2.8832	-9.607378	0.000225	2.252205	0.381534	0.000023
 292	2.8954e+01	2.8912	-9.582530	0.000250	2.497900	0.423156	0.000025
 293	2.9054e+01	2.9037	-9.556460	0.000262	2.620747	0.443967	0.000026
 294	2.9154e+01	2.9120	-9.533649	0.000229	2.293154	0.388471	0.000023
 295	2.9253e+01	2.9225	-9.510430	0.000233	2.334103	0.395408	0.000023
 296	2.9352e+01	2.9303	-9.484360	0.000262	2.620747	0.443967	0.000026
 297	2.9452e+01	2.9394	-9.456254	0.000283	2.825493	0.478651	0.000028
 298	2.9552e+01	2.9513	-9.430998	0.000254	2.538849	0.430093	0.000025
 299	2.9651e+01	2.9598	-9.406558	0.000246	2.456950	0.416219	0.000025
 300	2.9750e+01	2.9717	-9.380488	0.000262	2.620747	0.443967	0.000026
 301	2.9850e+01	2.9783	-9.355233	0.000254	2.538849	0.430093	0.000025
 302	2.9950e+01	2.9909	-9.328348	0.000270	2.702645	0.457841	0.000027
 303	3.0049e+01	3.0008	-9.299427	0.000291	2.907391	0.492525	0.000029
 304	3.0148e+01	3.0090	-9.270098	0.000295	2.948340	0.499462	0.000029
 305	3.0248e+01	3.0193	-9.244028	0.000262	2.620747	0.443967	0.000026
 306	3.0348e+01	3.0323	-9.218366	0.000258	2.579798	0.437030	0.000026
 307	3.0447e+01	3.0417	-9.191074	0.000274	2.743595	0.464778	0.000027
 308	3.0547e+01	3.0497	-9.169892	0.000213	2.129357	0.360723	0.000021
 309	3.0646e+01	3.0630	-9.140156	0.000299	2.989290	0.506399	0.000030
 310	3.0745e+01	3.0706	-9.111642	0.000287	2.866442	0.485588	0.000029
 311	3.0845e+01	3.0801	-9.085572	0.000262	2.620747	0.443967	0.000026
 312	3.0945e+01	3.0897	-9.059909	0.000258	2.579798	0.437030	0.000026
 313	3.1044e+01	3.1006	-9.033432	0.000266	2.661696	0.450904	0.000027
 314	3.1143e+01	3.1120	-9.002067	0.000315	3.153086	0.534147	0.000032
 315	3.1243e+01	3.1200	-8.978848	0.000233	2.334103	0.395408	0.000023
 316	3.1343e+01	3.1313	-8.953593	0.000254	2.538849	0.430093	0.000025
 317	3.1442e+01	3.1382	-8.927930	0.000258	2.579798	0.437030	0.000026
 318	3.1541e+01	3.1510	-8.904305	0.000238	2.375052	0.402345	0.000024
 319	3.1641e+01	3.1615	-8.881901	0.000225	2.252205	0.381534	0.000023
 320	3.1741e+01	3.1697	-8.858275	0.000238	2.375052	0.402345	0.000024
 321	3.1840e+01	3.1789	-8.829353	0.000291	2.907391	0.492525	0.000029
 322	3.1939e+01	3.1924	-8.809394	0.000201	2.006509	0.339912	0.000020
 323	3.2039e+01	3.2005	-8.782916	0.000266	2.661696	0.450904	0.000027
 324	3.2139e+01	3.2092	-8.760920	0.000221	2.211255	0.374597	0.000022
 325	3.2238e+01	3.2196	-8.741367	0.000197	1.965560	0.332975	0.000020
 326	3.2337e+01	3.2298	-8.713261	0.000283	2.825493	0.478651	0.000028
 327	3.2437e+01	3.2355	-8.695338	0.000180	1.801764	0.305227	0.000018
 328	3.2536e+01	3.2523	-8.670897	0.000246	2.456950	0.416219	0.000025
 329	3.2636e+01	3.2580	-8.647271	0.000238	2.375052	0.402345	0.000024
 330	3.2736e+01	3.2715	-8.626090	0.000213	2.129357	0.360723	0.000021
 331	3.2835e+01	3.2804	-8.603278	0.000229	2.293154	0.388471	0.000023
 332	3.2934e+01	3.2911	-8.581689	0.000217	2.170306	0.367660	0.000022
 333	3.3034e+01	3.3016	-8.555212	0.000266	2.661696	0.450904	0.000027
 334	3.3133e+01	3.3067	-8.533623	0.000217	2.170306	0.367660	0.000022
 335	3.3233e+01	3.3212	-8.511219	0.000225	2.252205	0.381534	0.000023
 336	3.3333e+01	3.3273	-8.489222	0.000221	2.211255	0.374597	0.000022
 337	3.3432e+01	3.3404	-8.467226	0.000221	2.211255	0.374597	0.000022
 338	3.3532e+01	3.3492	-8.444007	0.000233	2.334103	0.395408	0.000023
 339	3.3631e+01	3.3609	-8.422418	0.000217	2.170306	0.367660	0.000022
 340	3.3730e+01	3.3682	-8.398792	0.000238	2.375052	0.402345	0.000024
 341	3.3830e+01	3.3797	-8.379240	0.000197	1.965560	0.332975	0.000020
 342	3.3929e+01	3.3889	-8.359280	0.000201	2.006509	0.339912	0.000020
 343	3.4029e+01	3.3993	-8.334840	0.000246	2.456950	0.416219	0.000025
 344	3.4129e+01	3.4083	-8.310806	0.000242	2.416001	0.409282	0.000024
 345	3.4228e+01	3.4176	-8.289625	0.000213	2.129357	0.360723	0.000021
 346	3.4328e+01	3.4293	-8.266406	0.000233	2.334103	0.395408	0.000023
 347	3.4427e+01	3.4408	-8.247668	0.000188	1.883662	0.319101	0.000019
 348	3.4526e+01	3.4478	-8.223228	0.000246	2.456950	0.416219	0.000025
 349	3.4626e+01	3.4571	-8.201639	0.000217	2.170306	0.367660	0.000022
 350	3.4725e+01	3.4681	-8.180457	0.000213	2.129357	0.360723	0.000021
 351	3.4825e+01	3.4766	-8.159682	0.000209	2.088408	0.353786	0.000021
 352	3.4925e+01	3.4914	-8.138501	0.000213	2.129357	0.360723	0.000021
 353	3.5024e+01	3.4988	-8.118133	0.000205	2.047459	0.346849	0.000020
 354	3.5123e+01	3.5076	-8.095730	0.000225	2.252205	0.381534	0.000023
 355	3.5223e+01	3.5172	-8.078214	0.000176	1.760814	0.298290	0.000018
 356	3.5322e+01	3.5295	-8.054588	0.000238	2.375052	0.402345	0.000024
 357	3.5422e+01	3.5375	-8.033406	0.000213	2.129357	0.360723	0.000021
 358	3.5522e+01	3.5476	-8.012224	0.000213	2.129357	0.360723	0.000021
 359	3.5621e+01	3.5606	-7.991043	0.000213	2.129357	0.360723	0.000021
 360	3.5721e+01	3.5668	-7.967824	0.000233	2.334103	0.395408	0.000023
 361	3.5820e+01	3.5763	-7.948272	0.000197	1.965560	0.332975	0.000020
 362	3.5919e+01	3.5879	-7.921794	0.000266	2.661696	0.450904	0.000027
 363	3.6019e+01	3.6004	-7.905908	0.000160	1.597018	0.270542	0.000016
 364	3.6118e+01	3.6086	-7.883504	0.000225	2.252205	0.381534	0.000023
 365	3.6218e+01	3.6179	-7.864359	0.000192	1.924611	0.326038	0.000019
 366	3.6318e+01	3.6289	-7.842770	0.000217	2.170306	0.367660	0.000022
 367	3.6417e+01	3.6403	-7.821995	0.000209	2.088408	0.353786	0.000021
 368	3.6517e+01	3.6469	-7.797962	0.000242	2.416001	0.409282	0.000024
 369	3.6616e+01	3.6564	-7.778410	0.000197	1.965560	0.332975	0.000020
 370	3.6715e+01	3.6698	-7.756821	0.000217	2.170306	0.367660	0.000022
 371	3.6815e+01	3.6764	-7.738083	0.000188	1.883662	0.319101	0.000019
 372	3.6914e+01	3.6855	-7.716494	0.000217	2.170306	0.367660	0.000022
 373	3.7014e+01	3.6974	-7.694497	0.000221	2.211255	0.374597	0.000022
 374	3.7114e+01	3.7057	-7.671279	0.000233	2.334103	0.395408	0.000023
 375	3.7213e+01	3.7164	-7.649282	0.000221	2.211255	0.374597	0.000022
 376	3.7313e+01	3.7267	-7.630544	0.000188	1.883662	0.319101	0.000019
 377	3.7412e+01	3.7355	-7.605289	0.000254	2.538849	0.430093	0.000025
 378	3.7511e+01	3.7467	-7.588995	0.000164	1.637967	0.277479	0.000016
 379	3.7611e+01	3.7589	-7.567406	0.000217	2.170306	0.367660	0.000022
 380	3.7711e+01	3.7677	-7.545817	0.000217	2.170306	0.367660	0.000022
 381	3.7810e+01	3.7778	-7.525857	0.000201	2.006509	0.339912	0.000020
 382	3.7910e+01	3.7875	-7.508749	0.000172	1.719865	0.291353	0.000017
 383	3.8009e+01	3.7966	-7.494085	0.000147	1.474170	0.249731	0.000015
 384	3.8108e+01	3.8052	-7.472088	0.000221	2.211255	0.374597	0.000022
 385	3.8208e+01	3.8171	-7.452128	0.000201	2.006509	0.339912	0.000020
 386	3.8307e+01	3.8242	-7.438279	0.000139	1.392272	0.235857	0.000014
 387	3.8407e+01	3.8351	-7.421578	0.000168	1.678916	0.284416	0.000017
 388	3.8507e+01	3.8464	-7.402840	0.000188	1.883662	0.319101	0.000019
 389	3.8606e+01	3.8580	-7.381251	0.000217	2.170306	0.367660	0.000022
 390	3.8706e+01	3.8633	-7.361698	0.000197	1.965560	0.332975	0.000020
 391	3.8805e+01	3.8789	-7.343775	0.000180	1.801764	0.305227	0.000018
 392	3.8904e+01	3.8848	-7.327074	0.000168	1.678916	0.284416	0.000017
 393	3.9004e+01	3.8950	-7.307929	0.000192	1.924611	0.326038	0.000019
 394	3.9103e+01	3.9049	-7.289599	0.000184	1.842713	0.312164	0.000018
 395	3.9203e+01	3.9185	-7.271676	0.000180	1.801764	0.305227	0.000018
 396	3.9303e+01	3.9258	-7.253752	0.000180	1.801764	0.305227	0.000018
 397	3.9402e+01	3.9381	-7.235015	0.000188	1.883662	0.319101	0.000019
 398	3.9502e+01	3.9437	-7.216277	0.000188	1.883662	0.319101	0.000019
 399	3.9601e+01	3.9544	-7.200798	0.000156	1.556069	0.263605	0.000016
 400	3.9700e+01	3.9656	-7.181653	0.000192	1.924611	0.326038	0.000019
 401	3.9800e+01	3.9738	-7.159656	0.000221	2.211255	0.374597	0.000022
 402	3.9900e+01	3.9867	-7.138067	0.000217	2.170306	0.367660	0.000022
 403	3.9999e+01	3.9960	-7.116071	0.000221	2.211255	0.374597	0.000022
 404	4.0099e+01	4.0047	-7.096926	0.000192	1.924611	0.326038	0.000019
 405	4.0198e+01	4.0176	-7.072485	0.000246	2.456950	0.416219	0.000025
 406	4.0297e+01	4.0268	-7.051303	0.000213	2.129357	0.360723	0.000021
 407	4.0397e+01	4.0347	-7.031343	0.000201	2.006509	0.339912	0.000020
 408	4.0496e+01	4.0461	-7.009754	0.000217	2.170306	0.367660	0.000022
 409	4.0596e+01	4.0560	-6.988572	0.000213	2.129357	0.360723	0.000021
 410	4.0696e+01	4.0643	-6.966983	0.000217	2.170306	0.367660	0.000022
 411	4.0795e+01	4.0754	-6.946209	0.000209	2.088408	0.353786	0.000021
 412	4.0895e+01	4.0853	-6.923805	0.000225	2.252205	0.381534	0.000023
 413	4.0994e+01	4.0950	-6.900994	0.000229	2.293154	0.388471	0.000023
 414	4.1093e+01	4.1045	-6.876553	0.000246	2.456950	0.416219	0.000025
 415	4.1193e+01	4.1154	-6.855371	0.000213	2.129357	0.360723	0.000021
 416	4.1292e+01	4.1265	-6.836226	0.000192	1.924611	0.326038	0.000019
 417	4.1392e+01	4.1368	-6.812601	0.000238	2.375052	0.402345	0.000024
 418	4.1492e+01	4.1434	-6.791826	0.000209	2.088408	0.353786	0.000021
 419	4.1591e+01	4.1550	-6.769830	0.000221	2.211255	0.374597	0.000022
 420	4.1691e+01	4.1668	-6.743352	0.000266	2.661696	0.450904	0.000027
 421	4.1790e+01	4.1763	-6.722985	0.000205	2.047459	0.346849	0.000020
 422	4.1889e+01	4.1837	-6.699359	0.000238	2.375052	0.402345	0.000024
 423	4.1989e+01	4.1950	-6.677363	0.000221	2.211255	0.374597	0.000022
 424	4.2089e+01	4.2053	-6.655366	0.000221	2.211255	0.374597	0.000022
 425	4.2188e+01	4.2136	-6.634999	0.000205	2.047459	0.346849	0.000020
 426	4.2288e+01	4.2245	-6.611373	0.000238	2.375052	0.402345	0.000024
 427	4.2387e+01	4.2336	-6.589377	0.000221	2.211255	0.374597	0.000022
 428	4.2486e+01	4.2434	-6.565751	0.000238	2.375052	0.402345	0.000024
 429	4.2586e+01	4.2554	-6.547013	0.000188	1.883662	0.319101	0.000019
 430	4.2685e+01	4.2669	-6.521351	0.000258	2.579798	0.437030	0.000026
 431	4.2785e+01	4.2741	-6.500576	0.000209	2.088408	0.353786	0.000021
 432	4.2885e+01	4.2847	-6.476543	0.000242	2.416001	0.409282	0.000024
 433	4.2984e+01	4.2943	-6.451695	0.000250	2.497900	0.423156	0.000025
 434	4.3084e+01	4.3037	-6.428884	0.000229	2.293154	0.388471	0.000023
 435	4.3183e+01	4.3161	-6.410146	0.000188	1.883662	0.319101	0.000019
 436	4.3282e+01	4.3246	-6.384076	0.000262	2.620747	0.443967	0.000026
 437	4.3382e+01	4.3360	-6.359228	0.000250	2.497900	0.423156	0.000025
 438	4.3481e+01	4.3432	-6.336417	0.000229	2.293154	0.388471	0.000023
 439	4.3581e+01	4.3543	-6.314013	0.000225	2.252205	0.381534	0.000023
 440	4.3681e+01	4.3629	-6.290795	0.000233	2.334103	0.395408	0.000023
 441	4.3780e+01	4.3725	-6.264725	0.000262	2.620747	0.443967	0.000026
 442	4.3880e+01	4.3824	-6.242321	0.000225	2.252205	0.381534	0.000023
 443	4.3979e+01	4.3923	-6.219510	0.000229	2.293154	0.388471	0.000023
 444	4.4078e+01	4.4038	-6.198328	0.000213	2.129357	0.360723	0.000021
 445	4.4178e+01	4.4158	-6.173480	0.000250	2.497900	0.423156	0.000025
 446	4.4278e+01	4.4222	-6.150669	0.000229	2.293154	0.388471	0.000023
 447	4.4377e+01	4.4334	-6.132338	0.000184	1.842713	0.312164	0.000018
 448	4.4477e+01	4.4416	-6.106676	0.000258	2.579798	0.437030	0.000026
 449	4.4576e+01	4.4538	-6.079791	0.000270	2.702645	0.457841	0.000027
 450	4.4675e+01	4.4646	-6.056980	0.000229	2.293154	0.388471	0.000023
 451	4.4775e+01	4.4748	-6.037835	0.000192	1.924611	0.326038	0.000019
 452	4.4874e+01	4.4836	-6.010950	0.000270	2.702645	0.457841	0.000027
 453	4.4974e+01	4.4937	-5.990176	0.000209	2.088408	0.353786	0.000021
 454	4.5074e+01	4.5043	-5.963291	0.000270	2.702645	0.457841	0.000027
 455	4.5173e+01	4.5144	-5.944146	0.000192	1.924611	0.326038	0.000019
 456	4.5273e+01	4.5213	-5.918891	0.000254	2.538849	0.430093	0.000025
 457	4.5372e+01	4.5322	-5.898116	0.000209	2.088408	0.353786	0.000021
 458	4.5471e+01	4.5431	-5.872861	0.000254	2.538849	0.430093	0.000025
 459	4.5571e+01	4.5539	-5.852087	0.000209	2.088408	0.353786	0.000021
 460	4.5670e+01	4.5623	-5.827239	0.000250	2.497900	0.423156	0.000025
 461	4.5770e+01	4.5719	-5.806464	0.000209	2.088408	0.353786	0.000021
 462	4.5870e+01	4.5826	-5.781617	0.000250	2.497900	0.423156	0.000025
 463	4.5969e+01	4.5947	-5.759213	0.000225	2.252205	0.381534	0.000023
 464	4.6069e+01	4.6033	-5.732328	0.000270	2.702645	0.457841	0.000027
 465	4.6168e+01	4.6140	-5.708295	0.000242	2.416001	0.409282	0.000024
 466	4.6267e+01	4.6207	-5.681410	0.000270	2.702645	0.457841	0.000027
 467	4.6367e+01	4.6317	-5.656562	0.000250	2.497900	0.423156	0.000025
 468	4.6467e+01	4.6445	-5.627641	0.000291	2.907391	0.492525	0.000029
 469	4.6566e+01	4.6534	-5.602793	0.000250	2.497900	0.423156	0.000025
 470	4.6666e+01	4.6629	-5.577131	0.000258	2.579798	0.437030	0.000026
 471	4.6765e+01	4.6725	-5.552690	0.000246	2.456950	0.416219	0.000025
 472	4.6864e+01	4.6859	-5.527027	0.000258	2.579798	0.437030	0.000026
 473	4.6964e+01	4.6920	-5.502180	0.000250	2.497900	0.423156	0.000025
 474	4.7063e+01	4.7013	-5.477739	0.000246	2.456950	0.416219	0.000025
 475	4.7163e+01	4.7137	-5.450854	0.000270	2.702645	0.457841	0.000027
 476	4.7263e+01	4.7195	-5.424784	0.000262	2.620747	0.443967	0.000026
 477	4.7362e+01	4.7334	-5.399529	0.000254	2.538849	0.430093	0.000025
 478	4.7462e+01	4.7454	-5.374274	0.000254	2.538849	0.430093	0.000025
 479	4.7561e+01	4.7552	-5.345353	0.000291	2.907391	0.492525	0.000029
 480	4.7660e+01	4.7607	-5.320505	0.000250	2.497900	0.423156	0.000025
 481	4.7760e+01	4.7717	-5.293620	0.000270	2.702645	0.457841	0.000027
 482	4.7859e+01	4.7840	-5.270809	0.000229	2.293154	0.388471	0.000023
 483	4.7959e+01	4.7951	-5.244739	0.000262	2.620747	0.443967	0.000026
 484	4.8059e+01	4.8023	-5.222335	0.000225	2.252205	0.381534	0.000023
 485	4.8158e+01	4.8106	-5.196673	0.000258	2.579798	0.437030	0.000026
 486	4.8258e+01	4.8229	-5.171825	0.000250	2.497900	0.423156	0.000025
 487	4.8357e+01	4.8307	-5.147384	0.000246	2.456950	0.416219	0.000025
 488	4.8456e+01	4.8405	-5.127832	0.000197	1.965560	0.332975	0.000020
 489	4.8556e+01	4.8525	-5.106650	0.000213	2.129357	0.360723	0.000021
 490	4.8656e+01	4.8649	-5.083024	0.000238	2.375052	0.402345	0.000024
 491	4.8755e+01	4.8696	-5.062250	0.000209	2.088408	0.353786	0.000021
 492	4.8855e+01	4.8806	-5.038216	0.000242	2.416001	0.409282	0.000024
 493	4.8954e+01	4.8890	-5.016627	0.000217	2.170306	0.367660	0.000022
 494	4.9053e+01	4.9022	-4.995038	0.000217	2.170306	0.367660	0.000022
 495	4.9153e+01	4.9123	-4.971412	0.000238	2.375052	0.402345	0.000024
 496	4.9252e+01	4.9244	-4.946564	0.000250	2.497900	0.423156	0.000025
 497	4.9352e+01	4.9328	-4.929456	0.000172	1.719865	0.291353	0.000017
 498	4.9452e+01	4.9442	-4.904608	0.000250	2.497900	0.423156	0.000025
 499	4.9551e+01	4.9512	-4.886685	0.000180	1.801764	0.305227	0.000018
 500	4.9651e+01	4.9616	-4.866318	0.000205	2.047459	0.346849	0.000020
 501	4.9750e+01	4.9728	-4.841063	0.000254	2.538849	0.430093	0.000025
 502	4.9849e+01	4.9834	-4.821917	0.000192	1.924611	0.326038	0.000019
 503	4.9949e+01	4.9908	-4.797477	0.000246	2.456950	0.416219	0.000025
 504	5.0048e+01	5.0011	-4.775480	0.000221	2.211255	0.374597	0.000022
 505	5.0148e+01	5.0116	-4.756743	0.000188	1.883662	0.319101	0.000019
 506	5.0248e+01	5.0198	-4.735561	0.000213	2.129357	0.360723	0.000021
 507	5.0347e+01	5.0311	-4.712342	0.000233	2.334103	0.395408	0.000023
 508	5.0447e+01	5.0372	-4.692790	0.000197	1.965560	0.332975	0.000020
 509	5.0546e+01	5.0512	-4.668757	0.000242	2.416001	0.409282	0.000024
 510	5.0645e+01	5.0600	-4.650019	0.000188	1.883662	0.319101	0.000019
 511	5.0745e+01	5.0698	-4.628837	0.000213	2.129357	0.360723	0.000021
 512	5.0844e+01	5.0796	-4.608063	0.000209	2.088408	0.353786	0.000021
 513	5.0944e+01	5.0900	-4.586473	0.000217	2.170306	0.367660	0.000022
 514	5.1044e+01	5.0994	-4.561218	0.000254	2.538849	0.430093	0.000025
 515	5.1143e+01	5.1080	-4.542480	0.000188	1.883662	0.319101	0.000019
 516	5.1242e+01	5.1194	-4.520891	0.000217	2.170306	0.367660	0.000022
 517	5.1342e+01	5.1302	-4.502561	0.000184	1.842713	0.312164	0.000018
 518	5.1441e+01	5.1373	-4.478935	0.000238	2.375052	0.402345	0.000024
 519	5.1541e+01	5.1515	-4.458975	0.000201	2.006509	0.339912	0.000020
 520	5.1641e+01	5.1604	-4.441052	0.000180	1.801764	0.305227	0.000018
 521	5.1740e+01	5.1690	-4.424351	0.000168	1.678916	0.284416	0.000017
 522	5.1840e+01	5.1782	-4.399911	0.000246	2.456950	0.416219	0.000025
 523	5.1939e+01	5.1901	-4.382802	0.000172	1.719865	0.291353	0.000017
 524	5.2038e+01	5.2004	-4.355510	0.000274	2.743595	0.464778	0.000027
 525	5.2138e+01	5.2105	-4.340031	0.000156	1.556069	0.263605	0.000016
 526	5.2237e+01	5.2193	-4.320479	0.000197	1.965560	0.332975	0.000020
 527	5.2337e+01	5.2310	-4.298890	0.000217	2.170306	0.367660	0.000022
 528	5.2437e+01	5.2401	-4.276893	0.000221	2.211255	0.374597	0.000022
 529	5.2536e+01	5.2480	-4.255304	0.000217	2.170306	0.367660	0.000022
 530	5.2636e+01	5.2601	-4.237381	0.000180	1.801764	0.305227	0.000018
 531	5.2735e+01	5.2700	-4.212533	0.000250	2.497900	0.423156	0.000025
 532	5.2834e+01	5.2789	-4.194203	0.000184	1.842713	0.312164	0.000018
 533	5.2934e+01	5.2884	-4.175057	0.000192	1.924611	0.326038	0.000019
 534	5.3033e+01	5.2985	-4.156320	0.000188	1.883662	0.319101	0.000019
 535	5.3133e+01	5.3111	-4.137175	0.000192	1.924611	0.326038	0.000019
 536	5.3233e+01	5.3149	-4.113956	0.000233	2.334103	0.395408	0.000023
 537	5.3332e+01	5.3289	-4.095218	0.000188	1.883662	0.319101	0.000019
 538	5.3431e+01	5.3373	-4.074851	0.000205	2.047459	0.346849	0.000020
 539	5.3531e+01	5.3498	-4.056113	0.000188	1.883662	0.319101	0.000019
 540	5.3630e+01	5.3593	-4.032488	0.000238	2.375052	0.402345	0.000024
 541	5.3730e+01	5.3671	-4.012935	0.000197	1.965560	0.332975	0.000020
 542	5.3830e+01	5.3779	-3.993790	0.000192	1.924611	0.326038	0.000019
 543	5.3929e+01	5.3876	-3.972201	0.000217	2.170306	0.367660	0.000022
 544	5.4029e+01	5.3960	-3.951019	0.000213	2.129357	0.360723	0.000021
 545	5.4128e+01	5.4073	-3.929430	0.000217	2.170306	0.367660	0.000022
 546	5.4227e+01	5.4168	-3.910285	0.000192	1.924611	0.326038	0.000019
 547	5.4327e+01	5.4284	-3.891140	0.000192	1.924611	0.326038	0.000019
 548	5.4426e+01	5.4374	-3.871587	0.000197	1.965560	0.332975	0.000020
 549	5.4526e+01	5.4452	-3.854072	0.000176	1.760814	0.298290	0.000018
 550	5.4626e+01	5.4591	-3.834926	0.000192	1.924611	0.326038	0.000019
 551	5.4725e+01	5.4720	-3.814152	0.000209	2.088408	0.353786	0.000021
 552	5.4825e+01	5.4764	-3.801524	0.000127	1.269424	0.215046	0.000013
 553	5.4924e+01	5.4867	-3.782379	0.000192	1.924611	0.326038	0.000019
 554	5.5023e+01	5.4984	-3.763234	0.000192	1.924611	0.326038	0.000019
 555	5.5123e+01	5.5083	-3.746533	0.000168	1.678916	0.284416	0.000017
 556	5.5222e+01	5.5198	-3.731461	0.000152	1.515119	0.256668	0.000015
 557	5.5322e+01	5.5273	-3.709058	0.000225	2.252205	0.381534	0.000023
 558	5.5422e+01	5.5386	-3.691542	0.000176	1.760814	0.298290	0.000018
 559	5.5521e+01	5.5477	-3.671989	0.000197	1.965560	0.332975	0.000020
 560	5.5620e+01	5.5592	-3.654474	0.000176	1.760814	0.298290	0.000018
 561	5.5720e+01	5.5670	-3.637773	0.000168	1.678916	0.284416	0.000017
 562	5.5819e+01	5.5771	-3.619035	0.000188	1.883662	0.319101	0.000019
 563	5.5919e+01	5.5886	-3.606000	0.000131	1.310374	0.221983	0.000013
 564	5.6019e+01	5.5965	-3.586040	0.000201	2.006509	0.339912	0.000020
 565	5.6118e+01	5.6044	-3.570968	0.000152	1.515119	0.256668	0.000015
 566	5.6218e+01	5.6152	-3.551009	0.000201	2.006509	0.339912	0.000020
 567	5.6317e+01	5.6271	-3.534715	0.000164	1.637967	0.277479	0.000016
 568	5.6416e+01	5.6363	-3.512718	0.000221	2.211255	0.374597	0.000022
 569	5.6516e+01	5.6460	-3.491129	0.000217	2.170306	0.367660	0.000022
 570	5.6615e+01	5.6588	-3.474428	0.000168	1.678916	0.284416	0.000017
 571	5.6715e+01	5.6668	-3.451617	0.000229	2.293154	0.388471	0.000023
 572	5.6815e+01	5.6774	-3.431657	0.000201	2.006509	0.339912	0.000020
 573	5.6914e+01	5.6882	-3.412920	0.000188	1.883662	0.319101	0.000019
 574	5.7014e+01	5.6968	-3.391738	0.000213	2.129357	0.360723	0.000021
 575	5.7113e+01	5.7064	-3.371371	0.000205	2.047459	0.346849	0.000020
 576	5.7212e+01	5.7189	-3.349374	0.000221	2.211255	0.374597	0.000022
 577	5.7312e+01	5.7262	-3.328600	0.000209	2.088408	0.353786	0.000021
 578	5.7411e+01	5.7357	-3.305788	0.000229	2.293154	0.388471	0.000023
 579	5.7511e+01	5.7502	-3.282163	0.000238	2.375052	0.402345	0.000024
 580	5.7611e+01	5.7565	-3.260981	0.000213	2.129357	0.360723	0.000021
 581	5.7710e+01	5.7671	-3.239799	0.000213	2.129357	0.360723	0.000021
 582	5.7809e+01	5.7774	-3.219839	0.000201	2.006509	0.339912	0.000020
 583	5.7909e+01	5.7880	-3.198657	0.000213	2.129357	0.360723	0.000021
 584	5.8008e+01	5.7989	-3.178290	0.000205	2.047459	0.346849	0.000020
 585	5.8108e+01	5.8053	-3.155886	0.000225	2.252205	0.381534	0.000023
 586	5.8208e+01	5.8170	-3.131446	0.000246	2.456950	0.416219	0.000025
 587	5.8307e+01	5.8236	-3.112708	0.000188	1.883662	0.319101	0.000019
 588	5.8407e+01	5.8346	-3.090712	0.000221	2.211255	0.374597	0.000022
 589	5.8506e+01	5.8474	-3.067493	0.000233	2.334103	0.395408	0.000023
 590	5.8605e+01	5.8563	-3.044682	0.000229	2.293154	0.388471	0.000023
 591	5.8705e+01	5.8650	-3.026759	0.000180	1.801764	0.305227	0.000018
 592	5.8804e+01	5.8751	-3.001911	0.000250	2.497900	0.423156	0.000025
 593	5.8904e+01	5.8855	-2.979507	0.000225	2.252205	0.381534	0.000023
 594	5.9004e+01	5.8974	-2.957103	0.000225	2.252205	0.381534	0.000023
 595	5.9103e+01	5.9058	-2.935107	0.000221	2.211255	0.374597	0.000022
 596	5.9203e+01	5.9123	-2.911074	0.000242	2.416001	0.409282	0.000024
 597	5.9302e+01	5.9229	-2.890706	0.000205	2.047459	0.346849	0.000020
 598	5.9401e+01	5.9354	-2.865859	0.000250	2.497900	0.423156	0.000025
 599	5.9501e+01	5.9444	-2.846713	0.000192	1.924611	0.326038	0.000019
 600	5.9600e+01	5.9586	-2.823088	0.000238	2.375052	0.402345	0.000024
 601	5.9700e+01	5.9661	-2.803128	0.000201	2.006509	0.339912	0.000020
 602	5.9800e+01	5.9776	-2.780317	0.000229	2.293154	0.388471	0.000023
 603	5.9899e+01	5.9868	-2.752617	0.000278	2.784544	0.471714	0.000028
 604	5.9998e+01	5.9966	-2.732250	0.000205	2.047459	0.346849	0.000020
 605	6.0098e+01	6.0049	-2.707402	0.000250	2.497900	0.423156	0.000025
 606	6.0197e+01	6.0134	-2.685406	0.000221	2.211255	0.374597	0.000022
 607	6.0297e+01	6.0241	-2.663002	0.000225	2.252205	0.381534	0.000023
 608	6.0397e+01	6.0348	-2.641413	0.000217	2.170306	0.367660	0.000022
 609	6.0496e+01	6.0484	-2.613306	0.000283	2.825493	0.478651	0.000028
 610	6.0596e+01	6.0562	-2.592939	0.000205	2.047459	0.346849	0.000020
 611	6.0695e+01	6.0639	-2.570943	0.000221	2.211255	0.374597	0.000022
 612	6.0794e+01	6.0757	-2.546909	0.000242	2.416001	0.409282	0.000024
 613	6.0894e+01	6.0838	-2.521654	0.000254	2.538849	0.430093	0.000025
 614	6.0993e+01	6.0950	-2.501694	0.000201	2.006509	0.339912	0.000020
 615	6.1093e+01	6.1065	-2.479290	0.000225	2.252205	0.381534	0.000023
 616	6.1193e+01	6.1158	-2.455257	0.000242	2.416001	0.409282	0.000024
 617	6.1292e+01	6.1253	-2.431224	0.000242	2.416001	0.409282	0.000024
 618	6.1392e+01	6.1358	-2.411264	0.000201	2.006509	0.339912	0.000020
 619	6.1491e+01	6.1446	-2.387231	0.000242	2.416001	0.409282	0.000024
 620	6.1590e+01	6.1535	-2.362790	0.000246	2.456950	0.416219	0.000025
 621	6.1690e+01	6.1646	-2.338350	0.000246	2.456950	0.416219	0.000025
 622	6.1789e+01	6.1761	-2.312687	0.000258	2.579798	0.437030	0.000026
 623	6.1889e+01	6.1838	-2.294764	0.000180	1.801764	0.305227	0.000018
 624	6.1989e+01	6.1968	-2.267472	0.000274	2.743595	0.464778	0.000027
 625	6.2088e+01	6.2049	-2.243439	0.000242	2.416001	0.409282	0.000024
 626	6.2188e+01	6.2151	-2.221850	0.000217	2.170306	0.367660	0.000022
 627	6.2287e+01	6.2254	-2.200261	0.000217	2.170306	0.367660	0.000022
 628	6.2386e+01	6.2334	-2.174191	0.000262	2.620747	0.443967	0.000026
 629	6.2486e+01	6.2462	-2.148528	0.000258	2.579798	0.437030	0.000026
 630	6.2586e+01	6.2567	-2.127754	0.000209	2.088408	0.353786	0.000021
 631	6.2685e+01	6.2653	-2.106572	0.000213	2.129357	0.360723	0.000021
 632	6.2785e+01	6.2753	-2.079280	0.000274	2.743595	0.464778	0.000027
 633	6.2884e+01	6.2850	-2.056876	0.000225	2.252205	0.381534	0.000023
 634	6.2983e+01	6.2954	-2.030806	0.000262	2.620747	0.443967	0.000026
 635	6.3083e+01	6.3061	-2.004329	0.000266	2.661696	0.450904	0.000027
 636	6.3182e+01	6.3139	-1.977037	0.000274	2.743595	0.464778	0.000027
 637	6.3282e+01	6.3233	-1.952189	0.000250	2.497900	0.423156	0.000025
 638	6.3382e+01	6.3328	-1.921638	0.000307	3.071188	0.520273	0.000031
 639	6.3481e+01	6.3422	-1.897198	0.000246	2.456950	0.416219	0.000025
 640	6.3581e+01	6.3531	-1.873165	0.000242	2.416001	0.409282	0.000024
 641	6.3680e+01	6.3613	-1.851168	0.000221	2.211255	0.374597	0.000022
 642	6.3779e+01	6.3731	-1.821840	0.000295	2.948340	0.499462	0.000029
 643	6.3879e+01	6.3861	-1.799028	0.000229	2.293154	0.388471	0.000023
 644	6.3978e+01	6.3916	-1.768885	0.000303	3.030239	0.513336	0.000030
 645	6.4078e+01	6.4014	-1.745667	0.000233	2.334103	0.395408	0.000023
 646	6.4177e+01	6.4088	-1.717560	0.000283	2.825493	0.478651	0.000028
 647	6.4277e+01	6.4230	-1.689861	0.000278	2.784544	0.471714	0.000028
 648	6.4376e+01	6.4323	-1.661347	0.000287	2.866442	0.485588	0.000029
 649	6.4476e+01	6.4429	-1.634869	0.000266	2.661696	0.450904	0.000027
 650	6.4576e+01	6.4507	-1.609614	0.000254	2.538849	0.430093	0.000025
 651	6.4675e+01	6.4625	-1.588840	0.000209	2.088408	0.353786	0.000021
 652	6.4775e+01	6.4721	-1.557882	0.000311	3.112137	0.527210	0.000031
 653	6.4874e+01	6.4822	-1.533034	0.000250	2.497900	0.423156	0.000025
 654	6.4974e+01	6.4925	-1.512667	0.000205	2.047459	0.346849	0.000020
 655	6.5073e+01	6.5049	-1.489448	0.000233	2.334103	0.395408	0.000023
 656	6.5172e+01	6.5139	-1.462971	0.000266	2.661696	0.450904	0.000027
 657	6.5272e+01	6.5258	-1.444233	0.000188	1.883662	0.319101	0.000019
 658	6.5371e+01	6.5324	-1.418978	0.000254	2.538849	0.430093	0.000025
 659	6.5471e+01	6.5412	-1.396981	0.000221	2.211255	0.374597	0.000022
 660	6.5570e+01	6.5528	-1.372541	0.000246	2.456950	0.416219	0.000025
 661	6.5670e+01	6.5614	-1.352988	0.000197	1.965560	0.332975	0.000020
 662	6.5769e+01	6.5716	-1.324882	0.000283	2.825493	0.478651	0.000028
 663	6.5869e+01	6.5835	-1.304515	0.000205	2.047459	0.346849	0.000020
 664	6.5969e+01	6.5920	-1.283740	0.000209	2.088408	0.353786	0.000021
 665	6.6068e+01	6.6014	-1.260929	0.000229	2.293154	0.388471	0.000023
 666	6.6168e+01	6.6117	-1.238932	0.000221	2.211255	0.374597	0.000022
 667	6.6267e+01	6.6227	-1.212455	0.000266	2.661696	0.450904	0.000027
 668	6.6367e+01	6.6351	-1.192088	0.000205	2.047459	0.346849	0.000020
 669	6.6466e+01	6.6412	-1.172128	0.000201	2.006509	0.339912	0.000020
 670	6.6566e+01	6.6528	-1.146873	0.000254	2.538849	0.430093	0.000025
 671	6.6665e+01	6.6619	-1.125284	0.000217	2.170306	0.367660	0.000022
 672	6.6764e+01	6.6716	-1.101251	0.000242	2.416001	0.409282	0.000024
 673	6.6864e+01	6.6830	-1.080069	0.000213	2.129357	0.360723	0.000021
 674	6.6963e+01	6.6915	-1.060924	0.000192	1.924611	0.326038	0.000019
 675	6.7063e+01	6.7007	-1.036890	0.000242	2.416001	0.409282	0.000024
 676	6.7162e+01	6.7141	-1.013265	0.000238	2.375052	0.402345	0.000024
 677	6.7262e+01	6.7199	-0.992897	0.000205	2.047459	0.346849	0.000020
 678	6.7362e+01	6.7327	-0.972123	0.000209	2.088408	0.353786	0.000021
 679	6.7461e+01	6.7435	-0.949719	0.000225	2.252205	0.381534	0.000023
 680	6.7561e+01	6.7535	-0.926501	0.000233	2.334103	0.395408	0.000023
 681	6.7660e+01	6.7644	-0.903282	0.000233	2.334103	0.395408	0.000023
 682	6.7760e+01	6.7707	-0.879249	0.000242	2.416001	0.409282	0.000024
 683	6.7859e+01	6.7815	-0.857252	0.000221	2.211255	0.374597	0.000022
 684	6.7959e+01	6.7909	-0.836885	0.000205	2.047459	0.346849	0.000020
 685	6.8058e+01	6.8014	-0.811630	0.000254	2.538849	0.430093	0.000025
 686	6.8157e+01	6.8093	-0.796151	0.000156	1.556069	0.263605	0.000016
 687	6.8257e+01	6.8197	-0.770896	0.000254	2.538849	0.430093	0.000025
 688	6.8356e+01	6.8331	-0.750529	0.000205	2.047459	0.346849	0.000020
 689	6.8456e+01	6.8433	-0.726903	0.000238	2.375052	0.402345	0.000024
 690	6.8555e+01	6.8517	-0.706943	0.000201	2.006509	0.339912	0.000020
 691	6.8655e+01	6.8598	-0.685354	0.000217	2.170306	0.367660	0.000022
 692	6.8754e+01	6.8724	-0.664172	0.000213	2.129357	0.360723	0.000021
 693	6.8854e+01	6.8811	-0.641768	0.000225	2.252205	0.381534	0.000023
 694	6.8954e+01	6.8884	-0.618957	0.000229	2.293154	0.388471	0.000023
 695	6.9053e+01	6.9025	-0.595738	0.000233	2.334103	0.395408	0.000023
 696	6.9153e+01	6.9095	-0.572113	0.000238	2.375052	0.402345	0.000024
 697	6.9252e+01	6.9235	-0.552560	0.000197	1.965560	0.332975	0.000020
 698	6.9352e+01	6.9305	-0.531378	0.000213	2.129357	0.360723	0.000021
 699	6.9451e+01	6.9422	-0.506123	0.000254	2.538849	0.430093	0.000025
 700	6.9550e+01	6.9512	-0.485756	0.000205	2.047459	0.346849	0.000020
 701	6.9650e+01	6.9585	-0.462945	0.000229	2.293154	0.388471	0.000023
 702	6.9749e+01	6.9729	-0.440948	0.000221	2.211255	0.374597	0.000022
 703	6.9849e+01	6.9802	-0.416915	0.000242	2.416001	0.409282	0.000024
 704	6.9948e+01	6.9908	-0.396955	0.000201	2.006509	0.339912	0.000020
 705	7.0048e+01	7.0004	-0.374551	0.000225	2.252205	0.381534	0.000023
 706	7.0147e+01	7.0107	-0.349704	0.000250	2.497900	0.423156	0.000025
 707	7.0247e+01	7.0203	-0.329336	0.000205	2.047459	0.346849	0.000020
 708	7.0347e+01	7.0301	-0.307747	0.000217	2.170306	0.367660	0.000022
 709	7.0446e+01	7.0451	-0.282492	0.000254	2.538849	0.430093	0.000025
 710	7.0546e+01	7.0464	-0.262940	0.000197	1.965560	0.332975	0.000020
 711	7.0645e+01	7.0570	-0.238092	0.000250	2.497900	0.423156	0.000025
 712	7.0745e+01	7.0716	-0.214466	0.000238	2.375052	0.402345	0.000024
 713	7.0844e+01	7.0777	-0.191247	0.000233	2.334103	0.395408	0.000023
 714	7.0944e+01	7.0891	-0.171288	0.000201	2.006509	0.339912	0.000020
 715	7.1043e+01	7.0998	-0.149291	0.000221	2.211255	0.374597	0.000022
 716	7.1142e+01	7.1113	-0.129331	0.000201	2.006509	0.339912	0.000020
 717	7.1242e+01	7.1212	-0.109779	0.000197	1.965560	0.332975	0.000020
 718	7.1341e+01	7.1333	-0.087782	0.000221	2.211255	0.374597	0.000022
 719	7.1441e+01	7.1407	-0.065786	0.000221	2.211255	0.374597	0.000022
 720	7.1540e+01	7.1514	-0.049899	0.000160	1.597018	0.270542	0.000016
 721	7.1640e+01	7.1609	-0.027088	0.000229	2.293154	0.388471	0.000023
 722	7.1740e+01	7.1655	-0.005499	0.000217	2.170306	0.367660	0.000022
 723	7.1839e+01	7.1796	0.014053	0.000197	1.965560	0.332975	0.000020
 724	7.1939e+01	7.1884	0.034013	0.000201	2.006509	0.339912	0.000020
 725	7.2038e+01	7.1964	0.058454	0.000246	2.456950	0.416219	0.000025
 726	7.2138e+01	7.2102	0.075969	0.000176	1.760814	0.298290	0.000018
 727	7.2237e+01	7.2207	0.096337	0.000205	2.047459	0.346849	0.000020
 728	7.2337e+01	7.2321	0.118740	0.000225	2.252205	0.381534	0.000023
 729	7.2436e+01	7.2380	0.137885	0.000192	1.924611	0.326038	0.000019
 730	7.2535e+01	7.2473	0.153772	0.000160	1.597018	0.270542	0.000016
 731	7.2635e+01	7.2604	0.174954	0.000213	2.129357	0.360723	0.000021
 732	7.2734e+01	7.2694	0.196950	0.000221	2.211255	0.374597	0.000022
 733	7.2834e+01	7.2797	0.220576	0.000238	2.375052	0.402345	0.000024
 734	7.2933e+01	7.2924	0.240943	0.000205	2.047459	0.346849	0.000020
 735	7.3033e+01	7.2988	0.260088	0.000192	1.924611	0.326038	0.000019
 736	7.3132e+01	7.3084	0.280048	0.000201	2.006509	0.339912	0.000020
 737	7.3232e+01	7.3210	0.308155	0.000283	2.825493	0.478651	0.000028
 738	7.3332e+01	7.3277	0.329744	0.000217	2.170306	0.367660	0.000022
 739	7.3431e+01	7.3391	0.354999	0.000254	2.538849	0.430093	0.000025
 740	7.3531e+01	7.3490	0.381069	0.000262	2.620747	0.443967	0.000026
 741	7.3630e+01	7.3564	0.403065	0.000221	2.211255	0.374597	0.000022
 742	7.3730e+01	7.3698	0.428728	0.000258	2.579798	0.437030	0.000026
 743	7.3829e+01	7.3772	0.451132	0.000225	2.252205	0.381534	0.000023
 744	7.3928e+01	7.3882	0.476794	0.000258	2.579798	0.437030	0.000026
 745	7.4028e+01	7.3988	0.503679	0.000270	2.702645	0.457841	0.000027
 746	7.4127e+01	7.4076	0.524454	0.000209	2.088408	0.353786	0.000021
 747	7.4227e+01	7.4158	0.553782	0.000295	2.948340	0.499462	0.000029
 748	7.4326e+01	7.4297	0.578223	0.000246	2.456950	0.416219	0.000025
 749	7.4426e+01	7.4365	0.601849	0.000238	2.375052	0.402345	0.000024
 750	7.4525e+01	7.4512	0.628326	0.000266	2.661696	0.450904	0.000027
 751	7.4625e+01	7.4575	0.656840	0.000287	2.866442	0.485588	0.000029
 752	7.4725e+01	7.4651	0.678836	0.000221	2.211255	0.374597	0.000022
 753	7.4824e+01	7.4765	0.704499	0.000258	2.579798	0.437030	0.000026
 754	7.4924e+01	7.4859	0.730162	0.000258	2.579798	0.437030	0.000026
 755	7.5023e+01	7.4986	0.757453	0.000274	2.743595	0.464778	0.000027
 756	7.5123e+01	7.5088	0.784338	0.000270	2.702645	0.457841	0.000027
 757	7.5222e+01	7.5172	0.810001	0.000258	2.579798	0.437030	0.000026
 758	7.5322e+01	7.5272	0.837700	0.000278	2.784544	0.471714	0.000028
 759	7.5421e+01	7.5345	0.864177	0.000266	2.661696	0.450904	0.000027
 760	7.5520e+01	7.5480	0.891877	0.000278	2.784544	0.471714	0.000028
 761	7.5620e+01	7.5584	0.919983	0.000283	2.825493	0.478651	0.000028
 762	7.5719e+01	7.5672	0.946053	0.000262	2.620747	0.443967	0.000026
 763	7.5819e+01	7.5768	0.970086	0.000242	2.416001	0.409282	0.000024
 764	7.5918e+01	7.5842	0.999008	0.000291	2.907391	0.492525	0.000029
 765	7.6018e+01	7.5983	1.023448	0.000246	2.456950	0.416219	0.000025
 766	7.6118e+01	7.6077	1.047889	0.000246	2.456950	0.416219	0.000025
 767	7.6217e+01	7.6176	1.078439	0.000307	3.071188	0.520273	0.000031
 768	7.6317e+01	7.6270	1.106139	0.000278	2.784544	0.471714	0.000028
 769	7.6416e+01	7.6351	1.133431	0.000274	2.743595	0.464778	0.000027
 770	7.6516e+01	7.6476	1.162759	0.000295	2.948340	0.499462	0.000029
 771	7.6615e+01	7.6569	1.190051	0.000274	2.743595	0.464778	0.000027
 772	7.6715e+01	7.6662	1.218565	0.000287	2.866442	0.485588	0.000029
 773	7.6814e+01	7.6769	1.247487	0.000291	2.907391	0.492525	0.000029
 774	7.6913e+01	7.6859	1.273556	0.000262	2.620747	0.443967	0.000026
 775	7.7013e+01	7.6955	1.302885	0.000295	2.948340	0.499462	0.000029
 776	7.7112e+01	7.7058	1.329770	0.000270	2.702645	0.457841	0.000027
 777	7.7212e+01	7.7160	1.357469	0.000278	2.784544	0.471714	0.000028
 778	7.7311e+01	7.7282	1.389242	0.000319	3.194036	0.541084	0.000032
 779	7.7411e+01	7.7370	1.416126	0.000270	2.702645	0.457841	0.000027
 780	7.7510e+01	7.7441	1.443418	0.000274	2.743595	0.464778	0.000027
 781	7.7610e+01	7.7581	1.474376	0.000311	3.112137	0.527210	0.000031
 782	7.7710e+01	7.7686	1.500039	0.000258	2.579798	0.437030	0.000026
 783	7.7809e+01	7.7769	1.528960	0.000291	2.907391	0.492525	0.000029
 784	7.7909e+01	7.7826	1.559511	0.000307	3.071188	0.520273	0.000031
 785	7.8008e+01	7.7969	1.588432	0.000291	2.907391	0.492525	0.000029
 786	7.8108e+01	7.8085	1.616132	0.000278	2.784544	0.471714	0.000028
 787	7.8207e+01	7.8175	1.647497	0.000315	3.153086	0.534147	0.000032
 788	7.8306e+01	7.8258	1.674789	0.000274	2.743595	0.464778	0.000027
 789	7.8406e+01	7.8348	1.704932	0.000303	3.030239	0.513336	0.000030
 790	7.8505e+01	7.8463	1.735890	0.000311	3.112137	0.527210	0.000031
 791	7.8605e+01	7.8553	1.766034	0.000303	3.030239	0.513336	0.000030
 792	7.8704e+01	7.8669	1.795362	0.000295	2.948340	0.499462	0.000029
 793	7.8804e+01	7.8770	1.822247	0.000270	2.702645	0.457841	0.000027
 794	7.8903e+01	7.8862	1.850354	0.000283	2.825493	0.478651	0.000028
 795	7.9003e+01	7.8963	1.885385	0.000352	3.521629	0.596580	0.000035
 796	7.9103e+01	7.9057	1.912270	0.000270	2.702645	0.457841	0.000027
 797	7.9202e+01	7.9166	1.942006	0.000299	2.989290	0.506399	0.000030
 798	7.9302e+01	7.9248	1.974593	0.000328	3.275934	0.554958	0.000033
 799	7.9401e+01	7.9375	2.005551	0.000311	3.112137	0.527210	0.000031
 800	7.9501e+01	7.9419	2.036102	0.000307	3.071188	0.520273	0.000031
 801	7.9600e+01	7.9565	2.067874	0.000319	3.194036	0.541084	0.000032
 802	7.9700e+01	7.9678	2.103721	0.000360	3.603527	0.610454	0.000036
 803	7.9799e+01	7.9774	2.137937	0.000344	3.439731	0.582706	0.000034
 804	7.9898e+01	7.9852	2.173376	0.000356	3.562578	0.603517	0.000036
 805	7.9998e+01	7.9961	2.205964	0.000328	3.275934	0.554958	0.000033
 806	8.0097e+01	8.0045	2.238958	0.000332	3.316883	0.561895	0.000033
 807	8.0197e+01	8.0170	2.272360	0.000336	3.357832	0.568832	0.000034
 808	8.0296e+01	8.0242	2.302911	0.000307	3.071188	0.520273	0.000031
 809	8.0396e+01	8.0365	2.335906	0.000332	3.316883	0.561895	0.000033
 810	8.0496e+01	8.0460	2.372567	0.000369	3.685426	0.624328	0.000037
 811	8.0595e+01	8.0558	2.406376	0.000340	3.398781	0.575769	0.000034
 812	8.0695e+01	8.0650	2.439778	0.000336	3.357832	0.568832	0.000034
 813	8.0794e+01	8.0752	2.472773	0.000332	3.316883	0.561895	0.000033
 814	8.0894e+01	8.0871	2.508212	0.000356	3.562578	0.603517	0.000036
 815	8.0993e+01	8.0962	2.546095	0.000381	3.808273	0.645139	0.000038
 816	8.1093e+01	8.1043	2.577867	0.000319	3.194036	0.541084	0.000032
 817	8.1192e+01	8.1141	2.616158	0.000385	3.849222	0.652076	0.000038
 818	8.1291e+01	8.1277	2.652818	0.000369	3.685426	0.624328	0.000037
 819	8.1391e+01	8.1359	2.680110	0.000274	2.743595	0.464778	0.000027
 820	8.1490e+01	8.1452	2.713512	0.000336	3.357832	0.568832	0.000034
 821	8.1590e+01	8.1559	2.748951	0.000356	3.562578	0.603517	0.000036
 822	8.1689e+01	8.1649	2.781946	0.000332	3.316883	0.561895	0.000033
 823	8.1789e+01	8.1780	2.814533	0.000328	3.275934	0.554958	0.000033
 824	8.1888e+01	8.1855	2.850787	0.000364	3.644476	0.617391	0.000036
 825	8.1988e+01	8.1925	2.879301	0.000287	2.866442	0.485588	0.000029
 826	8.2088e+01	8.2056	2.913110	0.000340	3.398781	0.575769	0.000034
 827	8.2187e+01	8.2140	2.945698	0.000328	3.275934	0.554958	0.000033
 828	8.2287e+01	8.2275	2.977470	0.000319	3.194036	0.541084	0.000032
 829	8.2386e+01	8.2352	3.009243	0.000319	3.194036	0.541084	0.000032
 830	8.2486e+01	8.2423	3.048348	0.000393	3.931121	0.665950	0.000039
 831	8.2585e+01	8.2539	3.080935	0.000328	3.275934	0.554958	0.000033
 832	8.2684e+01	8.2629	3.112301	0.000315	3.153086	0.534147	0.000032
 833	8.2784e+01	8.2729	3.143666	0.000315	3.153086	0.534147	0.000032
 834	8.2883e+01	8.2822	3.177476	0.000340	3.398781	0.575769	0.000034
 835	8.2983e+01	8.2948	3.211285	0.000340	3.398781	0.575769	0.000034
 836	8.3082e+01	8.3032	3.245502	0.000344	3.439731	0.582706	0.000034
 837	8.3182e+01	8.3144	3.281755	0.000364	3.644476	0.617391	0.000036
 838	8.3281e+01	8.3231	3.312306	0.000307	3.071188	0.520273	0.000031
 839	8.3381e+01	8.3352	3.350189	0.000381	3.808273	0.645139	0.000038
 840	8.3481e+01	8.3438	3.379517	0.000295	2.948340	0.499462	0.000029
 841	8.3580e+01	8.3515	3.416178	0.000369	3.685426	0.624328	0.000037
 842	8.3680e+01	8.3623	3.447951	0.000319	3.194036	0.541084	0.000032
 843	8.3779e+01	8.3773	3.478909	0.000311	3.112137	0.527210	0.000031
 844	8.3879e+01	8.3829	3.516792	0.000381	3.808273	0.645139	0.000038
 845	8.3978e+01	8.3936	3.548972	0.000323	3.234985	0.548021	0.000032
 846	8.4078e+01	8.4045	3.581559	0.000328	3.275934	0.554958	0.000033
 847	8.4177e+01	8.4145	3.618220	0.000369	3.685426	0.624328	0.000037
 848	8.4276e+01	8.4238	3.652030	0.000340	3.398781	0.575769	0.000034
 849	8.4376e+01	8.4363	3.686246	0.000344	3.439731	0.582706	0.000034
 850	8.4475e+01	8.4401	3.722907	0.000369	3.685426	0.624328	0.000037
 851	8.4575e+01	8.4543	3.756717	0.000340	3.398781	0.575769	0.000034
 852	8.4674e+01	8.4656	3.790119	0.000336	3.357832	0.568832	0.000034
 853	8.4774e+01	8.4732	3.821077	0.000311	3.112137	0.527210	0.000031
 854	8.4874e+01	8.4833	3.860996	0.000401	4.013019	0.679824	0.000040
 855	8.4973e+01	8.4946	3.893991	0.000332	3.316883	0.561895	0.000033
 856	8.5073e+01	8.5010	3.929430	0.000356	3.562578	0.603517	0.000036
 857	8.5172e+01	8.5146	3.964054	0.000348	3.480680	0.589643	0.000035
 858	8.5272e+01	8.5209	3.996641	0.000328	3.275934	0.554958	0.000033
 859	8.5371e+01	8.5324	4.032895	0.000364	3.644476	0.617391	0.000036
 860	8.5471e+01	8.5426	4.064668	0.000319	3.194036	0.541084	0.000032
 861	8.5570e+01	8.5523	4.103773	0.000393	3.931121	0.665950	0.000039
 862	8.5669e+01	8.5613	4.142063	0.000385	3.849222	0.652076	0.000038
 863	8.5769e+01	8.5770	4.178316	0.000364	3.644476	0.617391	0.000036
 864	8.5868e+01	8.5844	4.210496	0.000323	3.234985	0.548021	0.000032
 865	8.5968e+01	8.5914	4.252045	0.000418	4.176816	0.707572	0.000042
 866	8.6067e+01	8.6027	4.287484	0.000356	3.562578	0.603517	0.000036
 867	8.6167e+01	8.6123	4.322108	0.000348	3.480680	0.589643	0.000035
 868	8.6266e+01	8.6268	4.360806	0.000389	3.890171	0.659013	0.000039
 869	8.6366e+01	8.6346	4.401947	0.000414	4.135867	0.700635	0.000041
 870	8.6466e+01	8.6433	4.440237	0.000385	3.849222	0.652076	0.000038
 871	8.6565e+01	8.6511	4.476491	0.000364	3.644476	0.617391	0.000036
 872	8.6665e+01	8.6626	4.510708	0.000344	3.439731	0.582706	0.000034
 873	8.6764e+01	8.6703	4.552257	0.000418	4.176816	0.707572	0.000042
 874	8.6864e+01	8.6798	4.590140	0.000381	3.808273	0.645139	0.000038
 875	8.6963e+01	8.6906	4.626800	0.000369	3.685426	0.624328	0.000037
 876	8.7063e+01	8.7014	4.664276	0.000377	3.767324	0.638202	0.000038
 877	8.7162e+01	8.7126	4.708269	0.000442	4.422511	0.749194	0.000044
 878	8.7261e+01	8.7199	4.748188	0.000401	4.013019	0.679824	0.000040
 879	8.7361e+01	8.7305	4.786071	0.000381	3.808273	0.645139	0.000038
 880	8.7460e+01	8.7429	4.825176	0.000393	3.931121	0.665950	0.000039
 881	8.7560e+01	8.7525	4.865503	0.000405	4.053968	0.686761	0.000041
 882	8.7659e+01	8.7611	4.902979	0.000377	3.767324	0.638202	0.000038
 883	8.7759e+01	8.7721	4.941676	0.000389	3.890171	0.659013	0.000039
 884	8.7859e+01	8.7812	4.982410	0.000409	4.094917	0.693698	0.000041
 885	8.7958e+01	8.7895	5.015405	0.000332	3.316883	0.561895	0.000033
 886	8.8058e+01	8.8006	5.054103	0.000389	3.890171	0.659013	0.000039
 887	8.8157e+01	8.8105	5.091578	0.000377	3.767324	0.638202	0.000038
 888	8.8257e+01	8.8208	5.133127	0.000418	4.176816	0.707572	0.000042
 889	8.8356e+01	8.8313	5.171825	0.000389	3.890171	0.659013	0.000039
 890	8.8456e+01	8.8403	5.208078	0.000364	3.644476	0.617391	0.000036
 891	8.8555e+01	8.8496	5.247998	0.000401	4.013019	0.679824	0.000040
 892	8.8654e+01	8.8587	5.289954	0.000422	4.217765	0.714509	0.000042
 893	8.8754e+01	8.8711	5.328244	0.000385	3.849222	0.652076	0.000038
 894	8.8853e+01	8.8794	5.366127	0.000381	3.808273	0.645139	0.000038
 895	8.8953e+01	8.8908	5.410527	0.000446	4.463460	0.756131	0.000045
 896	8.9052e+01	8.8984	5.447596	0.000373	3.726375	0.631265	0.000037
 897	8.9152e+01	8.9111	5.488737	0.000414	4.135867	0.700635	0.000041
 898	8.9251e+01	8.9209	5.531508	0.000430	4.299663	0.728383	0.000043
 899	8.9351e+01	8.9312	5.570206	0.000389	3.890171	0.659013	0.000039
 900	8.9451e+01	8.9399	5.615421	0.000455	4.545358	0.770005	0.000045
 901	8.9550e+01	8.9494	5.654526	0.000393	3.931121	0.665950	0.000039
 902	8.9650e+01	8.9603	5.700148	0.000459	4.586307	0.776942	0.000046
 903	8.9749e+01	8.9740	5.742104	0.000422	4.217765	0.714509	0.000042
 904	8.9849e+01	8.9796	5.786505	0.000446	4.463460	0.756131	0.000045
 905	8.9948e+01	8.9898	5.832942	0.000467	4.668206	0.790815	0.000047
 906	9.0047e+01	8.9981	5.878564	0.000459	4.586307	0.776942	0.000046
 907	9.0147e+01	9.0093	5.925408	0.000471	4.709155	0.797752	0.000047
 908	9.0246e+01	9.0188	5.969809	0.000446	4.463460	0.756131	0.000045
 909	9.0346e+01	9.0305	6.019097	0.000495	4.954850	0.839374	0.000050
 910	9.0445e+01	9.0381	6.069608	0.000508	5.077698	0.860185	0.000051
 911	9.0545e+01	9.0493	6.118896	0.000495	4.954850	0.839374	0.000050
 912	9.0644e+01	9.0587	6.162889	0.000442	4.422511	0.749194	0.000044
 913	9.0744e+01	9.0675	6.215844	0.000532	5.323393	0.901807	0.000053
 914	9.0844e+01	9.0805	6.268798	0.000532	5.323393	0.901807	0.000053
 915	9.0943e+01	9.0918	6.316457	0.000479	4.791053	0.811626	0.000048
 916	9.1043e+01	9.1013	6.366560	0.000504	5.036748	0.853248	0.000050
 917	9.1142e+01	9.1079	6.422774	0.000565	5.650986	0.957303	0.000056
 918	9.1242e+01	9.1168	6.471655	0.000491	4.913901	0.832437	0.000049
 919	9.1341e+01	9.1284	6.525017	0.000536	5.364342	0.908744	0.000054
 920	9.1441e+01	9.1384	6.576342	0.000516	5.159596	0.874059	0.000052
 921	9.1540e+01	9.1473	6.625630	0.000495	4.954850	0.839374	0.000050
 922	9.1639e+01	9.1588	6.679807	0.000545	5.446240	0.922618	0.000054
 923	9.1739e+01	9.1663	6.737649	0.000581	5.814783	0.985051	0.000058
 924	9.1838e+01	9.1764	6.789382	0.000520	5.200545	0.880996	0.000052
 925	9.1938e+01	9.1905	6.849261	0.000602	6.019528	1.019736	0.000060
 926	9.2037e+01	9.1961	6.903845	0.000549	5.487189	0.929555	0.000055
 927	9.2137e+01	9.2090	6.962503	0.000590	5.896681	0.998925	0.000059
 928	9.2237e+01	9.2191	7.020345	0.000581	5.814783	0.985051	0.000058
 929	9.2336e+01	9.2285	7.080225	0.000602	6.019528	1.019736	0.000060
 930	9.2436e+01	9.2390	7.138067	0.000581	5.814783	0.985051	0.000058
 931	9.2535e+01	9.2484	7.200391	0.000627	6.265224	1.061358	0.000063
 932	9.2635e+01	9.2615	7.255789	0.000557	5.569088	0.943429	0.000056
 933	9.2734e+01	9.2666	7.313224	0.000577	5.773833	0.978114	0.000058
 934	9.2834e+01	9.2789	7.374326	0.000614	6.142376	1.040547	0.000061
 935	9.2933e+01	9.2890	7.430539	0.000565	5.650986	0.957303	0.000056
 936	9.3032e+01	9.3000	7.492048	0.000618	6.183325	1.047484	0.000062
 937	9.3132e+01	9.3109	7.553964	0.000622	6.224274	1.054421	0.000062
 938	9.3231e+01	9.3186	7.617509	0.000639	6.388071	1.082169	0.000064
 939	9.3331e+01	9.3295	7.677389	0.000602	6.019528	1.019736	0.000060
 940	9.3430e+01	9.3386	7.745822	0.000688	6.879461	1.165412	0.000069
 941	9.3530e+01	9.3457	7.808146	0.000627	6.265224	1.061358	0.000063
 942	9.3629e+01	9.3611	7.868840	0.000610	6.101427	1.033610	0.000061
 943	9.3729e+01	9.3686	7.933607	0.000651	6.510919	1.102979	0.000065
 944	9.3829e+01	9.3758	7.996745	0.000635	6.347122	1.075232	0.000063
 945	9.3928e+01	9.3884	8.062735	0.000663	6.633766	1.123790	0.000066
 946	9.4028e+01	9.3994	8.128317	0.000659	6.592817	1.116853	0.000066
 947	9.4127e+01	9.4092	8.195121	0.000672	6.715664	1.137664	0.000067
 948	9.4227e+01	9.4168	8.263555	0.000688	6.879461	1.165412	0.000069
 949	9.4326e+01	9.4251	8.331174	0.000680	6.797563	1.151538	0.000068
 950	9.4425e+01	9.4385	8.400014	0.000692	6.920410	1.172349	0.000069
 951	9.4525e+01	9.4471	8.471707	0.000721	7.207055	1.220908	0.000072
 952	9.4624e+01	9.4571	8.547472	0.000762	7.616546	1.290278	0.000076
 953	9.4724e+01	9.4678	8.620794	0.000737	7.370851	1.248656	0.000074
 954	9.4823e+01	9.4788	8.694930	0.000745	7.452750	1.262530	0.000075
 955	9.4923e+01	9.4885	8.767030	0.000725	7.248004	1.227845	0.000072
 956	9.5022e+01	9.4977	8.839944	0.000733	7.329902	1.241719	0.000073
 957	9.5122e+01	9.5068	8.908785	0.000692	6.920410	1.172349	0.000069
 958	9.5222e+01	9.5167	8.985366	0.000770	7.698445	1.304152	0.000077
 959	9.5321e+01	9.5267	9.061539	0.000766	7.657495	1.297215	0.000077
 960	9.5421e+01	9.5371	9.138934	0.000778	7.780343	1.318026	0.000078
 961	9.5520e+01	9.5489	9.212255	0.000737	7.370851	1.248656	0.000074
 962	9.5620e+01	9.5566	9.292909	0.000811	8.107936	1.373522	0.000081
 963	9.5719e+01	9.5679	9.374378	0.000819	8.189835	1.387396	0.000082
 964	9.5819e+01	9.5758	9.451366	0.000774	7.739394	1.311089	0.000077
 965	9.5918e+01	9.5879	9.532834	0.000819	8.189835	1.387396	0.000082
 966	9.6017e+01	9.5951	9.612266	0.000799	7.985089	1.352711	0.000080
 967	9.6117e+01	9.6081	9.695771	0.000839	8.394581	1.422080	0.000084
 968	9.6216e+01	9.6158	9.778462	0.000831	8.312682	1.408206	0.000083
 969	9.6316e+01	9.6256	9.868077	0.000901	9.008818	1.526135	0.000090
 970	9.6415e+01	9.6371	9.959322	0.000917	9.172615	1.553883	0.000092
 971	9.6515e+01	9.6454	10.042827	0.000839	8.394581	1.422080	0.000084
 972	9.6615e+01	9.6570	10.133664	0.000913	9.131666	1.546946	0.000091
 973	9.6714e+01	9.6655	10.222465	0.000893	8.926920	1.512261	0.000089
 974	9.6814e+01	9.6758	10.312080	0.000901	9.008818	1.526135	0.000090
 975	9.6913e+01	9.6856	10.394771	0.000831	8.312682	1.408206	0.000083
 976	9.7013e+01	9.6964	10.484794	0.000905	9.049767	1.533072	0.000090
 977	9.7112e+01	9.7071	10.575631	0.000913	9.131666	1.546946	0.000091
 978	9.7212e+01	9.7144	10.663210	0.000880	8.804072	1.491450	0.000088
 979	9.7311e+01	9.7279	10.756898	0.000942	9.418310	1.595505	0.000094
 980	9.7410e+01	9.7368	10.851402	0.000950	9.500208	1.609379	0.000095
 981	9.7510e+01	9.7437	10.948757	0.000979	9.786852	1.657938	0.000098
 982	9.7609e+01	9.7567	11.050592	0.001024	10.237293	1.734244	0.000102
 983	9.7709e+01	9.7668	11.149984	0.000999	9.991598	1.692623	0.000100
 984	9.7808e+01	9.7781	11.249376	0.000999	9.991598	1.692623	0.000100
 985	9.7908e+01	9.7856	11.352841	0.001040	10.401090	1.761992	0.000104
 986	9.8007e+01	9.7952	11.448973	0.000966	9.664005	1.637127	0.000097
 987	9.8107e+01	9.8061	11.548772	0.001003	10.032547	1.699560	0.000100
 988	9.8207e+01	9.8161	11.648979	0.001007	10.073497	1.706497	0.000101
 989	9.8306e+01	9.8270	11.750000	0.001016	10.155395	1.720370	0.000102
 990	9.8406e+01	9.8364	11.843281	0.000938	9.377361	1.588568	0.000094
 991	9.8505e+01	9.8447	11.945117	0.001024	10.237293	1.734244	0.000102
 992	9.8605e+01	9.8550	12.043694	0.000991	9.909700	1.678749	0.000099
 993	9.8704e+01	9.8653	12.143900	0.001007	10.073497	1.706497	0.000101
 994	9.8803e+01	9.8722	12.244106	0.001007	10.073497	1.706497	0.000101
 995	9.8903e+01	9.8882	12.344312	0.001007	10.073497	1.706497	0.000101
 996	9.9002e+01	9.8953	12.448592	0.001048	10.482988	1.775866	0.000105
 997	9.9102e+01	9.9038	12.548798	0.001007	10.073497	1.706497	0.000101
 998	9.9201e+01	9.9170	12.650227	0.001020	10.196344	1.727307	0.000102
 999	9.9301e+01	9.9285	12.756950	0.001073	10.728683	1.817488	0.000107
1000	9.9400e+01	9.9337	12.860415	0.001040	10.401090	1.761992	0.000104
1001	9.9500e+01	9.9470	12.964288	0.001044	10.442039	1.768929	0.000104
1002	9.9600e+01	9.9567	13.071419	0.001077	10.769633	1.824425	0.000108
1003	9.9699e+01	9.9648	13.177735	0.001069	10.687734	1.810551	0.000107
1004	9.9799e+01	9.9743	13.285681	0.001085	10.851531	1.838299	0.000108
1005	9.9898e+01	9.9829	13.394849	0.001097	10.974378	1.859110	0.000110
1006	9.9998e+01	9.9940	13.505239	0.001110	11.097226	1.879921	0.000111
1007	1.0010e+02	9.9870	13.589559	-0.000848	-8.476479	-1.435954	0.000085
1008	1.0020e+02	9.9727	13.670620	-0.000815	-8.148886	-1.380459	0.000081
1009	1.0030e+02	9.9636	13.745978	-0.000758	-7.575597	-1.283341	0.000076
1010	1.0040e+02	9.9576	13.816856	-0.000713	-7.125156	-1.207034	0.000071
1011	1.0050e+02	9.9448	13.889770	-0.000733	-7.329902	-1.241719	0.000073
1012	1.0059e+02	9.9308	13.957389	-0.000680	-6.797563	-1.151538	0.000068
1013	1.0069e+02	9.9258	14.029488	-0.000725	-7.248004	-1.227845	0.000072
1014	1.0079e+02	9.9146	14.097922	-0.000688	-6.879461	-1.165412	0.000069
1015	1.0089e+02	9.9055	14.164726	-0.000672	-6.715664	-1.137664	0.000067
1016	1.0099e+02	9.8968	14.227457	-0.000631	-6.306173	-1.068295	0.000063
1017	1.0109e+02	9.8843	14.290188	-0.000631	-6.306173	-1.068295	0.000063
1018	1.0119e+02	9.8779	14.354141	-0.000643	-6.429020	-1.089106	0.000064
1019	1.0129e+02	9.8650	14.408724	-0.000549	-5.487189	-0.929555	0.000055
1020	1.0139e+02	9.8541	14.465345	-0.000569	-5.691935	-0.964240	0.000057
1021	1.0149e+02	9.8469	14.519522	-0.000545	-5.446240	-0.922618	0.000054
1022	1.0159e+02	9.8365	14.577364	-0.000581	-5.814783	-0.985051	0.000058
1023	1.0169e+02	9.8242	14.624616	-0.000475	-4.750104	-0.804689	0.000047
1024	1.0179e+02	9.8138	14.672275	-0.000479	-4.791053	-0.811626	0.000048
1025	1.0189e+02	9.8047	14.721563	-0.000495	-4.954850	-0.839374	0.000050
1026	1.0199e+02	9.7949	14.769630	-0.000483	-4.832002	-0.818563	0.000048
1027	1.0209e+02	9.7880	14.818511	-0.000491	-4.913901	-0.832437	0.000049
1028	1.0219e+02	9.7745	14.861689	-0.000434	-4.340612	-0.735320	0.000043
1029	1.0229e+02	9.7645	14.908941	-0.000475	-4.750104	-0.804689	0.000047
1030	1.0239e+02	9.7551	14.954971	-0.000463	-4.627257	-0.783878	0.000046
1031	1.0248e+02	9.7485	14.997742	-0.000430	-4.299663	-0.728383	0.000043
1032	1.0258e+02	9.7357	15.038883	-0.000414	-4.135867	-0.700635	0.000041
1033	1.0268e+02	9.7278	15.081654	-0.000430	-4.299663	-0.728383	0.000043
1034	1.0278e+02	9.7149	15.118722	-0.000373	-3.726375	-0.631265	0.000037
1035	1.0288e+02	9.7056	15.162715	-0.000442	-4.422511	-0.749194	0.000044
1036	1.0298e+02	9.6949	15.196525	-0.000340	-3.398781	-0.575769	0.000034
1037	1.0308e+02	9.6857	15.238889	-0.000426	-4.258714	-0.721446	0.000043
1038	1.0318e+02	9.6744	15.275957	-0.000373	-3.726375	-0.631265	0.000037
1039	1.0328e+02	9.6647	15.304878	-0.000291	-2.907391	-0.492525	0.000029
1040	1.0338e+02	9.6561	15.337058	-0.000323	-3.234985	-0.548021	0.000032
1041	1.0348e+02	9.6451	15.372090	-0.000352	-3.521629	-0.596580	0.000035
1042	1.0358e+02	9.6369	15.407121	-0.000352	-3.521629	-0.596580	0.000035
1043	1.0368e+02	9.6278	15.438486	-0.000315	-3.153086	-0.534147	0.000032
1044	1.0378e+02	9.6169	15.468630	-0.000303	-3.030239	-0.513336	0.000030
1045	1.0388e+02	9.6049	15.499180	-0.000307	-3.071188	-0.520273	0.000031
1046	1.0398e+02	9.5972	15.530546	-0.000315	-3.153086	-0.534147	0.000032
1047	1.0408e+02	9.5850	15.556208	-0.000258	-2.579798	-0.437030	0.000026
1048	1.0418e+02	9.5776	15.589610	-0.000336	-3.357832	-0.568832	0.000034
1049	1.0428e+02	9.5661	15.613236	-0.000238	-2.375052	-0.402345	0.000024
1050	1.0438e+02	9.5548	15.636048	-0.000229	-2.293154	-0.388471	0.000023
1051	1.0447e+02	9.5472	15.665784	-0.000299	-2.989290	-0.506399	0.000030
1052	1.0457e+02	9.5380	15.688595	-0.000229	-2.293154	-0.388471	0.000023
1053	1.0467e+02	9.5252	15.709777	-0.000213	-2.129357	-0.360723	0.000021
1054	1.0477e+02	9.5175	15.729736	-0.000201	-2.006509	-0.339912	0.000020
1055	1.0487e+02	9.5056	15.750918	-0.000213	-2.129357	-0.360723	0.000021
1056	1.0497e+02	9.4954	15.769249	-0.000184	-1.842713	-0.312164	0.000018
1057	1.0507e+02	9.4881	15.792060	-0.000229	-2.293154	-0.388471	0.000023
1058	1.0517e+02	9.4767	15.812427	-0.000205	-2.047459	-0.346849	0.000020
1059	1.0527e+02	9.4686	15.829943	-0.000176	-1.760814	-0.298290	0.000018
1060	1.0537e+02	9.4592	15.851532	-0.000217	-2.170306	-0.367660	0.000022
1061	1.0547e+02	9.4482	15.867011	-0.000156	-1.556069	-0.263605	0.000016
1062	1.0557e+02	9.4352	15.887378	-0.000205	-2.047459	-0.346849	0.000020
1063	1.0567e+02	9.4269	15.900413	-0.000131	-1.310374	-0.221983	0.000013
1064	1.0577e+02	9.4200	15.917114	-0.000168	-1.678916	-0.284416	0.000017
1065	1.0587e+02	9.4077	15.926890	-0.000098	-0.982780	-0.166487	0.000010
1066	1.0597e+02	9.3995	15.937074	-0.000102	-1.023729	-0.173424	0.000010
1067	1.0607e+02	9.3867	15.949294	-0.000123	-1.228475	-0.208109	0.000012
1068	1.0617e+02	9.3763	15.964366	-0.000152	-1.515119	-0.256668	0.000015
1069	1.0627e+02	9.3682	15.976586	-0.000123	-1.228475	-0.208109	0.000012
1070	1.0637e+02	9.3571	15.990028	-0.000135	-1.351323	-0.228920	0.000014
1071	1.0647e+02	9.3497	16.007137	-0.000172	-1.719865	-0.291353	0.000017
1072	1.0656e+02	9.3347	16.019764	-0.000127	-1.269424	-0.215046	0.000013
1073	1.0666e+02	9.3275	16.034429	-0.000147	-1.474170	-0.249731	0.000015
1074	1.0676e+02	9.3169	16.049500	-0.000152	-1.515119	-0.256668	0.000015
1075	1.0686e+02	9.3081	16.058054	-0.000086	-0.859933	-0.145677	0.000009
1076	1.0696e+02	9.2969	16.073941	-0.000160	-1.597018	-0.270542	0.000016
1077	1.0706e+02	9.2854	16.085346	-0.000115	-1.146577	-0.194235	0.000011
1078	1.0716e+02	9.2780	16.098381	-0.000131	-1.310374	-0.221983	0.000013
1079	1.0726e+02	9.2731	16.107750	-0.000094	-0.941831	-0.159550	0.000009
1080	1.0736e+02	9.2584	16.118341	-0.000106	-1.064679	-0.180361	0.000011
1081	1.0746e+02	9.2484	16.130561	-0.000123	-1.228475	-0.208109	0.000012
1082	1.0756e+02	9.2388	16.140338	-0.000098	-0.982780	-0.166487	0.000010
1083	1.0766e+02	9.2262	16.152151	-0.000119	-1.187526	-0.201172	0.000012
1084	1.0776e+02	9.2202	16.156224	-0.000041	-0.409492	-0.069370	0.000004
1085	1.0786e+02	9.2090	16.168852	-0.000127	-1.269424	-0.215046	0.000013
1086	1.0796e+02	9.1970	16.176998	-0.000082	-0.818983	-0.138740	0.000008
1087	1.0806e+02	9.1873	16.184331	-0.000074	-0.737085	-0.124866	0.000007
1088	1.0816e+02	9.1785	16.191255	-0.000070	-0.696136	-0.117929	0.000007
1089	1.0826e+02	9.1700	16.196551	-0.000053	-0.532339	-0.090181	0.000005
1090	1.0836e+02	9.1574	16.207142	-0.000106	-1.064679	-0.180361	0.000011
1091	1.0845e+02	9.1496	16.212030	-0.000049	-0.491390	-0.083244	0.000005
1092	1.0855e+02	9.1401	16.214474	-0.000025	-0.245695	-0.041622	0.000002
1093	1.0865e+02	9.1309	16.220991	-0.000066	-0.655187	-0.110992	0.000007
1094	1.0875e+02	9.1174	16.227509	-0.000066	-0.655187	-0.110992	0.000007
1095	1.0885e+02	9.1079	16.231175	-0.000037	-0.368543	-0.062433	0.000004
1096	1.0895e+02	9.0989	16.240951	-0.000098	-0.982780	-0.166487	0.000010
1097	1.0905e+02	9.0878	16.240951	-0.000000	-0.000000	-0.000000	0.000000
1098	1.0915e+02	9.0778	16.246654	-0.000057	-0.573288	-0.097118	0.000006
1099	1.0925e+02	9.0701	16.249913	-0.000033	-0.327593	-0.055496	0.000003
1100	1.0935e+02	9.0594	16.259689	-0.000098	-0.982780	-0.166487	0.000010
1101	1.0945e+02	9.0504	16.258467	0.000012	0.122848	0.020811	-0.000001
1102	1.0955e+02	9.0385	16.261318	-0.000029	-0.286644	-0.048559	0.000003
1103	1.0965e+02	9.0273	16.263355	-0.000020	-0.204746	-0.034685	0.000002
1104	1.0975e+02	9.0192	16.265799	-0.000025	-0.245695	-0.041622	0.000002
1105	1.0985e+02	9.0092	16.269873	-0.000041	-0.409492	-0.069370	0.000004
1106	1.0995e+02	8.9997	16.271909	-0.000020	-0.204746	-0.034685	0.000002
1107	1.1005e+02	8.9903	16.277205	-0.000053	-0.532339	-0.090181	0.000005
1108	1.1015e+02	8.9808	16.278019	-0.000008	-0.081898	-0.013874	0.000001
1109	1.1025e+02	8.9690	16.281685	-0.000037	-0.368543	-0.062433	0.000004
1110	1.1035e+02	8.9603	16.280871	0.000008	0.081898	0.013874	-0.000001
1111	1.1044e+02	8.9494	16.282907	-0.000020	-0.204746	-0.034685	0.000002
1112	1.1054e+02	8.9391	16.284537	-0.000016	-0.163797	-0.027748	0.000002
1113	1.1064e+02	8.9290	16.286981	-0.000025	-0.245695	-0.041622	0.000002
1114	1.1074e+02	8.9193	16.288203	-0.000012	-0.122848	-0.020811	0.000001
1115	1.1084e+02	8.9087	16.287388	0.000008	0.081898	0.013874	-0.000001
1116	1.1094e+02	8.9008	16.286574	0.000008	0.081898	0.013874	-0.000001
1117	1.1104e+02	8.8916	16.286574	-0.000000	-0.000000	-0.000000	0.000000
1118	1.1114e+02	8.8782	16.283722	0.000029	0.286644	0.048559	-0.000003
1119	1.1124e+02	8.8683	16.285759	-0.000020	-0.204746	-0.034685	0.000002
1120	1.1134e+02	8.8592	16.287388	-0.000016	-0.163797	-0.027748	0.000002
1121	1.1144e+02	8.8519	16.288203	-0.000008	-0.081898	-0.013874	0.000001
1122	1.1154e+02	8.8386	16.280056	0.000082	0.818983	0.138740	-0.000008
1123	1.1164e+02	8.8297	16.281278	-0.000012	-0.122848	-0.020811	0.000001
1124	1.1174e+02	8.8235	16.281278	-0.000000	-0.000000	-0.000000	0.000000
1125	1.1184e+02	8.8126	16.277612	0.000037	0.368543	0.062433	-0.000004
1126	1.1194e+02	8.8013	16.273946	0.000037	0.368543	0.062433	-0.000004
1127	1.1204e+02	8.7902	16.267021	0.000070	0.696136	0.117929	-0.000007
1128	1.1214e+02	8.7804	16.262133	0.000049	0.491390	0.083244	-0.000005
1129	1.1224e+02	8.7727	16.254801	0.000074	0.737085	0.124866	-0.000007
1130	1.1234e+02	8.7637	16.255208	-0.000004	-0.040949	-0.006937	0.000000
1131	1.1244e+02	8.7531	16.251542	0.000037	0.368543	0.062433	-0.000004
1132	1.1253e+02	8.7402	16.247469	0.000041	0.409492	0.069370	-0.000004
1133	1.1263e+02	8.7320	16.243395	0.000041	0.409492	0.069370	-0.000004
1134	1.1273e+02	8.7220	16.236470	0.000070	0.696136	0.117929	-0.000007
1135	1.1283e+02	8.7135	16.234434	0.000020	0.204746	0.034685	-0.000002
1136	1.1293e+02	8.7000	16.229546	0.000049	0.491390	0.083244	-0.000005
1137	1.1303e+02	8.6914	16.224250	0.000053	0.532339	0.090181	-0.000005
1138	1.1313e+02	8.6817	16.223435	0.000008	0.081898	0.013874	-0.000001
1139	1.1323e+02	8.6720	16.222621	0.000008	0.081898	0.013874	-0.000001
1140	1.1333e+02	8.6633	16.216918	0.000057	0.573288	0.097118	-0.000006
1141	1.1343e+02	8.6520	16.209993	0.000070	0.696136	0.117929	-0.000007
1142	1.1353e+02	8.6385	16.211623	-0.000016	-0.163797	-0.027748	0.000002
1143	1.1363e+02	8.6332	16.205512	0.000061	0.614238	0.104055	-0.000006
1144	1.1373e+02	8.6220	16.201439	0.000041	0.409492	0.069370	-0.000004
1145	1.1383e+02	8.6128	16.198180	0.000033	0.327593	0.055496	-0.000003
1146	1.1393e+02	8.6008	16.195736	0.000025	0.245695	0.041622	-0.000002
1147	1.1403e+02	8.5925	16.194514	0.000012	0.122848	0.020811	-0.000001
1148	1.1413e+02	8.5831	16.190033	0.000045	0.450441	0.076307	-0.000005
1149	1.1423e+02	8.5712	16.184738	0.000053	0.532339	0.090181	-0.000005
1150	1.1433e+02	8.5608	16.182294	0.000025	0.245695	0.041622	-0.000002
1151	1.1442e+02	8.5555	16.179035	0.000033	0.327593	0.055496	-0.000003
1152	1.1452e+02	8.5458	16.172925	0.000061	0.614238	0.104055	-0.000006
1153	1.1462e+02	8.5320	16.168037	0.000049	0.491390	0.083244	-0.000005
1154	1.1472e+02	8.5205	16.159483	0.000086	0.859933	0.145677	-0.000009
1155	1.1482e+02	8.5145	16.156631	0.000029	0.286644	0.048559	-0.000003
1156	1.1492e+02	8.5026	16.145633	0.000111	1.105628	0.187298	-0.000011
1157	1.1502e+02	8.4928	16.140745	0.000049	0.491390	0.083244	-0.000005
1158	1.1512e+02	8.4836	16.133005	0.000078	0.778034	0.131803	-0.000008
1159	1.1522e+02	8.4732	16.126081	0.000070	0.696136	0.117929	-0.000007
1160	1.1532e+02	8.4643	16.113453	0.000127	1.269424	0.215046	-0.000013
1161	1.1542e+02	8.4497	16.106528	0.000070	0.696136	0.117929	-0.000007
1162	1.1552e+02	8.4434	16.095530	0.000111	1.105628	0.187298	-0.000011
1163	1.1562e+02	8.4319	16.078829	0.000168	1.678916	0.284416	-0.000017
1164	1.1572e+02	8.4198	16.069867	0.000090	0.900882	0.152614	-0.000009
1165	1.1582e+02	8.4119	16.060091	0.000098	0.982780	0.166487	-0.000010
1166	1.1592e+02	8.4016	16.051537	0.000086	0.859933	0.145677	-0.000009
1167	1.1602e+02	8.3943	16.038909	0.000127	1.269424	0.215046	-0.000013
1168	1.1612e+02	8.3844	16.027504	0.000115	1.146577	0.194235	-0.000011
1169	1.1622e+02	8.3733	16.016098	0.000115	1.146577	0.194235	-0.000011
1170	1.1632e+02	8.3628	16.007544	0.000086	0.859933	0.145677	-0.000009
1171	1.1642e+02	8.3547	15.999397	0.000082	0.818983	0.138740	-0.000008
1172	1.1651e+02	8.3435	15.985955	0.000135	1.351323	0.228920	-0.000014
1173	1.1661e+02	8.3327	15.973734	0.000123	1.228475	0.208109	-0.000012
1174	1.1671e+02	8.3242	15.962736	0.000111	1.105628	0.187298	-0.000011
1175	1.1681e+02	8.3137	15.949294	0.000135	1.351323	0.228920	-0.000014
1176	1.1691e+02	8.3029	15.936259	0.000131	1.310374	0.221983	-0.000013
1177	1.1701e+02	8.2916	15.921187	0.000152	1.515119	0.256668	-0.000015
1178	1.1711e+02	8.2861	15.909782	0.000115	1.146577	0.194235	-0.000011
1179	1.1721e+02	8.2745	15.900005	0.000098	0.982780	0.166487	-0.000010
1180	1.1731e+02	8.2658	15.890637	0.000094	0.941831	0.159550	-0.000009
1181	1.1741e+02	8.2535	15.872714	0.000180	1.801764	0.305227	-0.000018
1182	1.1751e+02	8.2446	15.860901	0.000119	1.187526	0.201172	-0.000012
1183	1.1761e+02	8.2349	15.848680	0.000123	1.228475	0.208109	-0.000012
1184	1.1771e+02	8.2238	15.834831	0.000139	1.392272	0.235857	-0.000014
1185	1.1781e+02	8.2143	15.822610	0.000123	1.228475	0.208109	-0.000012
1186	1.1791e+02	8.2047	15.807946	0.000147	1.474170	0.249731	-0.000015
1187	1.1801e+02	8.1961	15.790023	0.000180	1.801764	0.305227	-0.000018
1188	1.1811e+02	8.1849	15.778617	0.000115	1.146577	0.194235	-0.000011
1189	1.1821e+02	8.1738	15.768434	0.000102	1.023729	0.173424	-0.000010
1190	1.1831e+02	8.1650	15.753770	0.000147	1.474170	0.249731	-0.000015
1191	1.1841e+02	8.1549	15.735439	0.000184	1.842713	0.312164	-0.000018
1192	1.1850e+02	8.1434	15.721997	0.000135	1.351323	0.228920	-0.000014
1193	1.1860e+02	8.1355	15.708962	0.000131	1.310374	0.221983	-0.000013
1194	1.1870e+02	8.1242	15.690224	0.000188	1.883662	0.319101	-0.000019
1195	1.1880e+02	8.1161	15.676374	0.000139	1.392272	0.235857	-0.000014
1196	1.1890e+02	8.1084	15.662117	0.000143	1.433221	0.242794	-0.000014
1197	1.1900e+02	8.0934	15.649082	0.000131	1.310374	0.221983	-0.000013
1198	1.1910e+02	8.0816	15.631567	0.000176	1.760814	0.298290	-0.000018
1199	1.1920e+02	8.0739	15.616088	0.000156	1.556069	0.263605	-0.000016
1200	1.1930e+02	8.0631	15.601016	0.000152	1.515119	0.256668	-0.000015
1201	1.1940e+02	8.0571	15.586352	0.000147	1.474170	0.249731	-0.000015
1202	1.1950e+02	8.0466	15.571280	0.000152	1.515119	0.256668	-0.000015
1203	1.1960e+02	8.0332	15.556616	0.000147	1.474170	0.249731	-0.000015
1204	1.1970e+02	8.0244	15.539915	0.000168	1.678916	0.284416	-0.000017
1205	1.1980e+02	8.0136	15.521992	0.000180	1.801764	0.305227	-0.000018
1206	1.1990e+02	8.0061	15.513437	0.000086	0.859933	0.145677	-0.000009
1207	1.2000e+02	7.9940	15.494700	0.000188	1.883662	0.319101	-0.000019
1208	1.2010e+02	7.9873	15.477999	0.000168	1.678916	0.284416	-0.000017
1209	1.2020e+02	7.9763	15.460890	0.000172	1.719865	0.291353	-0.000017
1210	1.2030e+02	7.9659	15.445004	0.000160	1.597018	0.270542	-0.000016
1211	1.2039e+02	7.9562	15.431562	0.000135	1.351323	0.228920	-0.000014
1212	1.2049e+02	7.9439	15.416490	0.000152	1.515119	0.256668	-0.000015
1213	1.2059e+02	7.9366	15.398974	0.000176	1.760814	0.298290	-0.000018
1214	1.2069e+02	7.9249	15.385124	0.000139	1.392272	0.235857	-0.000014
1215	1.2079e+02	7.9179	15.367201	0.000180	1.801764	0.305227	-0.000018
1216	1.2089e+02	7.9048	15.352537	0.000147	1.474170	0.249731	-0.000015
1217	1.2099e+02	7.8918	15.335836	0.000168	1.678916	0.284416	-0.000017
1218	1.2109e+02	7.8847	15.315062	0.000209	2.088408	0.353786	-0.000021
1219	1.2119e+02	7.8762	15.300805	0.000143	1.433221	0.242794	-0.000014
1220	1.2129e+02	7.8687	15.283696	0.000172	1.719865	0.291353	-0.000017
1221	1.2139e+02	7.8554	15.262922	0.000209	2.088408	0.353786	-0.000021
1222	1.2149e+02	7.8472	15.241740	0.000213	2.129357	0.360723	-0.000021
1223	1.2159e+02	7.8370	15.218114	0.000238	2.375052	0.402345	-0.000024
1224	1.2169e+02	7.8262	15.202635	0.000156	1.556069	0.263605	-0.000016
1225	1.2179e+02	7.8175	15.182675	0.000201	2.006509	0.339912	-0.000020
1226	1.2189e+02	7.8076	15.163530	0.000192	1.924611	0.326038	-0.000019
1227	1.2199e+02	7.7957	15.145607	0.000180	1.801764	0.305227	-0.000018
1228	1.2209e+02	7.7854	15.126462	0.000192	1.924611	0.326038	-0.000019
1229	1.2219e+02	7.7745	15.110168	0.000164	1.637967	0.277479	-0.000016
1230	1.2229e+02	7.7653	15.087357	0.000229	2.293154	0.388471	-0.000023
1231	1.2239e+02	7.7575	15.066175	0.000213	2.129357	0.360723	-0.000021
1232	1.2248e+02	7.7478	15.043771	0.000225	2.252205	0.381534	-0.000023
1233	1.2258e+02	7.7370	15.028292	0.000156	1.556069	0.263605	-0.000016
1234	1.2268e+02	7.7264	15.005481	0.000229	2.293154	0.388471	-0.000023
1235	1.2278e+02	7.7168	14.984707	0.000209	2.088408	0.353786	-0.000021
1236	1.2288e+02	7.7054	14.967598	0.000172	1.719865	0.291353	-0.000017
1237	1.2298e+02	7.6962	14.948861	0.000188	1.883662	0.319101	-0.000019
1238	1.2308e+02	7.6858	14.929308	0.000197	1.965560	0.332975	-0.000020
1239	1.2318e+02	7.6783	14.911792	0.000176	1.760814	0.298290	-0.000018
1240	1.2328e+02	7.6656	14.893462	0.000184	1.842713	0.312164	-0.000018
1241	1.2338e+02	7.6553	14.874317	0.000192	1.924611	0.326038	-0.000019
1242	1.2348e+02	7.6479	14.859245	0.000152	1.515119	0.256668	-0.000015
1243	1.2358e+02	7.6357	14.841322	0.000180	1.801764	0.305227	-0.000018
1244	1.2368e+02	7.6279	14.823806	0.000176	1.760814	0.298290	-0.000018
1245	1.2378e+02	7.6141	14.805883	0.000180	1.801764	0.305227	-0.000018
1246	1.2388e+02	7.6063	14.790404	0.000156	1.556069	0.263605	-0.000016
1247	1.2398e+02	7.5977	14.773296	0.000172	1.719865	0.291353	-0.000017
1248	1.2408e+02	7.5883	14.759039	0.000143	1.433221	0.242794	-0.000014
1249	1.2418e+02	7.5750	14.740301	0.000188	1.883662	0.319101	-0.000019
1250	1.2428e+02	7.5674	14.723193	0.000172	1.719865	0.291353	-0.000017
1251	1.2438e+02	7.5579	14.709343	0.000139	1.392272	0.235857	-0.000014
1252	1.2447e+02	7.5488	14.692235	0.000172	1.719865	0.291353	-0.000017
1253	1.2457e+02	7.5384	14.676348	0.000160	1.597018	0.270542	-0.000016
1254	1.2467e+02	7.5298	14.661277	0.000152	1.515119	0.256668	-0.000015
1255	1.2477e+02	7.5156	14.645798	0.000156	1.556069	0.263605	-0.000016
1256	1.2487e+02	7.5065	14.622579	0.000233	2.334103	0.395408	-0.000023
1257	1.2497e+02	7.4979	14.613618	0.000090	0.900882	0.152614	-0.000009
1258	1.2507e+02	7.4882	14.594880	0.000188	1.883662	0.319101	-0.000019
1259	1.2517e+02	7.4795	14.579808	0.000152	1.515119	0.256668	-0.000015
1260	1.2527e+02	7.4676	14.561885	0.000180	1.801764	0.305227	-0.000018
1261	1.2537e+02	7.4570	14.547628	0.000143	1.433221	0.242794	-0.000014
1262	1.2547e+02	7.4485	14.530927	0.000168	1.678916	0.284416	-0.000017
1263	1.2557e+02	7.4381	14.515448	0.000156	1.556069	0.263605	-0.000016
1264	1.2567e+02	7.4288	14.502006	0.000135	1.351323	0.228920	-0.000014
1265	1.2577e+02	7.4196	14.481639	0.000205	2.047459	0.346849	-0.000020
1266	1.2587e+02	7.4105	14.466160	0.000156	1.556069	0.263605	-0.000016
1267	1.2597e+02	7.3997	14.449051	0.000172	1.719865	0.291353	-0.000017
1268	1.2607e+02	7.3888	14.432350	0.000168	1.678916	0.284416	-0.000017
1269	1.2617e+02	7.3801	14.416057	0.000164	1.637967	0.277479	-0.000016
1270	1.2627e+02	7.3652	14.396097	0.000201	2.006509	0.339912	-0.000020
1271	1.2636e+02	7.3595	14.384691	0.000115	1.146577	0.194235	-0.000011
1272	1.2646e+02	7.3463	14.366768	0.000180	1.801764	0.305227	-0.000018
1273	1.2656e+02	7.3399	14.352918	0.000139	1.392272	0.235857	-0.000014
1274	1.2666e+02	7.3260	14.336625	0.000164	1.637967	0.277479	-0.000016
1275	1.2676e+02	7.3219	14.323997	0.000127	1.269424	0.215046	-0.000013
1276	1.2686e+02	7.3078	14.306074	0.000180	1.801764	0.305227	-0.000018
1277	1.2696e+02	7.3008	14.292224	0.000139	1.392272	0.235857	-0.000014
1278	1.2706e+02	7.2892	14.277153	0.000152	1.515119	0.256668	-0.000015
1279	1.2716e+02	7.2787	14.263303	0.000139	1.392272	0.235857	-0.000014
1280	1.2726e+02	7.2671	14.251490	0.000119	1.187526	0.201172	-0.000012
1281	1.2736e+02	7.2564	14.231123	0.000205	2.047459	0.346849	-0.000020
1282	1.2746e+02	7.2442	14.214015	0.000172	1.719865	0.291353	-0.000017
1283	1.2756e+02	7.2407	14.196499	0.000176	1.760814	0.298290	-0.000018
1284	1.2766e+02	7.2287	14.180613	0.000160	1.597018	0.270542	-0.000016
1285	1.2776e+02	7.2184	14.166356	0.000143	1.433221	0.242794	-0.000014
1286	1.2786e+02	7.2085	14.148025	0.000184	1.842713	0.312164	-0.000018
1287	1.2796e+02	7.1989	14.131731	0.000164	1.637967	0.277479	-0.000016
1288	1.2806e+02	7.1902	14.117882	0.000139	1.392272	0.235857	-0.000014
1289	1.2816e+02	7.1801	14.099959	0.000180	1.801764	0.305227	-0.000018
1290	1.2826e+02	7.1687	14.087738	0.000123	1.228475	0.208109	-0.000012
1291	1.2835e+02	7.1591	14.064927	0.000229	2.293154	0.388471	-0.000023
1292	1.2845e+02	7.1499	14.051485	0.000135	1.351323	0.228920	-0.000014
1293	1.2855e+02	7.1418	14.038857	0.000127	1.269424	0.215046	-0.000013
1294	1.2865e+02	7.1290	14.019712	0.000192	1.924611	0.326038	-0.000019
1295	1.2875e+02	7.1201	14.005863	0.000139	1.392272	0.235857	-0.000014
1296	1.2885e+02	7.1088	13.985495	0.000205	2.047459	0.346849	-0.000020
1297	1.2895e+02	7.0989	13.970831	0.000147	1.474170	0.249731	-0.000015
1298	1.2905e+02	7.0875	13.952908	0.000180	1.801764	0.305227	-0.000018
1299	1.2915e+02	7.0797	13.937429	0.000156	1.556069	0.263605	-0.000016
1300	1.2925e+02	7.0708	13.923987	0.000135	1.351323	0.228920	-0.000014
1301	1.2935e+02	7.0588	13.907693	0.000164	1.637967	0.277479	-0.000016
1302	1.2945e+02	7.0495	13.893436	0.000143	1.433221	0.242794	-0.000014
1303	1.2955e+02	7.0421	13.877957	0.000156	1.556069	0.263605	-0.000016
1304	1.2965e+02	7.0287	13.864107	0.000139	1.392272	0.235857	-0.000014
1305	1.2975e+02	7.0184	13.850258	0.000139	1.392272	0.235857	-0.000014
1306	1.2985e+02	7.0103	13.837630	0.000127	1.269424	0.215046	-0.000013
1307	1.2995e+02	6.9990	13.822558	0.000152	1.515119	0.256668	-0.000015
1308	1.3005e+02	6.9898	13.807894	0.000147	1.474170	0.249731	-0.000015
1309	1.3015e+02	6.9796	13.799340	0.000086	0.859933	0.145677	-0.000009
1310	1.3025e+02	6.9707	13.781824	0.000176	1.760814	0.298290	-0.000018
1311	1.3034e+02	6.9613	13.767567	0.000143	1.433221	0.242794	-0.000014
1312	1.3044e+02	6.9531	13.751681	0.000160	1.597018	0.270542	-0.000016
1313	1.3054e+02	6.9380	13.738646	0.000131	1.310374	0.221983	-0.000013
1314	1.3064e+02	6.9317	13.723574	0.000152	1.515119	0.256668	-0.000015
1315	1.3074e+02	6.9234	13.710539	0.000131	1.310374	0.221983	-0.000013
1316	1.3084e+02	6.9111	13.697097	0.000135	1.351323	0.228920	-0.000014
1317	1.3094e+02	6.8999	13.683247	0.000139	1.392272	0.235857	-0.000014
1318	1.3104e+02	6.8909	13.669805	0.000135	1.351323	0.228920	-0.000014
1319	1.3114e+02	6.8801	13.661251	0.000086	0.859933	0.145677	-0.000009
1320	1.3124e+02	6.8716	13.645364	0.000160	1.597018	0.270542	-0.000016
1321	1.3134e+02	6.8606	13.623775	0.000217	2.170306	0.367660	-0.000022
1322	1.3144e+02	6.8505	13.608296	0.000156	1.556069	0.263605	-0.000016
1323	1.3154e+02	6.8441	13.595261	0.000131	1.310374	0.221983	-0.000013
1324	1.3164e+02	6.8319	13.576931	0.000184	1.842713	0.312164	-0.000018
1325	1.3174e+02	6.8197	13.560230	0.000168	1.678916	0.284416	-0.000017
1326	1.3184e+02	6.8118	13.545158	0.000152	1.515119	0.256668	-0.000015
1327	1.3194e+02	6.7999	13.528864	0.000164	1.637967	0.277479	-0.000016
1328	1.3204e+02	6.7921	13.508905	0.000201	2.006509	0.339912	-0.000020
1329	1.3214e+02	6.7776	13.493426	0.000156	1.556069	0.263605	-0.000016
1330	1.3224e+02	6.7725	13.471837	0.000217	2.170306	0.367660	-0.000022
1331	1.3234e+02	6.7605	13.456358	0.000156	1.556069	0.263605	-0.000016
1332	1.3243e+02	6.7493	13.439249	0.000172	1.719865	0.291353	-0.000017
1333	1.3253e+02	6.7422	13.418067	0.000213	2.129357	0.360723	-0.000021
1334	1.3263e+02	6.7334	13.399737	0.000184	1.842713	0.312164	-0.000018
1335	1.3273e+02	6.7205	13.380184	0.000197	1.965560	0.332975	-0.000020
1336	1.3283e+02	6.7101	13.367964	0.000123	1.228475	0.208109	-0.000012
1337	1.3293e+02	6.7019	13.346782	0.000213	2.129357	0.360723	-0.000021
1338	1.3303e+02	6.6924	13.332933	0.000139	1.392272	0.235857	-0.000014
1339	1.3313e+02	6.6802	13.312566	0.000205	2.047459	0.346849	-0.000020
1340	1.3323e+02	6.6705	13.293013	0.000197	1.965560	0.332975	-0.000020
1341	1.3333e+02	6.6613	13.272646	0.000205	2.047459	0.346849	-0.000020
1342	1.3343e+02	6.6531	13.253501	0.000192	1.924611	0.326038	-0.000019
1343	1.3353e+02	6.6431	13.235985	0.000176	1.760814	0.298290	-0.000018
1344	1.3363e+02	6.6313	13.218469	0.000176	1.760814	0.298290	-0.000018
1345	1.3373e+02	6.6206	13.197695	0.000209	2.088408	0.353786	-0.000021
1346	1.3383e+02	6.6138	13.178143	0.000197	1.965560	0.332975	-0.000020
1347	1.3393e+02	6.6048	13.158590	0.000197	1.965560	0.332975	-0.000020
1348	1.3403e+02	6.5959	13.140260	0.000184	1.842713	0.312164	-0.000018
1349	1.3413e+02	6.5812	13.117856	0.000225	2.252205	0.381534	-0.000023
1350	1.3423e+02	6.5725	13.102377	0.000156	1.556069	0.263605	-0.000016
1351	1.3432e+02	6.5617	13.082010	0.000205	2.047459	0.346849	-0.000020
1352	1.3442e+02	6.5536	13.064494	0.000176	1.760814	0.298290	-0.000018
1353	1.3452e+02	6.5431	13.045349	0.000192	1.924611	0.326038	-0.000019
1354	1.3462e+02	6.5347	13.027833	0.000176	1.760814	0.298290	-0.000018
1355	1.3472e+02	6.5212	13.005429	0.000225	2.252205	0.381534	-0.000023
1356	1.3482e+02	6.5125	12.987099	0.000184	1.842713	0.312164	-0.000018
1357	1.3492e+02	6.5041	12.966732	0.000205	2.047459	0.346849	-0.000020
1358	1.3502e+02	6.4921	12.943921	0.000229	2.293154	0.388471	-0.000023
1359	1.3512e+02	6.4848	12.926812	0.000172	1.719865	0.291353	-0.000017
1360	1.3522e+02	6.4733	12.904408	0.000225	2.252205	0.381534	-0.000023
1361	1.3532e+02	6.4639	12.881597	0.000229	2.293154	0.388471	-0.000023
1362	1.3542e+02	6.4541	12.864489	0.000172	1.719865	0.291353	-0.000017
1363	1.3552e+02	6.4413	12.844122	0.000205	2.047459	0.346849	-0.000020
1364	1.3562e+02	6.4320	12.828235	0.000160	1.597018	0.270542	-0.000016
1365	1.3572e+02	6.4216	12.805017	0.000233	2.334103	0.395408	-0.000023
1366	1.3582e+02	6.4138	12.783835	0.000213	2.129357	0.360723	-0.000021
1367	1.3592e+02	6.4001	12.767541	0.000164	1.637967	0.277479	-0.000016
1368	1.3602e+02	6.3938	12.743915	0.000238	2.375052	0.402345	-0.000024
1369	1.3612e+02	6.3839	12.724363	0.000197	1.965560	0.332975	-0.000020
1370	1.3622e+02	6.3746	12.706847	0.000176	1.760814	0.298290	-0.000018
1371	1.3631e+02	6.3615	12.687295	0.000197	1.965560	0.332975	-0.000020
1372	1.3641e+02	6.3510	12.662854	0.000246	2.456950	0.416219	-0.000025
1373	1.3651e+02	6.3421	12.642894	0.000201	2.006509	0.339912	-0.000020
1374	1.3661e+02	6.3360	12.621713	0.000213	2.129357	0.360723	-0.000021
1375	1.3671e+02	6.3241	12.604604	0.000172	1.719865	0.291353	-0.000017
1376	1.3681e+02	6.3139	12.584237	0.000205	2.047459	0.346849	-0.000020
1377	1.3691e+02	6.3026	12.565499	0.000188	1.883662	0.319101	-0.000019
1378	1.3701e+02	6.2922	12.544725	0.000209	2.088408	0.353786	-0.000021
1379	1.3711e+02	6.2856	12.523543	0.000213	2.129357	0.360723	-0.000021
1380	1.3721e+02	6.2763	12.503991	0.000197	1.965560	0.332975	-0.000020
1381	1.3731e+02	6.2647	12.486068	0.000180	1.801764	0.305227	-0.000018
1382	1.3741e+02	6.2547	12.464071	0.000221	2.211255	0.374597	-0.000022
1383	1.3751e+02	6.2441	12.442482	0.000217	2.170306	0.367660	-0.000022
1384	1.3761e+02	6.2370	12.420893	0.000217	2.170306	0.367660	-0.000022
1385	1.3771e+02	6.2232	12.402562	0.000184	1.842713	0.312164	-0.000018
1386	1.3781e+02	6.2141	12.382195	0.000205	2.047459	0.346849	-0.000020
1387	1.3791e+02	6.2038	12.358162	0.000242	2.416001	0.409282	-0.000024
1388	1.3801e+02	6.1935	12.336573	0.000217	2.170306	0.367660	-0.000022
1389	1.3811e+02	6.1849	12.312540	0.000242	2.416001	0.409282	-0.000024
1390	1.3821e+02	6.1742	12.288914	0.000238	2.375052	0.402345	-0.000024
1391	1.3831e+02	6.1657	12.264066	0.000250	2.497900	0.423156	-0.000025
1392	1.3840e+02	6.1543	12.239218	0.000250	2.497900	0.423156	-0.000025
1393	1.3850e+02	6.1478	12.217221	0.000221	2.211255	0.374597	-0.000022
1394	1.3860e+02	6.1337	12.191152	0.000262	2.620747	0.443967	-0.000026
1395	1.3870e+02	6.1239	12.170784	0.000205	2.047459	0.346849	-0.000020
1396	1.3880e+02	6.1164	12.153269	0.000176	1.760814	0.298290	-0.000018
1397	1.3890e+02	6.1111	12.128828	0.000246	2.456950	0.416219	-0.000025
1398	1.3900e+02	6.0934	12.102758	0.000262	2.620747	0.443967	-0.000026
1399	1.3910e+02	6.0833	12.079947	0.000229	2.293154	0.388471	-0.000023
1400	1.3920e+02	6.0755	12.058358	0.000217	2.170306	0.367660	-0.000022
1401	1.3930e+02	6.0635	12.033917	0.000246	2.456950	0.416219	-0.000025
1402	1.3940e+02	6.0542	12.010699	0.000233	2.334103	0.395408	-0.000023
1403	1.3950e+02	6.0439	11.988702	0.000221	2.211255	0.374597	-0.000022
1404	1.3960e+02	6.0374	11.962225	0.000266	2.661696	0.450904	-0.000027
1405	1.3970e+02	6.0236	11.943080	0.000192	1.924611	0.326038	-0.000019
1406	1.3980e+02	6.0183	11.919861	0.000233	2.334103	0.395408	-0.000023
1407	1.3990e+02	6.0064	11.898680	0.000213	2.129357	0.360723	-0.000021
1408	1.4000e+02	5.9963	11.879535	0.000192	1.924611	0.326038	-0.000019
1409	1.4010e+02	5.9853	11.858760	0.000209	2.088408	0.353786	-0.000021
1410	1.4020e+02	5.9751	11.839615	0.000192	1.924611	0.326038	-0.000019
1411	1.4029e+02	5.9675	11.817211	0.000225	2.252205	0.381534	-0.000023
1412	1.4039e+02	5.9584	11.795622	0.000217	2.170306	0.367660	-0.000022
1413	1.4049e+02	5.9490	11.776477	0.000192	1.924611	0.326038	-0.000019
1414	1.4059e+02	5.9353	11.757332	0.000192	1.924611	0.326038	-0.000019
1415	1.4069e+02	5.9258	11.737372	0.000201	2.006509	0.339912	-0.000020
1416	1.4079e+02	5.9155	11.721078	0.000164	1.637967	0.277479	-0.000016
1417	1.4089e+02	5.9072	11.699896	0.000213	2.129357	0.360723	-0.000021
1418	1.4099e+02	5.8971	11.678715	0.000213	2.129357	0.360723	-0.000021
1419	1.4109e+02	5.8855	11.658755	0.000201	2.006509	0.339912	-0.000020
1420	1.4119e+02	5.8785	11.640017	0.000188	1.883662	0.319101	-0.000019
1421	1.4129e+02	5.8632	11.619650	0.000205	2.047459	0.346849	-0.000020
1422	1.4139e+02	5.8554	11.596839	0.000229	2.293154	0.388471	-0.000023
1423	1.4149e+02	5.8477	11.578508	0.000184	1.842713	0.312164	-0.000018
1424	1.4159e+02	5.8385	11.563029	0.000156	1.556069	0.263605	-0.000016
1425	1.4169e+02	5.8252	11.543884	0.000192	1.924611	0.326038	-0.000019
1426	1.4179e+02	5.8166	11.524739	0.000192	1.924611	0.326038	-0.000019
1427	1.4189e+02	5.8059	11.505187	0.000197	1.965560	0.332975	-0.000020
1428	1.4199e+02	5.7972	11.483190	0.000221	2.211255	0.374597	-0.000022
1429	1.4209e+02	5.7865	11.465267	0.000180	1.801764	0.305227	-0.000018
1430	1.4219e+02	5.7775	11.446529	0.000188	1.883662	0.319101	-0.000019
1431	1.4228e+02	5.7687	11.426977	0.000197	1.965560	0.332975	-0.000020
1432	1.4238e+02	5.7571	11.407424	0.000197	1.965560	0.332975	-0.000020
1433	1.4248e+02	5.7470	11.391538	0.000160	1.597018	0.270542	-0.000016
1434	1.4258e+02	5.7377	11.371171	0.000205	2.047459	0.346849	-0.000020
1435	1.4268e+02	5.7284	11.353248	0.000180	1.801764	0.305227	-0.000018
1436	1.4278e+02	5.7194	11.332881	0.000205	2.047459	0.346849	-0.000020
1437	1.4288e+02	5.7073	11.311292	0.000217	2.170306	0.367660	-0.000022
1438	1.4298e+02	5.6978	11.292961	0.000184	1.842713	0.312164	-0.000018
1439	1.4308e+02	5.6866	11.278297	0.000147	1.474170	0.249731	-0.000015
1440	1.4318e+02	5.6765	11.258337	0.000201	2.006509	0.339912	-0.000020
1441	1.4328e+02	5.6666	11.240007	0.000184	1.842713	0.312164	-0.000018
1442	1.4338e+02	5.6583	11.220047	0.000201	2.006509	0.339912	-0.000020
1443	1.4348e+02	5.6461	11.206605	0.000135	1.351323	0.228920	-0.000014
1444	1.4358e+02	5.6377	11.185830	0.000209	2.088408	0.353786	-0.000021
1445	1.4368e+02	5.6304	11.166685	0.000192	1.924611	0.326038	-0.000019
1446	1.4378e+02	5.6149	11.147540	0.000192	1.924611	0.326038	-0.000019
1447	1.4388e+02	5.6089	11.128395	0.000192	1.924611	0.326038	-0.000019
1448	1.4398e+02	5.5968	11.112916	0.000156	1.556069	0.263605	-0.000016
1449	1.4408e+02	5.5863	11.092141	0.000209	2.088408	0.353786	-0.000021
1450	1.4418e+02	5.5779	11.072589	0.000197	1.965560	0.332975	-0.000020
1451	1.4428e+02	5.5694	11.056295	0.000164	1.637967	0.277479	-0.000016
1452	1.4437e+02	5.5553	11.032262	0.000242	2.416001	0.409282	-0.000024
1453	1.4447e+02	5.5476	11.015154	0.000172	1.719865	0.291353	-0.000017
1454	1.4457e+02	5.5410	10.997231	0.000180	1.801764	0.305227	-0.000018
1455	1.4467e+02	5.5297	10.978085	0.000192	1.924611	0.326038	-0.000019
1456	1.4477e+02	5.5163	10.962606	0.000156	1.556069	0.263605	-0.000016
1457	1.4487e+02	5.5085	10.944276	0.000184	1.842713	0.312164	-0.000018
1458	1.4497e+02	5.4978	10.928390	0.000160	1.597018	0.270542	-0.000016
1459	1.4507e+02	5.4914	10.906393	0.000221	2.211255	0.374597	-0.000022
1460	1.4517e+02	5.4768	10.888063	0.000184	1.842713	0.312164	-0.000018
1461	1.4527e+02	5.4690	10.870140	0.000180	1.801764	0.305227	-0.000018
1462	1.4537e+02	5.4595	10.849365	0.000209	2.088408	0.353786	-0.000021
1463	1.4547e+02	5.4467	10.832664	0.000168	1.678916	0.284416	-0.000017
1464	1.4557e+02	5.4398	10.815963	0.000168	1.678916	0.284416	-0.000017
1465	1.4567e+02	5.4302	10.792337	0.000238	2.375052	0.402345	-0.000024
1466	1.4577e+02	5.4146	10.772377	0.000201	2.006509	0.339912	-0.000020
1467	1.4587e+02	5.4092	10.757306	0.000152	1.515119	0.256668	-0.000015
1468	1.4597e+02	5.3979	10.736531	0.000209	2.088408	0.353786	-0.000021
1469	1.4607e+02	5.3883	10.719830	0.000168	1.678916	0.284416	-0.000017
1470	1.4617e+02	5.3759	10.704759	0.000152	1.515119	0.256668	-0.000015
1471	1.4626e+02	5.3693	10.688465	0.000164	1.637967	0.277479	-0.000016
1472	1.4636e+02	5.3584	10.670949	0.000176	1.760814	0.298290	-0.000018
1473	1.4646e+02	5.3493	10.655063	0.000160	1.597018	0.270542	-0.000016
1474	1.4656e+02	5.3390	10.642435	0.000127	1.269424	0.215046	-0.000013
1475	1.4666e+02	5.3289	10.624512	0.000180	1.801764	0.305227	-0.000018
1476	1.4676e+02	5.3176	10.608218	0.000164	1.637967	0.277479	-0.000016
1477	1.4686e+02	5.3094	10.589888	0.000184	1.842713	0.312164	-0.000018
1478	1.4696e+02	5.2993	10.572780	0.000172	1.719865	0.291353	-0.000017
1479	1.4706e+02	5.2905	10.556486	0.000164	1.637967	0.277479	-0.000016
1480	1.4716e+02	5.2802	10.538155	0.000184	1.842713	0.312164	-0.000018
1481	1.4726e+02	5.2703	10.527157	0.000111	1.105628	0.187298	-0.000011
1482	1.4736e+02	5.2570	10.506383	0.000209	2.088408	0.353786	-0.000021
1483	1.4746e+02	5.2471	10.491311	0.000152	1.515119	0.256668	-0.000015
1484	1.4756e+02	5.2401	10.477461	0.000139	1.392272	0.235857	-0.000014
1485	1.4766e+02	5.2270	10.461575	0.000160	1.597018	0.270542	-0.000016
1486	1.4776e+02	5.2188	10.444059	0.000176	1.760814	0.298290	-0.000018
1487	1.4786e+02	5.2111	10.427766	0.000164	1.637967	0.277479	-0.000016
1488	1.4796e+02	5.2020	10.410657	0.000172	1.719865	0.291353	-0.000017
1489	1.4806e+02	5.1900	10.394771	0.000160	1.597018	0.270542	-0.000016
1490	1.4816e+02	5.1781	10.376440	0.000184	1.842713	0.312164	-0.000018
1491	1.4825e+02	5.1704	10.361369	0.000152	1.515119	0.256668	-0.000015
1492	1.4835e+02	5.1574	10.339780	0.000217	2.170306	0.367660	-0.000022
1493	1.4845e+02	5.1517	10.318191	0.000217	2.170306	0.367660	-0.000022
1494	1.4855e+02	5.1393	10.299860	0.000184	1.842713	0.312164	-0.000018
1495	1.4865e+02	5.1308	10.281937	0.000180	1.801764	0.305227	-0.000018
1496	1.4875e+02	5.1177	10.261570	0.000205	2.047459	0.346849	-0.000020
1497	1.4885e+02	5.1101	10.243647	0.000180	1.801764	0.305227	-0.000018
1498	1.4895e+02	5.1000	10.222465	0.000213	2.129357	0.360723	-0.000021
1499	1.4905e+02	5.0898	10.202505	0.000201	2.006509	0.339912	-0.000020
1500	1.4915e+02	5.0816	10.179287	0.000233	2.334103	0.395408	-0.000023
1501	1.4925e+02	5.0694	10.162586	0.000168	1.678916	0.284416	-0.000017
1502	1.4935e+02	5.0586	10.141404	0.000213	2.129357	0.360723	-0.000021
1503	1.4945e+02	5.0497	10.123888	0.000176	1.760814	0.298290	-0.000018
1504	1.4955e+02	5.0395	10.101892	0.000221	2.211255	0.374597	-0.000022
1505	1.4965e+02	5.0274	10.079488	0.000225	2.252205	0.381534	-0.000023
1506	1.4975e+02	5.0221	10.060750	0.000188	1.883662	0.319101	-0.000019
1507	1.4985e+02	5.0141	10.040790	0.000201	2.006509	0.339912	-0.000020
1508	1.4995e+02	4.9990	10.020423	0.000205	2.047459	0.346849	-0.000020
1509	1.5005e+02	4.9902	10.001685	0.000188	1.883662	0.319101	-0.000019
1510	1.5015e+02	4.9838	9.977245	0.000246	2.456950	0.416219	-0.000025
1511	1.5025e+02	4.9709	9.960136	0.000172	1.719865	0.291353	-0.000017
1512	1.5034e+02	4.9615	9.938547	0.000217	2.170306	0.367660	-0.000022
1513	1.5044e+02	4.9520	9.917365	0.000213	2.129357	0.360723	-0.000021
1514	1.5054e+02	4.9403	9.901886	0.000156	1.556069	0.263605	-0.000016
1515	1.5064e+02	4.9316	9.875816	0.000262	2.620747	0.443967	-0.000026
1516	1.5074e+02	4.9200	9.857486	0.000184	1.842713	0.312164	-0.000018
1517	1.5084e+02	4.9102	9.832638	0.000250	2.497900	0.423156	-0.000025
1518	1.5094e+02	4.9039	9.812271	0.000205	2.047459	0.346849	-0.000020
1519	1.5104e+02	4.8928	9.790275	0.000221	2.211255	0.374597	-0.000022
1520	1.5114e+02	4.8823	9.771129	0.000192	1.924611	0.326038	-0.000019
1521	1.5124e+02	4.8724	9.750762	0.000205	2.047459	0.346849	-0.000020
1522	1.5134e+02	4.8595	9.729173	0.000217	2.170306	0.367660	-0.000022
1523	1.5144e+02	4.8510	9.707177	0.000221	2.211255	0.374597	-0.000022
1524	1.5154e+02	4.8423	9.685995	0.000213	2.129357	0.360723	-0.000021
1525	1.5164e+02	4.8307	9.663998	0.000221	2.211255	0.374597	-0.000022
1526	1.5174e+02	4.8207	9.643224	0.000209	2.088408	0.353786	-0.000021
1527	1.5184e+02	4.8120	9.618376	0.000250	2.497900	0.423156	-0.000025
1528	1.5194e+02	4.8014	9.596379	0.000221	2.211255	0.374597	-0.000022
1529	1.5204e+02	4.7911	9.576827	0.000197	1.965560	0.332975	-0.000020
1530	1.5214e+02	4.7816	9.554423	0.000225	2.252205	0.381534	-0.000023
1531	1.5224e+02	4.7723	9.532834	0.000217	2.170306	0.367660	-0.000022
1532	1.5233e+02	4.7608	9.508801	0.000242	2.416001	0.409282	-0.000024
1533	1.5243e+02	4.7521	9.487619	0.000213	2.129357	0.360723	-0.000021
1534	1.5253e+02	4.7411	9.465623	0.000221	2.211255	0.374597	-0.000022
1535	1.5263e+02	4.7293	9.441182	0.000246	2.456950	0.416219	-0.000025
1536	1.5273e+02	4.7231	9.421222	0.000201	2.006509	0.339912	-0.000020
1537	1.5283e+02	4.7103	9.403299	0.000180	1.801764	0.305227	-0.000018
1538	1.5293e+02	4.7014	9.378451	0.000250	2.497900	0.423156	-0.000025
1539	1.5303e+02	4.6937	9.355233	0.000233	2.334103	0.395408	-0.000023
1540	1.5313e+02	4.6810	9.334458	0.000209	2.088408	0.353786	-0.000021
1541	1.5323e+02	4.6729	9.314906	0.000197	1.965560	0.332975	-0.000020
1542	1.5333e+02	4.6616	9.286392	0.000287	2.866442	0.485588	-0.000029
1543	1.5343e+02	4.6525	9.268061	0.000184	1.842713	0.312164	-0.000018
1544	1.5353e+02	4.6433	9.245658	0.000225	2.252205	0.381534	-0.000023
1545	1.5363e+02	4.6319	9.225290	0.000205	2.047459	0.346849	-0.000020
1546	1.5373e+02	4.6176	9.204923	0.000205	2.047459	0.346849	-0.000020
1547	1.5383e+02	4.6142	9.183741	0.000213	2.129357	0.360723	-0.000021
1548	1.5393e+02	4.6011	9.163782	0.000201	2.006509	0.339912	-0.000020
1549	1.5403e+02	4.5923	9.137712	0.000262	2.620747	0.443967	-0.000026
1550	1.5413e+02	4.5824	9.115308	0.000225	2.252205	0.381534	-0.000023
1551	1.5422e+02	4.5718	9.094533	0.000209	2.088408	0.353786	-0.000021
1552	1.5432e+02	4.5609	9.069686	0.000250	2.497900	0.423156	-0.000025
1553	1.5442e+02	4.5542	9.046874	0.000229	2.293154	0.388471	-0.000023
1554	1.5452e+02	4.5400	9.026100	0.000209	2.088408	0.353786	-0.000021
1555	1.5462e+02	4.5327	8.997993	0.000283	2.825493	0.478651	-0.000028
1556	1.5472e+02	4.5235	8.978441	0.000197	1.965560	0.332975	-0.000020
1557	1.5482e+02	4.5135	8.950742	0.000278	2.784544	0.471714	-0.000028
1558	1.5492e+02	4.5045	8.923857	0.000270	2.702645	0.457841	-0.000027
1559	1.5502e+02	4.4952	8.901453	0.000225	2.252205	0.381534	-0.000023
1560	1.5512e+02	4.4834	8.875383	0.000262	2.620747	0.443967	-0.000026
1561	1.5522e+02	4.4734	8.851757	0.000238	2.375052	0.402345	-0.000024
1562	1.5532e+02	4.4637	8.824873	0.000270	2.702645	0.457841	-0.000027
1563	1.5542e+02	4.4528	8.802469	0.000225	2.252205	0.381534	-0.000023
1564	1.5552e+02	4.4424	8.780472	0.000221	2.211255	0.374597	-0.000022
1565	1.5562e+02	4.4320	8.751551	0.000291	2.907391	0.492525	-0.000029
1566	1.5572e+02	4.4238	8.731184	0.000205	2.047459	0.346849	-0.000020
1567	1.5582e+02	4.4141	8.699004	0.000323	3.234985	0.548021	-0.000032
1568	1.5592e+02	4.4043	8.676193	0.000229	2.293154	0.388471	-0.000023
1569	1.5602e+02	4.3917	8.652974	0.000233	2.334103	0.395408	-0.000023
1570	1.5612e+02	4.3861	8.624053	0.000291	2.907391	0.492525	-0.000029
1571	1.5622e+02	4.3747	8.599205	0.000250	2.497900	0.423156	-0.000025
1572	1.5631e+02	4.3665	8.577616	0.000217	2.170306	0.367660	-0.000022
1573	1.5641e+02	4.3546	8.555212	0.000225	2.252205	0.381534	-0.000023
1574	1.5651e+02	4.3455	8.529549	0.000258	2.579798	0.437030	-0.000026
1575	1.5661e+02	4.3334	8.508368	0.000213	2.129357	0.360723	-0.000021
1576	1.5671e+02	4.3230	8.487593	0.000209	2.088408	0.353786	-0.000021
1577	1.5681e+02	4.3153	8.463560	0.000242	2.416001	0.409282	-0.000024
1578	1.5691e+02	4.3039	8.441971	0.000217	2.170306	0.367660	-0.000022
1579	1.5701e+02	4.2955	8.417530	0.000246	2.456950	0.416219	-0.000025
1580	1.5711e+02	4.2840	8.396756	0.000209	2.088408	0.353786	-0.000021
1581	1.5721e+02	4.2751	8.376796	0.000201	2.006509	0.339912	-0.000020
1582	1.5731e+02	4.2655	8.353170	0.000238	2.375052	0.402345	-0.000024
1583	1.5741e+02	4.2576	8.333210	0.000201	2.006509	0.339912	-0.000020
1584	1.5751e+02	4.2441	8.314065	0.000192	1.924611	0.326038	-0.000019
1585	1.5761e+02	4.2336	8.287588	0.000266	2.661696	0.450904	-0.000027
1586	1.5771e+02	4.2259	8.270479	0.000172	1.719865	0.291353	-0.000017
1587	1.5781e+02	4.2153	8.246854	0.000238	2.375052	0.402345	-0.000024
1588	1.5791e+02	4.2049	8.225264	0.000217	2.170306	0.367660	-0.000022
1589	1.5801e+02	4.1933	8.204083	0.000213	2.129357	0.360723	-0.000021
1590	1.5811e+02	4.1851	8.181271	0.000229	2.293154	0.388471	-0.000023
1591	1.5821e+02	4.1741	8.162534	0.000188	1.883662	0.319101	-0.000019
1592	1.5830e+02	4.1616	8.142167	0.000205	2.047459	0.346849	-0.000020
1593	1.5840e+02	4.1560	8.120577	0.000217	2.170306	0.367660	-0.000022
1594	1.5850e+02	4.1441	8.100210	0.000205	2.047459	0.346849	-0.000020
1595	1.5860e+02	4.1360	8.078621	0.000217	2.170306	0.367660	-0.000022
1596	1.5870e+02	4.1248	8.058254	0.000205	2.047459	0.346849	-0.000020
1597	1.5880e+02	4.1138	8.039924	0.000184	1.842713	0.312164	-0.000018
1598	1.5890e+02	4.1036	8.017927	0.000221	2.211255	0.374597	-0.000022
1599	1.5900e+02	4.0969	7.997560	0.000205	2.047459	0.346849	-0.000020
1600	1.5910e+02	4.0842	7.977193	0.000205	2.047459	0.346849	-0.000020
1601	1.5920e+02	4.0772	7.955604	0.000217	2.170306	0.367660	-0.000022
1602	1.5930e+02	4.0673	7.931978	0.000238	2.375052	0.402345	-0.000024
1603	1.5940e+02	4.0542	7.912425	0.000197	1.965560	0.332975	-0.000020
1604	1.5950e+02	4.0440	7.890429	0.000221	2.211255	0.374597	-0.000022
1605	1.5960e+02	4.0351	7.869654	0.000209	2.088408	0.353786	-0.000021
1606	1.5970e+02	4.0251	7.854175	0.000156	1.556069	0.263605	-0.000016
1607	1.5980e+02	4.0149	7.830142	0.000242	2.416001	0.409282	-0.000024
1608	1.5990e+02	4.0069	7.810182	0.000201	2.006509	0.339912	-0.000020
1609	1.6000e+02	3.9925	7.791445	0.000188	1.883662	0.319101	-0.000019
1610	1.6010e+02	3.9870	7.770263	0.000213	2.129357	0.360723	-0.000021
1611	1.6019e+02	3.9745	7.751525	0.000188	1.883662	0.319101	-0.000019
1612	1.6029e+02	3.9660	7.731973	0.000197	1.965560	0.332975	-0.000020
1613	1.6039e+02	3.9574	7.712420	0.000197	1.965560	0.332975	-0.000020
1614	1.6049e+02	3.9439	7.694090	0.000184	1.842713	0.312164	-0.000018
1615	1.6059e+02	3.9369	7.668835	0.000254	2.538849	0.430093	-0.000025
1616	1.6069e+02	3.9292	7.651319	0.000176	1.760814	0.298290	-0.000018
1617	1.6079e+02	3.9169	7.627693	0.000238	2.375052	0.402345	-0.000024
1618	1.6089e+02	3.9039	7.608141	0.000197	1.965560	0.332975	-0.000020
1619	1.6099e+02	3.8943	7.591439	0.000168	1.678916	0.284416	-0.000017
1620	1.6109e+02	3.8848	7.565777	0.000258	2.579798	0.437030	-0.000026
1621	1.6119e+02	3.8744	7.548668	0.000172	1.719865	0.291353	-0.000017
1622	1.6129e+02	3.8663	7.528709	0.000201	2.006509	0.339912	-0.000020
1623	1.6139e+02	3.8538	7.509971	0.000188	1.883662	0.319101	-0.000019
1624	1.6149e+02	3.8451	7.488382	0.000217	2.170306	0.367660	-0.000022
1625	1.6159e+02	3.8360	7.468015	0.000205	2.047459	0.346849	-0.000020
1626	1.6169e+02	3.8276	7.445611	0.000225	2.252205	0.381534	-0.000023
1627	1.6179e+02	3.8161	7.427688	0.000180	1.801764	0.305227	-0.000018
1628	1.6189e+02	3.8055	7.405284	0.000225	2.252205	0.381534	-0.000023
1629	1.6199e+02	3.7945	7.385324	0.000201	2.006509	0.339912	-0.000020
1630	1.6209e+02	3.7868	7.364550	0.000209	2.088408	0.353786	-0.000021
1631	1.6219e+02	3.7790	7.345812	0.000188	1.883662	0.319101	-0.000019
1632	1.6228e+02	3.7670	7.324223	0.000217	2.170306	0.367660	-0.000022
1633	1.6238e+02	3.7580	7.302634	0.000217	2.170306	0.367660	-0.000022
1634	1.6248e+02	3.7453	7.285933	0.000168	1.678916	0.284416	-0.000017
1635	1.6258e+02	3.7357	7.265158	0.000209	2.088408	0.353786	-0.000021
1636	1.6268e+02	3.7270	7.243976	0.000213	2.129357	0.360723	-0.000021
1637	1.6278e+02	3.7189	7.226053	0.000180	1.801764	0.305227	-0.000018
1638	1.6288e+02	3.7057	7.208945	0.000172	1.719865	0.291353	-0.000017
1639	1.6298e+02	3.6980	7.188985	0.000201	2.006509	0.339912	-0.000020
1640	1.6308e+02	3.6855	7.172691	0.000164	1.637967	0.277479	-0.000016
1641	1.6318e+02	3.6759	7.155176	0.000176	1.760814	0.298290	-0.000018
1642	1.6328e+02	3.6678	7.135216	0.000201	2.006509	0.339912	-0.000020
1643	1.6338e+02	3.6584	7.118515	0.000168	1.678916	0.284416	-0.000017
1644	1.6348e+02	3.6480	7.101814	0.000168	1.678916	0.284416	-0.000017
1645	1.6358e+02	3.6362	7.083891	0.000180	1.801764	0.305227	-0.000018
1646	1.6368e+02	3.6304	7.062301	0.000217	2.170306	0.367660	-0.000022
1647	1.6378e+02	3.6198	7.046822	0.000156	1.556069	0.263605	-0.000016
1648	1.6388e+02	3.6095	7.027270	0.000197	1.965560	0.332975	-0.000020
1649	1.6398e+02	3.5958	7.009347	0.000180	1.801764	0.305227	-0.000018
1650	1.6408e+02	3.5879	6.989387	0.000201	2.006509	0.339912	-0.000020
1651	1.6418e+02	3.5780	6.973093	0.000164	1.637967	0.277479	-0.000016
1652	1.6427e+02	3.5674	6.955170	0.000180	1.801764	0.305227	-0.000018
1653	1.6437e+02	3.5571	6.940506	0.000147	1.474170	0.249731	-0.000015
1654	1.6447e+02	3.5480	6.920546	0.000201	2.006509	0.339912	-0.000020
1655	1.6457e+02	3.5369	6.903845	0.000168	1.678916	0.284416	-0.000017
1656	1.6467e+02	3.5287	6.887144	0.000168	1.678916	0.284416	-0.000017
1657	1.6477e+02	3.5195	6.867184	0.000201	2.006509	0.339912	-0.000020
1658	1.6487e+02	3.5082	6.846410	0.000209	2.088408	0.353786	-0.000021
1659	1.6497e+02	3.4996	6.826043	0.000205	2.047459	0.346849	-0.000020
1660	1.6507e+02	3.4898	6.800788	0.000254	2.538849	0.430093	-0.000025
1661	1.6517e+02	3.4815	6.786531	0.000143	1.433221	0.242794	-0.000014
1662	1.6527e+02	3.4684	6.758017	0.000287	2.866442	0.485588	-0.000029
1663	1.6537e+02	3.4586	6.739686	0.000184	1.842713	0.312164	-0.000018
1664	1.6547e+02	3.4502	6.722985	0.000168	1.678916	0.284416	-0.000017
1665	1.6557e+02	3.4380	6.698545	0.000246	2.456950	0.416219	-0.000025
1666	1.6567e+02	3.4267	6.676548	0.000221	2.211255	0.374597	-0.000022
1667	1.6577e+02	3.4169	6.652922	0.000238	2.375052	0.402345	-0.000024
1668	1.6587e+02	3.4082	6.630111	0.000229	2.293154	0.388471	-0.000023
1669	1.6597e+02	3.3996	6.610966	0.000192	1.924611	0.326038	-0.000019
1670	1.6607e+02	3.3878	6.587340	0.000238	2.375052	0.402345	-0.000024
1671	1.6616e+02	3.3764	6.569010	0.000184	1.842713	0.312164	-0.000018
1672	1.6626e+02	3.3676	6.542940	0.000262	2.620747	0.443967	-0.000026
1673	1.6636e+02	3.3587	6.522573	0.000205	2.047459	0.346849	-0.000020
1674	1.6646e+02	3.3459	6.500576	0.000221	2.211255	0.374597	-0.000022
1675	1.6656e+02	3.3379	6.478987	0.000217	2.170306	0.367660	-0.000022
1676	1.6666e+02	3.3295	6.455361	0.000238	2.375052	0.402345	-0.000024
1677	1.6676e+02	3.3221	6.434994	0.000205	2.047459	0.346849	-0.000020
1678	1.6686e+02	3.3085	6.413812	0.000213	2.129357	0.360723	-0.000021
1679	1.6696e+02	3.3010	6.388964	0.000250	2.497900	0.423156	-0.000025
1680	1.6706e+02	3.2898	6.367375	0.000217	2.170306	0.367660	-0.000022
1681	1.6716e+02	3.2777	6.344971	0.000225	2.252205	0.381534	-0.000023
1682	1.6726e+02	3.2658	6.320123	0.000250	2.497900	0.423156	-0.000025
1683	1.6736e+02	3.2580	6.301386	0.000188	1.883662	0.319101	-0.000019
1684	1.6746e+02	3.2522	6.274501	0.000270	2.702645	0.457841	-0.000027
1685	1.6756e+02	3.2401	6.252504	0.000221	2.211255	0.374597	-0.000022
1686	1.6766e+02	3.2276	6.228471	0.000242	2.416001	0.409282	-0.000024
1687	1.6776e+02	3.2204	6.208919	0.000197	1.965560	0.332975	-0.000020
1688	1.6786e+02	3.2096	6.186108	0.000229	2.293154	0.388471	-0.000023
1689	1.6796e+02	3.2018	6.161260	0.000250	2.497900	0.423156	-0.000025
1690	1.6806e+02	3.1889	6.137634	0.000238	2.375052	0.402345	-0.000024
1691	1.6816e+02	3.1812	6.116045	0.000217	2.170306	0.367660	-0.000022
1692	1.6825e+02	3.1709	6.093641	0.000225	2.252205	0.381534	-0.000023
1693	1.6835e+02	3.1623	6.068386	0.000254	2.538849	0.430093	-0.000025
1694	1.6845e+02	3.1520	6.042316	0.000262	2.620747	0.443967	-0.000026
1695	1.6855e+02	3.1380	6.022356	0.000201	2.006509	0.339912	-0.000020
1696	1.6865e+02	3.1301	5.994657	0.000278	2.784544	0.471714	-0.000028
1697	1.6875e+02	3.1194	5.971845	0.000229	2.293154	0.388471	-0.000023
1698	1.6885e+02	3.1081	5.946183	0.000258	2.579798	0.437030	-0.000026
1699	1.6895e+02	3.1007	5.922557	0.000238	2.375052	0.402345	-0.000024
1700	1.6905e+02	3.0917	5.900968	0.000217	2.170306	0.367660	-0.000022
1701	1.6915e+02	3.0770	5.878157	0.000229	2.293154	0.388471	-0.000023
1702	1.6925e+02	3.0704	5.858197	0.000201	2.006509	0.339912	-0.000020
1703	1.6935e+02	3.0608	5.833349	0.000250	2.497900	0.423156	-0.000025
1704	1.6945e+02	3.0532	5.805242	0.000283	2.825493	0.478651	-0.000028
1705	1.6955e+02	3.0404	5.787727	0.000176	1.760814	0.298290	-0.000018
1706	1.6965e+02	3.0324	5.760842	0.000270	2.702645	0.457841	-0.000027
1707	1.6975e+02	3.0202	5.735179	0.000258	2.579798	0.437030	-0.000026
1708	1.6985e+02	3.0117	5.713183	0.000221	2.211255	0.374597	-0.000022
1709	1.6995e+02	3.0001	5.688742	0.000246	2.456950	0.416219	-0.000025
1710	1.7005e+02	2.9924	5.663487	0.000254	2.538849	0.430093	-0.000025
1711	1.7015e+02	2.9789	5.641083	0.000225	2.252205	0.381534	-0.000023
1712	1.7024e+02	2.9707	5.617050	0.000242	2.416001	0.409282	-0.000024
1713	1.7034e+02	2.9613	5.593017	0.000242	2.416001	0.409282	-0.000024
1714	1.7044e+02	2.9491	5.571020	0.000221	2.211255	0.374597	-0.000022
1715	1.7054e+02	2.9411	5.546987	0.000242	2.416001	0.409282	-0.000024
1716	1.7064e+02	2.9334	5.524583	0.000225	2.252205	0.381534	-0.000023
1717	1.7074e+02	2.9208	5.498921	0.000258	2.579798	0.437030	-0.000026
1718	1.7084e+02	2.9090	5.475702	0.000233	2.334103	0.395408	-0.000023
1719	1.7094e+02	2.9044	5.450040	0.000258	2.579798	0.437030	-0.000026
1720	1.7104e+02	2.8873	5.426414	0.000238	2.375052	0.402345	-0.000024
1721	1.7114e+02	2.8788	5.401566	0.000250	2.497900	0.423156	-0.000025
1722	1.7124e+02	2.8720	5.374274	0.000274	2.743595	0.464778	-0.000027
1723	1.7134e+02	2.8625	5.349019	0.000254	2.538849	0.430093	-0.000025
1724	1.7144e+02	2.8514	5.323763	0.000254	2.538849	0.430093	-0.000025
1725	1.7154e+02	2.8419	5.296064	0.000278	2.784544	0.471714	-0.000028
1726	1.7164e+02	2.8321	5.267958	0.000283	2.825493	0.478651	-0.000028
1727	1.7174e+02	2.8204	5.240666	0.000274	2.743595	0.464778	-0.000027
1728	1.7184e+02	2.8094	5.215003	0.000258	2.579798	0.437030	-0.000026
1729	1.7194e+02	2.8011	5.189748	0.000254	2.538849	0.430093	-0.000025
1730	1.7204e+02	2.7966	5.161234	0.000287	2.866442	0.485588	-0.000029
1731	1.7213e+02	2.7815	5.133535	0.000278	2.784544	0.471714	-0.000028
1732	1.7223e+02	2.7711	5.109094	0.000246	2.456950	0.416219	-0.000025
1733	1.7233e+02	2.7606	5.085468	0.000238	2.375052	0.402345	-0.000024
1734	1.7243e+02	2.7502	5.055325	0.000303	3.030239	0.513336	-0.000030
1735	1.7253e+02	2.7423	5.029662	0.000258	2.579798	0.437030	-0.000026
1736	1.7263e+02	2.7317	5.004000	0.000258	2.579798	0.437030	-0.000026
1737	1.7273e+02	2.7212	4.975078	0.000291	2.907391	0.492525	-0.000029
1738	1.7283e+02	2.7106	4.947786	0.000274	2.743595	0.464778	-0.000027
1739	1.7293e+02	2.7016	4.919680	0.000283	2.825493	0.478651	-0.000028
1740	1.7303e+02	2.6917	4.895646	0.000242	2.416001	0.409282	-0.000024
1741	1.7313e+02	2.6838	4.869984	0.000258	2.579798	0.437030	-0.000026
1742	1.7323e+02	2.6730	4.846765	0.000233	2.334103	0.395408	-0.000023
1743	1.7333e+02	2.6617	4.822732	0.000242	2.416001	0.409282	-0.000024
1744	1.7343e+02	2.6527	4.801143	0.000217	2.170306	0.367660	-0.000022
1745	1.7353e+02	2.6441	4.771407	0.000299	2.989290	0.506399	-0.000030
1746	1.7363e+02	2.6342	4.751040	0.000205	2.047459	0.346849	-0.000020
1747	1.7373e+02	2.6242	4.725785	0.000254	2.538849	0.430093	-0.000025
1748	1.7383e+02	2.6138	4.702973	0.000229	2.293154	0.388471	-0.000023
1749	1.7393e+02	2.6018	4.681792	0.000213	2.129357	0.360723	-0.000021
1750	1.7403e+02	2.5893	4.657351	0.000246	2.456950	0.416219	-0.000025
1751	1.7413e+02	2.5848	4.633725	0.000238	2.375052	0.402345	-0.000024
1752	1.7422e+02	2.5707	4.609285	0.000246	2.456950	0.416219	-0.000025
1753	1.7432e+02	2.5620	4.586066	0.000233	2.334103	0.395408	-0.000023
1754	1.7442e+02	2.5511	4.562848	0.000233	2.334103	0.395408	-0.000023
1755	1.7452e+02	2.5462	4.538407	0.000246	2.456950	0.416219	-0.000025
1756	1.7462e+02	2.5315	4.516818	0.000217	2.170306	0.367660	-0.000022
1757	1.7472e+02	2.5230	4.496451	0.000205	2.047459	0.346849	-0.000020
1758	1.7482e+02	2.5133	4.470788	0.000258	2.579798	0.437030	-0.000026
1759	1.7492e+02	2.5022	4.448384	0.000225	2.252205	0.381534	-0.000023
1760	1.7502e+02	2.4939	4.424758	0.000238	2.375052	0.402345	-0.000024
1761	1.7512e+02	2.4855	4.403577	0.000213	2.129357	0.360723	-0.000021
1762	1.7522e+02	2.4737	4.377099	0.000266	2.661696	0.450904	-0.000027
1763	1.7532e+02	2.4574	4.355918	0.000213	2.129357	0.360723	-0.000021
1764	1.7542e+02	2.4539	4.335958	0.000201	2.006509	0.339912	-0.000020
1765	1.7552e+02	2.4426	4.311925	0.000242	2.416001	0.409282	-0.000024
1766	1.7562e+02	2.4356	4.290743	0.000213	2.129357	0.360723	-0.000021
1767	1.7572e+02	2.4215	4.264673	0.000262	2.620747	0.443967	-0.000026
1768	1.7582e+02	2.4129	4.241047	0.000238	2.375052	0.402345	-0.000024
1769	1.7592e+02	2.4031	4.220273	0.000209	2.088408	0.353786	-0.000021
1770	1.7602e+02	2.3915	4.196239	0.000242	2.416001	0.409282	-0.000024
1771	1.7612e+02	2.3843	4.176687	0.000197	1.965560	0.332975	-0.000020
1772	1.7621e+02	2.3717	4.152654	0.000242	2.416001	0.409282	-0.000024
1773	1.7631e+02	2.3646	4.130250	0.000225	2.252205	0.381534	-0.000023
1774	1.7641e+02	2.3574	4.107439	0.000229	2.293154	0.388471	-0.000023
1775	1.7651e+02	2.3431	4.086257	0.000213	2.129357	0.360723	-0.000021
1776	1.7661e+02	2.3354	4.065482	0.000209	2.088408	0.353786	-0.000021
1777	1.7671e+02	2.3241	4.045523	0.000201	2.006509	0.339912	-0.000020
1778	1.7681e+02	2.3115	4.021489	0.000242	2.416001	0.409282	-0.000024
1779	1.7691e+02	2.3043	3.997863	0.000238	2.375052	0.402345	-0.000024
1780	1.7701e+02	2.2979	3.974238	0.000238	2.375052	0.402345	-0.000024
1781	1.7711e+02	2.2838	3.956315	0.000180	1.801764	0.305227	-0.000018
1782	1.7721e+02	2.2779	3.932281	0.000242	2.416001	0.409282	-0.000024
1783	1.7731e+02	2.2636	3.910285	0.000221	2.211255	0.374597	-0.000022
1784	1.7741e+02	2.2533	3.886252	0.000242	2.416001	0.409282	-0.000024
1785	1.7751e+02	2.2435	3.865884	0.000205	2.047459	0.346849	-0.000020
1786	1.7761e+02	2.2367	3.844295	0.000217	2.170306	0.367660	-0.000022
1787	1.7771e+02	2.2271	3.819855	0.000246	2.456950	0.416219	-0.000025
1788	1.7781e+02	2.2134	3.800710	0.000192	1.924611	0.326038	-0.000019
1789	1.7791e+02	2.2066	3.774640	0.000262	2.620747	0.443967	-0.000026
1790	1.7801e+02	2.1963	3.756309	0.000184	1.842713	0.312164	-0.000018
1791	1.7810e+02	2.1877	3.733091	0.000233	2.334103	0.395408	-0.000023
1792	1.7820e+02	2.1743	3.711502	0.000217	2.170306	0.367660	-0.000022
1793	1.7830e+02	2.1636	3.687468	0.000242	2.416001	0.409282	-0.000024
1794	1.7840e+02	2.1545	3.666287	0.000213	2.129357	0.360723	-0.000021
1795	1.7850e+02	2.1441	3.646734	0.000197	1.965560	0.332975	-0.000020
1796	1.7860e+02	2.1357	3.624330	0.000225	2.252205	0.381534	-0.000023
1797	1.7870e+02	2.1226	3.599075	0.000254	2.538849	0.430093	-0.000025
1798	1.7880e+02	2.1161	3.577486	0.000217	2.170306	0.367660	-0.000022
1799	1.7890e+02	2.1062	3.552638	0.000250	2.497900	0.423156	-0.000025
1800	1.7900e+02	2.0937	3.528198	0.000246	2.456950	0.416219	-0.000025
1801	1.7910e+02	2.0837	3.509460	0.000188	1.883662	0.319101	-0.000019
1802	1.7920e+02	2.0743	3.485834	0.000238	2.375052	0.402345	-0.000024
1803	1.7930e+02	2.0660	3.464245	0.000217	2.170306	0.367660	-0.000022
1804	1.7940e+02	2.0567	3.442248	0.000221	2.211255	0.374597	-0.000022
1805	1.7950e+02	2.0478	3.421066	0.000213	2.129357	0.360723	-0.000021
1806	1.7960e+02	2.0364	3.401514	0.000197	1.965560	0.332975	-0.000020
1807	1.7970e+02	2.0272	3.381962	0.000197	1.965560	0.332975	-0.000020
1808	1.7980e+02	2.0123	3.364853	0.000172	1.719865	0.291353	-0.000017
1809	1.7990e+02	2.0049	3.344893	0.000201	2.006509	0.339912	-0.000020
1810	1.8000e+02	1.9948	3.326156	0.000188	1.883662	0.319101	-0.000019
1811	1.8009e+02	1.9841	3.305788	0.000205	2.047459	0.346849	-0.000020
1812	1.8019e+02	1.9753	3.287051	0.000188	1.883662	0.319101	-0.000019
1813	1.8029e+02	1.9671	3.260981	0.000262	2.620747	0.443967	-0.000026
1814	1.8039e+02	1.9545	3.244280	0.000168	1.678916	0.284416	-0.000017
1815	1.8049e+02	1.9450	3.225542	0.000188	1.883662	0.319101	-0.000019
1816	1.8059e+02	1.9345	3.202323	0.000233	2.334103	0.395408	-0.000023
1817	1.8069e+02	1.9262	3.182771	0.000197	1.965560	0.332975	-0.000020
1818	1.8079e+02	1.9143	3.161589	0.000213	2.129357	0.360723	-0.000021
1819	1.8089e+02	1.9047	3.148147	0.000135	1.351323	0.228920	-0.000014
1820	1.8099e+02	1.8952	3.125743	0.000225	2.252205	0.381534	-0.000023
1821	1.8109e+02	1.8863	3.106598	0.000192	1.924611	0.326038	-0.000019
1822	1.8119e+02	1.8753	3.086638	0.000201	2.006509	0.339912	-0.000020
1823	1.8129e+02	1.8686	3.065864	0.000209	2.088408	0.353786	-0.000021
1824	1.8139e+02	1.8570	3.044682	0.000213	2.129357	0.360723	-0.000021
1825	1.8149e+02	1.8443	3.023500	0.000213	2.129357	0.360723	-0.000021
1826	1.8159e+02	1.8391	2.999060	0.000246	2.456950	0.416219	-0.000025
1827	1.8169e+02	1.8270	2.978692	0.000205	2.047459	0.346849	-0.000020
1828	1.8179e+02	1.8187	2.954659	0.000242	2.416001	0.409282	-0.000024
1829	1.8189e+02	1.8075	2.932255	0.000225	2.252205	0.381534	-0.000023
1830	1.8199e+02	1.7963	2.911074	0.000213	2.129357	0.360723	-0.000021
1831	1.8209e+02	1.7872	2.884596	0.000266	2.661696	0.450904	-0.000027
1832	1.8218e+02	1.7764	2.865859	0.000188	1.883662	0.319101	-0.000019
1833	1.8228e+02	1.7643	2.838974	0.000270	2.702645	0.457841	-0.000027
1834	1.8238e+02	1.7553	2.814126	0.000250	2.497900	0.423156	-0.000025
1835	1.8248e+02	1.7485	2.789685	0.000246	2.456950	0.416219	-0.000025
1836	1.8258e+02	1.7364	2.769318	0.000205	2.047459	0.346849	-0.000020
1837	1.8268e+02	1.7291	2.745285	0.000242	2.416001	0.409282	-0.000024
1838	1.8278e+02	1.7153	2.719215	0.000262	2.620747	0.443967	-0.000026
1839	1.8288e+02	1.7086	2.697626	0.000217	2.170306	0.367660	-0.000022
1840	1.8298e+02	1.6962	2.669519	0.000283	2.825493	0.478651	-0.000028
1841	1.8308e+02	1.6892	2.647930	0.000217	2.170306	0.367660	-0.000022
1842	1.8318e+02	1.6753	2.625934	0.000221	2.211255	0.374597	-0.000022
1843	1.8328e+02	1.6677	2.601493	0.000246	2.456950	0.416219	-0.000025
1844	1.8338e+02	1.6579	2.574201	0.000274	2.743595	0.464778	-0.000027
1845	1.8348e+02	1.6425	2.553427	0.000209	2.088408	0.353786	-0.000021
1846	1.8358e+02	1.6385	2.528986	0.000246	2.456950	0.416219	-0.000025
1847	1.8368e+02	1.6265	2.501694	0.000274	2.743595	0.464778	-0.000027
1848	1.8378e+02	1.6165	2.478883	0.000229	2.293154	0.388471	-0.000023
1849	1.8388e+02	1.6087	2.452406	0.000266	2.661696	0.450904	-0.000027
1850	1.8398e+02	1.5991	2.429187	0.000233	2.334103	0.395408	-0.000023
1851	1.8407e+02	1.5880	2.405969	0.000233	2.334103	0.395408	-0.000023
1852	1.8417e+02	1.5780	2.382343	0.000238	2.375052	0.402345	-0.000024
1853	1.8427e+02	1.5670	2.355458	0.000270	2.702645	0.457841	-0.000027
1854	1.8437e+02	1.5599	2.331425	0.000242	2.416001	0.409282	-0.000024
1855	1.8447e+02	1.5503	2.305355	0.000262	2.620747	0.443967	-0.000026
1856	1.8457e+02	1.5375	2.282544	0.000229	2.293154	0.388471	-0.000023
1857	1.8467e+02	1.5310	2.255659	0.000270	2.702645	0.457841	-0.000027
1858	1.8477e+02	1.5182	2.230404	0.000254	2.538849	0.430093	-0.000025
1859	1.8487e+02	1.5077	2.205964	0.000246	2.456950	0.416219	-0.000025
1860	1.8497e+02	1.4999	2.177857	0.000283	2.825493	0.478651	-0.000028
1861	1.8507e+02	1.4883	2.151380	0.000266	2.661696	0.450904	-0.000027
1862	1.8517e+02	1.4771	2.128569	0.000229	2.293154	0.388471	-0.000023
1863	1.8527e+02	1.4677	2.098832	0.000299	2.989290	0.506399	-0.000030
1864	1.8537e+02	1.4613	2.075207	0.000238	2.375052	0.402345	-0.000024
1865	1.8547e+02	1.4458	2.048729	0.000266	2.661696	0.450904	-0.000027
1866	1.8557e+02	1.4379	2.021437	0.000274	2.743595	0.464778	-0.000027
1867	1.8567e+02	1.4289	1.997812	0.000238	2.375052	0.402345	-0.000024
1868	1.8577e+02	1.4181	1.975815	0.000221	2.211255	0.374597	-0.000022
1869	1.8587e+02	1.4091	1.948116	0.000278	2.784544	0.471714	-0.000028
1870	1.8597e+02	1.3973	1.921231	0.000270	2.702645	0.457841	-0.000027
1871	1.8606e+02	1.3879	1.894347	0.000270	2.702645	0.457841	-0.000027
1872	1.8616e+02	1.3769	1.870313	0.000242	2.416001	0.409282	-0.000024
1873	1.8626e+02	1.3650	1.845465	0.000250	2.497900	0.423156	-0.000025
1874	1.8636e+02	1.3612	1.817766	0.000278	2.784544	0.471714	-0.000028
1875	1.8646e+02	1.3480	1.798621	0.000192	1.924611	0.326038	-0.000019
1876	1.8656e+02	1.3379	1.768478	0.000303	3.030239	0.513336	-0.000030
1877	1.8666e+02	1.3290	1.744852	0.000238	2.375052	0.402345	-0.000024
1878	1.8676e+02	1.3178	1.713486	0.000315	3.153086	0.534147	-0.000032
1879	1.8686e+02	1.3098	1.691490	0.000221	2.211255	0.374597	-0.000022
1880	1.8696e+02	1.2997	1.662161	0.000295	2.948340	0.499462	-0.000029
1881	1.8706e+02	1.2913	1.636906	0.000254	2.538849	0.430093	-0.000025
1882	1.8716e+02	1.2802	1.614502	0.000225	2.252205	0.381534	-0.000023
1883	1.8726e+02	1.2713	1.587618	0.000270	2.702645	0.457841	-0.000027
1884	1.8736e+02	1.2603	1.563177	0.000246	2.456950	0.416219	-0.000025
1885	1.8746e+02	1.2482	1.539144	0.000242	2.416001	0.409282	-0.000024
1886	1.8756e+02	1.2389	1.513481	0.000258	2.579798	0.437030	-0.000026
1887	1.8766e+02	1.2276	1.487004	0.000266	2.661696	0.450904	-0.000027
1888	1.8776e+02	1.2215	1.459712	0.000274	2.743595	0.464778	-0.000027
1889	1.8786e+02	1.2115	1.430383	0.000295	2.948340	0.499462	-0.000029
1890	1.8796e+02	1.2004	1.403906	0.000266	2.661696	0.450904	-0.000027
1891	1.8806e+02	1.1891	1.376614	0.000274	2.743595	0.464778	-0.000027
1892	1.8815e+02	1.1817	1.344841	0.000319	3.194036	0.541084	-0.000032
1893	1.8825e+02	1.1700	1.319586	0.000254	2.538849	0.430093	-0.000025
1894	1.8835e+02	1.1606	1.285369	0.000344	3.439731	0.582706	-0.000034
1895	1.8845e+02	1.1494	1.259707	0.000258	2.579798	0.437030	-0.000026
1896	1.8855e+02	1.1401	1.232822	0.000270	2.702645	0.457841	-0.000027
1897	1.8865e+02	1.1319	1.205123	0.000278	2.784544	0.471714	-0.000028
1898	1.8875e+02	1.1201	1.175794	0.000295	2.948340	0.499462	-0.000029
1899	1.8885e+02	1.1116	1.146873	0.000291	2.907391	0.492525	-0.000029
1900	1.8895e+02	1.1022	1.119581	0.000274	2.743595	0.464778	-0.000027
1901	1.8905e+02	1.0907	1.092289	0.000274	2.743595	0.464778	-0.000027
1902	1.8915e+02	1.0793	1.059294	0.000332	3.316883	0.561895	-0.000033
1903	1.8925e+02	1.0696	1.033224	0.000262	2.620747	0.443967	-0.000026
1904	1.8935e+02	1.0595	1.000230	0.000332	3.316883	0.561895	-0.000033
1905	1.8945e+02	1.0493	0.970494	0.000299	2.989290	0.506399	-0.000030
1906	1.8955e+02	1.0421	0.944016	0.000266	2.661696	0.450904	-0.000027
1907	1.8965e+02	1.0308	0.918354	0.000258	2.579798	0.437030	-0.000026
1908	1.8975e+02	1.0168	0.891877	0.000266	2.661696	0.450904	-0.000027
1909	1.8985e+02	1.0107	0.863770	0.000283	2.825493	0.478651	-0.000028
1910	1.8995e+02	0.9981	0.834849	0.000291	2.907391	0.492525	-0.000029
1911	1.9004e+02	0.9911	0.811223	0.000238	2.375052	0.402345	-0.000024
1912	1.9014e+02	0.9828	0.785560	0.000258	2.579798	0.437030	-0.000026
1913	1.9024e+02	0.9676	0.760305	0.000254	2.538849	0.430093	-0.000025
1914	1.9034e+02	0.9606	0.733013	0.000274	2.743595	0.464778	-0.000027
1915	1.9044e+02	0.9510	0.707350	0.000258	2.579798	0.437030	-0.000026
1916	1.9054e+02	0.9430	0.681688	0.000258	2.579798	0.437030	-0.000026
1917	1.9064e+02	0.9327	0.655210	0.000266	2.661696	0.450904	-0.000027
1918	1.9074e+02	0.9229	0.632399	0.000229	2.293154	0.388471	-0.000023
1919	1.9084e+02	0.9139	0.606329	0.000262	2.620747	0.443967	-0.000026
1920	1.9094e+02	0.9007	0.580667	0.000258	2.579798	0.437030	-0.000026
1921	1.9104e+02	0.8910	0.555004	0.000258	2.579798	0.437030	-0.000026
1922	1.9114e+02	0.8849	0.531786	0.000233	2.334103	0.395408	-0.000023
1923	1.9124e+02	0.8696	0.508975	0.000229	2.293154	0.388471	-0.000023
1924	1.9134e+02	0.8594	0.480461	0.000287	2.866442	0.485588	-0.000029
1925	1.9144e+02	0.8517	0.458057	0.000225	2.252205	0.381534	-0.000023
1926	1.9154e+02	0.8411	0.433616	0.000246	2.456950	0.416219	-0.000025
1927	1.9164e+02	0.8310	0.407139	0.000266	2.661696	0.450904	-0.000027
1928	1.9174e+02	0.8213	0.379440	0.000278	2.784544	0.471714	-0.000028
1929	1.9184e+02	0.8114	0.355406	0.000242	2.416001	0.409282	-0.000024
1930	1.9194e+02	0.8039	0.330151	0.000254	2.538849	0.430093	-0.000025
1931	1.9203e+02	0.7903	0.306118	0.000242	2.416001	0.409282	-0.000024
1932	1.9213e+02	0.7844	0.282492	0.000238	2.375052	0.402345	-0.000024
1933	1.9223e+02	0.7708	0.260496	0.000221	2.211255	0.374597	-0.000022
1934	1.9233e+02	0.7612	0.233611	0.000270	2.702645	0.457841	-0.000027
1935	1.9243e+02	0.7522	0.205504	0.000283	2.825493	0.478651	-0.000028
1936	1.9253e+02	0.7418	0.184730	0.000209	2.088408	0.353786	-0.000021
1937	1.9263e+02	0.7306	0.159475	0.000254	2.538849	0.430093	-0.000025
1938	1.9273e+02	0.7230	0.134219	0.000254	2.538849	0.430093	-0.000025
1939	1.9283e+02	0.7124	0.111816	0.000225	2.252205	0.381534	-0.000023
1940	1.9293e+02	0.7026	0.083709	0.000283	2.825493	0.478651	-0.000028
1941	1.9303e+02	0.6928	0.060490	0.000233	2.334103	0.395408	-0.000023
1942	1.9313e+02	0.6823	0.038494	0.000221	2.211255	0.374597	-0.000022
1943	1.9323e+02	0.6712	0.012831	0.000258	2.579798	0.437030	-0.000026
1944	1.9333e+02	0.6644	-0.012017	0.000250	2.497900	0.423156	-0.000025
1945	1.9343e+02	0.6501	-0.032384	0.000205	2.047459	0.346849	-0.000020
1946	1.9353e+02	0.6433	-0.056010	0.000238	2.375052	0.402345	-0.000024
1947	1.9363e+02	0.6329	-0.082894	0.000270	2.702645	0.457841	-0.000027
1948	1.9373e+02	0.6223	-0.104891	0.000221	2.211255	0.374597	-0.000022
1949	1.9383e+02	0.6136	-0.126480	0.000217	2.170306	0.367660	-0.000022
1950	1.9393e+02	0.6014	-0.154586	0.000283	2.825493	0.478651	-0.000028
1951	1.9403e+02	0.5937	-0.174954	0.000205	2.047459	0.346849	-0.000020
1952	1.9412e+02	0.5829	-0.202653	0.000278	2.784544	0.471714	-0.000028
1953	1.9422e+02	0.5752	-0.224242	0.000217	2.170306	0.367660	-0.000022
1954	1.9432e+02	0.5599	-0.250719	0.000266	2.661696	0.450904	-0.000027
1955	1.9442e+02	0.5516	-0.275975	0.000254	2.538849	0.430093	-0.000025
1956	1.9452e+02	0.5445	-0.297156	0.000213	2.129357	0.360723	-0.000021
1957	1.9462e+02	0.5334	-0.322819	0.000258	2.579798	0.437030	-0.000026
1958	1.9472e+02	0.5199	-0.344408	0.000217	2.170306	0.367660	-0.000022
1959	1.9482e+02	0.5138	-0.371700	0.000274	2.743595	0.464778	-0.000027
1960	1.9492e+02	0.5032	-0.392882	0.000213	2.129357	0.360723	-0.000021
1961	1.9502e+02	0.4922	-0.416100	0.000233	2.334103	0.395408	-0.000023
1962	1.9512e+02	0.4836	-0.439319	0.000233	2.334103	0.395408	-0.000023
1963	1.9522e+02	0.4717	-0.461723	0.000225	2.252205	0.381534	-0.000023
1964	1.9532e+02	0.4627	-0.493088	0.000315	3.153086	0.534147	-0.000032
1965	1.9542e+02	0.4561	-0.514677	0.000217	2.170306	0.367660	-0.000022
1966	1.9552e+02	0.4421	-0.543599	0.000291	2.907391	0.492525	-0.000029
1967	1.9562e+02	0.4356	-0.565595	0.000221	2.211255	0.374597	-0.000022
1968	1.9572e+02	0.4241	-0.590443	0.000250	2.497900	0.423156	-0.000025
1969	1.9582e+02	0.4142	-0.612032	0.000217	2.170306	0.367660	-0.000022
1970	1.9592e+02	0.4048	-0.635658	0.000238	2.375052	0.402345	-0.000024
1971	1.9601e+02	0.3943	-0.658877	0.000233	2.334103	0.395408	-0.000023
1972	1.9611e+02	0.3846	-0.684539	0.000258	2.579798	0.437030	-0.000026
1973	1.9621e+02	0.3713	-0.705314	0.000209	2.088408	0.353786	-0.000021
1974	1.9631e+02	0.3658	-0.724051	0.000188	1.883662	0.319101	-0.000019
1975	1.9641e+02	0.3551	-0.748492	0.000246	2.456950	0.416219	-0.000025
1976	1.9651e+02	0.3447	-0.770896	0.000225	2.252205	0.381534	-0.000023
1977	1.9661e+02	0.3362	-0.787189	0.000164	1.637967	0.277479	-0.000016
1978	1.9671e+02	0.3226	-0.813667	0.000266	2.661696	0.450904	-0.000027
1979	1.9681e+02	0.3130	-0.833627	0.000201	2.006509	0.339912	-0.000020
1980	1.9691e+02	0.3057	-0.850328	0.000168	1.678916	0.284416	-0.000017
1981	1.9701e+02	0.2924	-0.877620	0.000274	2.743595	0.464778	-0.000027
1982	1.9711e+02	0.2846	-0.898394	0.000209	2.088408	0.353786	-0.000021
1983	1.9721e+02	0.2745	-0.923649	0.000254	2.538849	0.430093	-0.000025
1984	1.9731e+02	0.2637	-0.944424	0.000209	2.088408	0.353786	-0.000021
1985	1.9741e+02	0.2544	-0.964791	0.000205	2.047459	0.346849	-0.000020
1986	1.9751e+02	0.2448	-0.985158	0.000205	2.047459	0.346849	-0.000020
1987	1.9761e+02	0.2321	-1.005118	0.000201	2.006509	0.339912	-0.000020
1988	1.9771e+02	0.2250	-1.031595	0.000266	2.661696	0.450904	-0.000027
1989	1.9781e+02	0.2163	-1.049518	0.000180	1.801764	0.305227	-0.000018
1990	1.9791e+02	0.2035	-1.069478	0.000201	2.006509	0.339912	-0.000020
1991	1.9800e+02	0.1932	-1.094326	0.000250	2.497900	0.423156	-0.000025
1992	1.9810e+02	0.1815	-1.118766	0.000246	2.456950	0.416219	-0.000025
1993	1.9820e+02	0.1743	-1.143207	0.000246	2.456950	0.416219	-0.000025
1994	1.9830e+02	0.1673	-1.165203	0.000221	2.211255	0.374597	-0.000022
1995	1.9840e+02	0.1547	-1.188829	0.000238	2.375052	0.402345	-0.000024
1996	1.9850e+02	0.1440	-1.214899	0.000262	2.620747	0.443967	-0.000026
1997	1.9860e+02	0.1336	-1.235674	0.000209	2.088408	0.353786	-0.000021
1998	1.9870e+02	0.1257	-1.262151	0.000266	2.661696	0.450904	-0.000027
1999	1.9880e+02	0.1158	-1.289850	0.000278	2.784544	0.471714	-0.000028
2000	1.9890e+02	0.1050	-1.313883	0.000242	2.416001	0.409282	-0.000024
2001	1.9900e+02	0.0945	-1.339953	0.000262	2.620747	0.443967	-0.000026
2002	1.9910e+02	0.0868	-1.364801	0.000250	2.497900	0.423156	-0.000025
2003	1.9920e+02	0.0767	-1.391686	0.000270	2.702645	0.457841	-0.000027
2004	1.9930e+02	0.0636	-1.417348	0.000258	2.579798	0.437030	-0.000026
2005	1.9940e+02	0.0558	-1.444640	0.000274	2.743595	0.464778	-0.000027
2006	1.9950e+02	0.0436	-1.468674	0.000242	2.416001	0.409282	-0.000024
2007	1.9960e+02	0.0342	-1.491077	0.000225	2.252205	0.381534	-0.000023
2008	1.9970e+02	0.0243	-1.521221	0.000303	3.030239	0.513336	-0.000030
2009	1.9980e+02	0.0143	-1.544439	0.000233	2.334103	0.395408	-0.000023
2010	1.9990e+02	0.0091	-1.572139	0.000278	2.784544	0.471714	-0.000028
2011	2.0000e+02	-0.0056	-1.596172	0.000278	2.784544	0.471714	-0.000024

PMax (uC/cm2):	2.98e+01
Pr (uC/cm2):	1.47e+01
-Pr (uC/cm2):	0.00e+00
PLoss (uC/cm2):	0.00e+00
C (Max-Eff) (nF):	2.98e-01
K (Eff):	5.05e+02
Vert. (+/-Pr) Shift (uC/cm2):	7.34e+00
Offset (uC/cm2):	1.63e+01

A (Loop Area - uC/cm2·Volts):	-9.09e-02



Hysteresis Version: 5.48.1 - Radiant Technologies, Inc., 1999 - 9/12/24

