»»»»»»»»»»»»»»»»»»»»»»»»»»»»»»»»»»»» Hysteresis ««««««««««««««««««««««««««««««««««««
»»»  Executed Version:	5.48.1
»»»  Vision Version:	5.48.4 (R)
»»»  Vision Compiled:	9/18/24
»»»  Driver Version:	5.47.0
»»»  Windows Version:	Windows 8 or 8.1
»»»  Processor Information:	x86 (AMD or Intel) - 32 Processors
»»»  Tester Name:	PMF21124-494 (100V)
»»»  Tester S/N:	PMF21124-494
»»»  Internal Amp Type:	100V RevK 270k
»»»  Internal Amp S/N:	iAB2-596/K     
»»»  Execution Count:	1
»»»»»»»»»»»»»»»»»»»»»»»»»»»»»»»»»»»»»»»»»»««««««««««««««««««««««««««««««««««««««««««

Stored:	6/26/2025 - 14:2:13
Configured:	06/26/25 10:24:47 AM
Executed:	06/26/25 02:01:31 PM

»»»»»»»»»»»»»»»»»»»»»»»»»»»»»»»»»»» Sample Info ««««««««««««««««««««««««««««««««««««
Sample Name:	
Lot Name:	
Wafer Name:	
Die Row/Column:	0/0
Capacitor Number:	0
Sample Area (cm2):	1.00e-04
Sample Thickness (microns):	1.50e-01

Amplifier:	Internal

»»»»»»»»»»»»»»»»»»»»»»»»»»»»»»»»»»» Tester Info «««««««««««««««««««««««««««««««««««
Tester Name:	PMF21124-494 (100V)
Tester Serial Number:	PMF21124-494
Return Signal Amp. Level:	1.9 [Index: 2]

»»»»»»»»»»»»»»»»»»»»»»»»»»»»»»»» Hysteresis Info ««««««««««««««««««««««««««««««««««
Task Name:	Hyst-562
Volts:	10.00
Field:	666.67 (kV/cm)
DCBias:	0.00
DCField:	0.00 (kV/cm)
Hysteresis Period (ms):	2.00e+02
Preset:	Enabled
Preset Delay (ms):	1.00e+03
Profile:	Standard Monopolar

»»»»»»»»»»»»»»»»»»»»»»»»»»»»»»»»»»»»»» Data «««««««««««««««««««««««««««««««««««««««
Points:	2011

Valid Data

Point	Time (ms)	Drive Voltage	Measured Polarization (uC/cm2)	Capacitance (uF)	Normalized Capacitance (uF/cm2)	Dielectric Constant	Instantaneous Current (mA)
   1	0.0000e+00	-0.0044	-10.540192	0.000246	2.456463	0.416136	0.000025
   2	9.9500e-02	0.0050	-10.515752	0.000246	2.456463	0.416136	0.000025
   3	1.9900e-01	0.0168	-10.491311	0.000246	2.456463	0.416136	0.000025
   4	2.9850e-01	0.0247	-10.458724	0.000328	3.275284	0.554848	0.000033
   5	3.9800e-01	0.0339	-10.433061	0.000258	2.579286	0.436943	0.000026
   6	4.9750e-01	0.0452	-10.408213	0.000250	2.497404	0.423072	0.000025
   7	5.9700e-01	0.0538	-10.378885	0.000295	2.947756	0.499363	0.000029
   8	6.9650e-01	0.0636	-10.353629	0.000254	2.538345	0.430007	0.000025
   9	7.9600e-01	0.0750	-10.325115	0.000287	2.865873	0.485492	0.000029
  10	8.9550e-01	0.0846	-10.300675	0.000246	2.456463	0.416136	0.000025
  11	9.9500e-01	0.0948	-10.272975	0.000278	2.783991	0.471621	0.000028
  12	1.0945e+00	0.1045	-10.246091	0.000270	2.702109	0.457750	0.000027
  13	1.1940e+00	0.1129	-10.221650	0.000246	2.456463	0.416136	0.000025
  14	1.2935e+00	0.1249	-10.197617	0.000242	2.415522	0.409200	0.000024
  15	1.3930e+00	0.1347	-10.169510	0.000282	2.824932	0.478557	0.000028
  16	1.4925e+00	0.1466	-10.143441	0.000262	2.620227	0.443879	0.000026
  17	1.5920e+00	0.1538	-10.120222	0.000233	2.333640	0.395329	0.000023
  18	1.6915e+00	0.1627	-10.094559	0.000258	2.579286	0.436943	0.000026
  19	1.7910e+00	0.1740	-10.068897	0.000258	2.579286	0.436943	0.000026
  20	1.8905e+00	0.1848	-10.043234	0.000258	2.579286	0.436943	0.000026
  21	1.9900e+00	0.1919	-10.015535	0.000278	2.783991	0.471621	0.000028
  22	2.0895e+00	0.2052	-9.991094	0.000246	2.456463	0.416136	0.000025
  23	2.1890e+00	0.2142	-9.961358	0.000299	2.988697	0.506299	0.000030
  24	2.2885e+00	0.2251	-9.940584	0.000209	2.087994	0.353716	0.000021
  25	2.3880e+00	0.2354	-9.910033	0.000307	3.070579	0.520170	0.000031
  26	2.4875e+00	0.2435	-9.881112	0.000291	2.906815	0.492428	0.000029
  27	2.5870e+00	0.2546	-9.859523	0.000217	2.169876	0.367587	0.000022
  28	2.6865e+00	0.2654	-9.829379	0.000303	3.029638	0.513235	0.000030
  29	2.7860e+00	0.2718	-9.809420	0.000201	2.006111	0.339844	0.000020
  30	2.8855e+00	0.2831	-9.783350	0.000262	2.620227	0.443879	0.000026
  31	2.9850e+00	0.2925	-9.755650	0.000278	2.783991	0.471621	0.000028
  32	3.0845e+00	0.3049	-9.727544	0.000282	2.824932	0.478557	0.000028
  33	3.1840e+00	0.3144	-9.703918	0.000237	2.374581	0.402265	0.000024
  34	3.2835e+00	0.3250	-9.676626	0.000274	2.743050	0.464685	0.000027
  35	3.3830e+00	0.3391	-9.655037	0.000217	2.169876	0.367587	0.000022
  36	3.4825e+00	0.3442	-9.626116	0.000291	2.906815	0.492428	0.000029
  37	3.5820e+00	0.3536	-9.598416	0.000278	2.783991	0.471621	0.000028
  38	3.6815e+00	0.3638	-9.571124	0.000274	2.743050	0.464685	0.000027
  39	3.7810e+00	0.3739	-9.543018	0.000282	2.824932	0.478557	0.000028
  40	3.8805e+00	0.3825	-9.519799	0.000233	2.333640	0.395329	0.000023
  41	3.9800e+00	0.3959	-9.492507	0.000274	2.743050	0.464685	0.000027
  42	4.0795e+00	0.4039	-9.465215	0.000274	2.743050	0.464685	0.000027
  43	4.1790e+00	0.4141	-9.443626	0.000217	2.169876	0.367587	0.000022
  44	4.2785e+00	0.4217	-9.415519	0.000282	2.824932	0.478557	0.000028
  45	4.3780e+00	0.4365	-9.393523	0.000221	2.210817	0.374522	0.000022
  46	4.4775e+00	0.4448	-9.367046	0.000266	2.661168	0.450814	0.000027
  47	4.5770e+00	0.4521	-9.347901	0.000192	1.924229	0.325973	0.000019
  48	4.6765e+00	0.4623	-9.321423	0.000266	2.661168	0.450814	0.000027
  49	4.7760e+00	0.4715	-9.296575	0.000250	2.497404	0.423072	0.000025
  50	4.8755e+00	0.4842	-9.274986	0.000217	2.169876	0.367587	0.000022
  51	4.9750e+00	0.4934	-9.252582	0.000225	2.251758	0.381458	0.000023
  52	5.0745e+00	0.5025	-9.226105	0.000266	2.661168	0.450814	0.000027
  53	5.1740e+00	0.5141	-9.200850	0.000254	2.538345	0.430007	0.000025
  54	5.2735e+00	0.5222	-9.180075	0.000209	2.087994	0.353716	0.000021
  55	5.3730e+00	0.5306	-9.156042	0.000242	2.415522	0.409200	0.000024
  56	5.4725e+00	0.5437	-9.129972	0.000262	2.620227	0.443879	0.000026
  57	5.5720e+00	0.5530	-9.099829	0.000303	3.029638	0.513235	0.000030
  58	5.6715e+00	0.5637	-9.080684	0.000192	1.924229	0.325973	0.000019
  59	5.7710e+00	0.5727	-9.056243	0.000246	2.456463	0.416136	0.000025
  60	5.8705e+00	0.5842	-9.035469	0.000209	2.087994	0.353716	0.000021
  61	5.9700e+00	0.5934	-9.012658	0.000229	2.292699	0.388394	0.000023
  62	6.0695e+00	0.6019	-8.986180	0.000266	2.661168	0.450814	0.000027
  63	6.1690e+00	0.6136	-8.963777	0.000225	2.251758	0.381458	0.000023
  64	6.2685e+00	0.6234	-8.941373	0.000225	2.251758	0.381458	0.000023
  65	6.3680e+00	0.6302	-8.922635	0.000188	1.883288	0.319038	0.000019
  66	6.4675e+00	0.6416	-8.898194	0.000246	2.456463	0.416136	0.000025
  67	6.5670e+00	0.6498	-8.877013	0.000213	2.128935	0.360651	0.000021
  68	6.6665e+00	0.6615	-8.848091	0.000291	2.906815	0.492428	0.000029
  69	6.7660e+00	0.6704	-8.827317	0.000209	2.087994	0.353716	0.000021
  70	6.8655e+00	0.6835	-8.800432	0.000270	2.702109	0.457750	0.000027
  71	6.9650e+00	0.6936	-8.781694	0.000188	1.883288	0.319038	0.000019
  72	7.0645e+00	0.7011	-8.754402	0.000274	2.743050	0.464685	0.000027
  73	7.1640e+00	0.7099	-8.734443	0.000201	2.006111	0.339844	0.000020
  74	7.2635e+00	0.7214	-8.710409	0.000242	2.415522	0.409200	0.000024
  75	7.3630e+00	0.7327	-8.684340	0.000262	2.620227	0.443879	0.000026
  76	7.4625e+00	0.7417	-8.662750	0.000217	2.169876	0.367587	0.000022
  77	7.5620e+00	0.7490	-8.639939	0.000229	2.292699	0.388394	0.000023
  78	7.6615e+00	0.7616	-8.618757	0.000213	2.128935	0.360651	0.000021
  79	7.7610e+00	0.7677	-8.603278	0.000156	1.555760	0.263553	0.000016
  80	7.8605e+00	0.7816	-8.578838	0.000246	2.456463	0.416136	0.000025
  81	7.9600e+00	0.7944	-8.558471	0.000205	2.047052	0.346780	0.000020
  82	8.0595e+00	0.8003	-8.534030	0.000246	2.456463	0.416136	0.000025
  83	8.1590e+00	0.8129	-8.513663	0.000205	2.047052	0.346780	0.000020
  84	8.2585e+00	0.8219	-8.495333	0.000184	1.842347	0.312102	0.000018
  85	8.3580e+00	0.8295	-8.470892	0.000246	2.456463	0.416136	0.000025
  86	8.4575e+00	0.8408	-8.449303	0.000217	2.169876	0.367587	0.000022
  87	8.5570e+00	0.8552	-8.427306	0.000221	2.210817	0.374522	0.000022
  88	8.6565e+00	0.8609	-8.405717	0.000217	2.169876	0.367587	0.000022
  89	8.7560e+00	0.8707	-8.384943	0.000209	2.087994	0.353716	0.000021
  90	8.8555e+00	0.8791	-8.360095	0.000250	2.497404	0.423072	0.000025
  91	8.9550e+00	0.8913	-8.338506	0.000217	2.169876	0.367587	0.000022
  92	9.0545e+00	0.9003	-8.320175	0.000184	1.842347	0.312102	0.000018
  93	9.1540e+00	0.9119	-8.298993	0.000213	2.128935	0.360651	0.000021
  94	9.2535e+00	0.9200	-8.279848	0.000192	1.924229	0.325973	0.000019
  95	9.3530e+00	0.9286	-8.255815	0.000242	2.415522	0.409200	0.000024
  96	9.4525e+00	0.9426	-8.237077	0.000188	1.883288	0.319038	0.000019
  97	9.5520e+00	0.9519	-8.211822	0.000254	2.538345	0.430007	0.000025
  98	9.6515e+00	0.9601	-8.191048	0.000209	2.087994	0.353716	0.000021
  99	9.7510e+00	0.9685	-8.164978	0.000262	2.620227	0.443879	0.000026
 100	9.8505e+00	0.9834	-8.141759	0.000233	2.333640	0.395329	0.000023
 101	9.9500e+00	0.9902	-8.119763	0.000221	2.210817	0.374522	0.000022
 102	1.0050e+01	1.0004	-8.099803	0.000201	2.006111	0.339844	0.000020
 103	1.0149e+01	1.0098	-8.072511	0.000274	2.743050	0.464685	0.000027
 104	1.0248e+01	1.0209	-8.052551	0.000201	2.006111	0.339844	0.000020
 105	1.0348e+01	1.0292	-8.026481	0.000262	2.620227	0.443879	0.000026
 106	1.0447e+01	1.0418	-8.007336	0.000192	1.924229	0.325973	0.000019
 107	1.0547e+01	1.0511	-7.984118	0.000233	2.333640	0.395329	0.000023
 108	1.0646e+01	1.0596	-7.961306	0.000229	2.292699	0.388394	0.000023
 109	1.0746e+01	1.0686	-7.942976	0.000184	1.842347	0.312102	0.000018
 110	1.0845e+01	1.0803	-7.915684	0.000274	2.743050	0.464685	0.000027
 111	1.0945e+01	1.0917	-7.894910	0.000209	2.087994	0.353716	0.000021
 112	1.1044e+01	1.0981	-7.875765	0.000192	1.924229	0.325973	0.000019
 113	1.1144e+01	1.1106	-7.853768	0.000221	2.210817	0.374522	0.000022
 114	1.1243e+01	1.1219	-7.830550	0.000233	2.333640	0.395329	0.000023
 115	1.1343e+01	1.1299	-7.811812	0.000188	1.883288	0.319038	0.000019
 116	1.1443e+01	1.1398	-7.787371	0.000246	2.456463	0.416136	0.000025
 117	1.1542e+01	1.1486	-7.764560	0.000229	2.292699	0.388394	0.000023
 118	1.1642e+01	1.1620	-7.742564	0.000221	2.210817	0.374522	0.000022
 119	1.1741e+01	1.1694	-7.720567	0.000221	2.210817	0.374522	0.000022
 120	1.1841e+01	1.1812	-7.701422	0.000192	1.924229	0.325973	0.000019
 121	1.1940e+01	1.1903	-7.677796	0.000237	2.374581	0.402265	0.000024
 122	1.2040e+01	1.1987	-7.655800	0.000221	2.210817	0.374522	0.000022
 123	1.2139e+01	1.2113	-7.632988	0.000229	2.292699	0.388394	0.000023
 124	1.2239e+01	1.2201	-7.609363	0.000237	2.374581	0.402265	0.000024
 125	1.2338e+01	1.2300	-7.590217	0.000192	1.924229	0.325973	0.000019
 126	1.2438e+01	1.2399	-7.572294	0.000180	1.801406	0.305166	0.000018
 127	1.2537e+01	1.2502	-7.541744	0.000307	3.070579	0.520170	0.000031
 128	1.2636e+01	1.2596	-7.520155	0.000217	2.169876	0.367587	0.000022
 129	1.2736e+01	1.2699	-7.496936	0.000233	2.333640	0.395329	0.000023
 130	1.2835e+01	1.2785	-7.472495	0.000246	2.456463	0.416136	0.000025
 131	1.2935e+01	1.2881	-7.450499	0.000221	2.210817	0.374522	0.000022
 132	1.3034e+01	1.2982	-7.428910	0.000217	2.169876	0.367587	0.000022
 133	1.3134e+01	1.3070	-7.403655	0.000254	2.538345	0.430007	0.000025
 134	1.3233e+01	1.3184	-7.377177	0.000266	2.661168	0.450814	0.000027
 135	1.3333e+01	1.3296	-7.355181	0.000221	2.210817	0.374522	0.000022
 136	1.3432e+01	1.3381	-7.326259	0.000291	2.906815	0.492428	0.000029
 137	1.3532e+01	1.3483	-7.305078	0.000213	2.128935	0.360651	0.000021
 138	1.3632e+01	1.3586	-7.281859	0.000233	2.333640	0.395329	0.000023
 139	1.3731e+01	1.3711	-7.253752	0.000282	2.824932	0.478557	0.000028
 140	1.3831e+01	1.3773	-7.230941	0.000229	2.292699	0.388394	0.000023
 141	1.3930e+01	1.3879	-7.208130	0.000229	2.292699	0.388394	0.000023
 142	1.4030e+01	1.3984	-7.184097	0.000242	2.415522	0.409200	0.000024
 143	1.4129e+01	1.4100	-7.160064	0.000242	2.415522	0.409200	0.000024
 144	1.4229e+01	1.4181	-7.137660	0.000225	2.251758	0.381458	0.000023
 145	1.4328e+01	1.4300	-7.109961	0.000278	2.783991	0.471621	0.000028
 146	1.4428e+01	1.4389	-7.086742	0.000233	2.333640	0.395329	0.000023
 147	1.4527e+01	1.4497	-7.065560	0.000213	2.128935	0.360651	0.000021
 148	1.4627e+01	1.4597	-7.037046	0.000287	2.865873	0.485492	0.000029
 149	1.4726e+01	1.4679	-7.013013	0.000242	2.415522	0.409200	0.000024
 150	1.4825e+01	1.4808	-6.989387	0.000237	2.374581	0.402265	0.000024
 151	1.4925e+01	1.4882	-6.964539	0.000250	2.497404	0.423072	0.000025
 152	1.5024e+01	1.4986	-6.940099	0.000246	2.456463	0.416136	0.000025
 153	1.5124e+01	1.5066	-6.918917	0.000213	2.128935	0.360651	0.000021
 154	1.5223e+01	1.5189	-6.892032	0.000270	2.702109	0.457750	0.000027
 155	1.5323e+01	1.5293	-6.867184	0.000250	2.497404	0.423072	0.000025
 156	1.5422e+01	1.5411	-6.844781	0.000225	2.251758	0.381458	0.000023
 157	1.5522e+01	1.5479	-6.822377	0.000225	2.251758	0.381458	0.000023
 158	1.5621e+01	1.5607	-6.797936	0.000246	2.456463	0.416136	0.000025
 159	1.5721e+01	1.5696	-6.768200	0.000299	2.988697	0.506299	0.000030
 160	1.5820e+01	1.5777	-6.744574	0.000237	2.374581	0.402265	0.000024
 161	1.5920e+01	1.5894	-6.716468	0.000282	2.824932	0.478557	0.000028
 162	1.6020e+01	1.5987	-6.689583	0.000270	2.702109	0.457750	0.000027
 163	1.6119e+01	1.6077	-6.665142	0.000246	2.456463	0.416136	0.000025
 164	1.6218e+01	1.6146	-6.639480	0.000258	2.579286	0.436943	0.000026
 165	1.6318e+01	1.6273	-6.610966	0.000287	2.865873	0.485492	0.000029
 166	1.6418e+01	1.6369	-6.586525	0.000246	2.456463	0.416136	0.000025
 167	1.6517e+01	1.6483	-6.558011	0.000287	2.865873	0.485492	0.000029
 168	1.6616e+01	1.6611	-6.537237	0.000209	2.087994	0.353716	0.000021
 169	1.6716e+01	1.6657	-6.509130	0.000282	2.824932	0.478557	0.000028
 170	1.6816e+01	1.6753	-6.484690	0.000246	2.456463	0.416136	0.000025
 171	1.6915e+01	1.6855	-6.457398	0.000274	2.743050	0.464685	0.000027
 172	1.7015e+01	1.6941	-6.433772	0.000237	2.374581	0.402265	0.000024
 173	1.7114e+01	1.7067	-6.401999	0.000319	3.193402	0.540977	0.000032
 174	1.7213e+01	1.7181	-6.381632	0.000205	2.047052	0.346780	0.000020
 175	1.7313e+01	1.7273	-6.350674	0.000311	3.111520	0.527106	0.000031
 176	1.7413e+01	1.7361	-6.325419	0.000254	2.538345	0.430007	0.000025
 177	1.7512e+01	1.7463	-6.302200	0.000233	2.333640	0.395329	0.000023
 178	1.7611e+01	1.7551	-6.274501	0.000278	2.783991	0.471621	0.000028
 179	1.7711e+01	1.7658	-6.250875	0.000237	2.374581	0.402265	0.000024
 180	1.7811e+01	1.7759	-6.223583	0.000274	2.743050	0.464685	0.000027
 181	1.7910e+01	1.7864	-6.199550	0.000242	2.415522	0.409200	0.000024
 182	1.8009e+01	1.7990	-6.177146	0.000225	2.251758	0.381458	0.000023
 183	1.8109e+01	1.8043	-6.152706	0.000246	2.456463	0.416136	0.000025
 184	1.8209e+01	1.8175	-6.128265	0.000246	2.456463	0.416136	0.000025
 185	1.8308e+01	1.8256	-6.100973	0.000274	2.743050	0.464685	0.000027
 186	1.8407e+01	1.8372	-6.078569	0.000225	2.251758	0.381458	0.000023
 187	1.8507e+01	1.8446	-6.054129	0.000246	2.456463	0.416136	0.000025
 188	1.8607e+01	1.8558	-6.030503	0.000237	2.374581	0.402265	0.000024
 189	1.8706e+01	1.8673	-6.004026	0.000266	2.661168	0.450814	0.000027
 190	1.8805e+01	1.8756	-5.977548	0.000266	2.661168	0.450814	0.000027
 191	1.8905e+01	1.8884	-5.958403	0.000192	1.924229	0.325973	0.000019
 192	1.9005e+01	1.8960	-5.928667	0.000299	2.988697	0.506299	0.000030
 193	1.9104e+01	1.9084	-5.905041	0.000237	2.374581	0.402265	0.000024
 194	1.9203e+01	1.9143	-5.879786	0.000254	2.538345	0.430007	0.000025
 195	1.9303e+01	1.9262	-5.852494	0.000274	2.743050	0.464685	0.000027
 196	1.9402e+01	1.9355	-5.826017	0.000266	2.661168	0.450814	0.000027
 197	1.9502e+01	1.9443	-5.802798	0.000233	2.333640	0.395329	0.000023
 198	1.9602e+01	1.9562	-5.780802	0.000221	2.210817	0.374522	0.000022
 199	1.9701e+01	1.9634	-5.751473	0.000295	2.947756	0.499363	0.000029
 200	1.9800e+01	1.9780	-5.729884	0.000217	2.169876	0.367587	0.000022
 201	1.9900e+01	1.9851	-5.704221	0.000258	2.579286	0.436943	0.000026
 202	2.0000e+01	1.9962	-5.679374	0.000250	2.497404	0.423072	0.000025
 203	2.0099e+01	2.0043	-5.653711	0.000258	2.579286	0.436943	0.000026
 204	2.0198e+01	2.0156	-5.628048	0.000258	2.579286	0.436943	0.000026
 205	2.0298e+01	2.0271	-5.604422	0.000237	2.374581	0.402265	0.000024
 206	2.0398e+01	2.0350	-5.579575	0.000250	2.497404	0.423072	0.000025
 207	2.0497e+01	2.0477	-5.552690	0.000270	2.702109	0.457750	0.000027
 208	2.0596e+01	2.0545	-5.530286	0.000225	2.251758	0.381458	0.000023
 209	2.0696e+01	2.0641	-5.505438	0.000250	2.497404	0.423072	0.000025
 210	2.0796e+01	2.0733	-5.481812	0.000237	2.374581	0.402265	0.000024
 211	2.0895e+01	2.0846	-5.459001	0.000229	2.292699	0.388394	0.000023
 212	2.0994e+01	2.0945	-5.437412	0.000217	2.169876	0.367587	0.000022
 213	2.1094e+01	2.1049	-5.412157	0.000254	2.538345	0.430007	0.000025
 214	2.1194e+01	2.1165	-5.389753	0.000225	2.251758	0.381458	0.000023
 215	2.1293e+01	2.1259	-5.364498	0.000254	2.538345	0.430007	0.000025
 216	2.1392e+01	2.1349	-5.341687	0.000229	2.292699	0.388394	0.000023
 217	2.1492e+01	2.1449	-5.322949	0.000188	1.883288	0.319038	0.000019
 218	2.1591e+01	2.1554	-5.298101	0.000250	2.497404	0.423072	0.000025
 219	2.1691e+01	2.1655	-5.277734	0.000205	2.047052	0.346780	0.000020
 220	2.1791e+01	2.1777	-5.250442	0.000274	2.743050	0.464685	0.000027
 221	2.1890e+01	2.1847	-5.230889	0.000197	1.965170	0.332909	0.000020
 222	2.1989e+01	2.1960	-5.211744	0.000192	1.924229	0.325973	0.000019
 223	2.2089e+01	2.2048	-5.186082	0.000258	2.579286	0.436943	0.000026
 224	2.2189e+01	2.2148	-5.164085	0.000221	2.210817	0.374522	0.000022
 225	2.2288e+01	2.2237	-5.142496	0.000217	2.169876	0.367587	0.000022
 226	2.2387e+01	2.2363	-5.116833	0.000258	2.579286	0.436943	0.000026
 227	2.2487e+01	2.2430	-5.096466	0.000205	2.047052	0.346780	0.000020
 228	2.2587e+01	2.2565	-5.071211	0.000254	2.538345	0.430007	0.000025
 229	2.2686e+01	2.2619	-5.050844	0.000205	2.047052	0.346780	0.000020
 230	2.2785e+01	2.2731	-5.028847	0.000221	2.210817	0.374522	0.000022
 231	2.2885e+01	2.2852	-5.007666	0.000213	2.128935	0.360651	0.000021
 232	2.2985e+01	2.2918	-4.986891	0.000209	2.087994	0.353716	0.000021
 233	2.3084e+01	2.3037	-4.965302	0.000217	2.169876	0.367587	0.000022
 234	2.3183e+01	2.3141	-4.939639	0.000258	2.579286	0.436943	0.000026
 235	2.3283e+01	2.3246	-4.917236	0.000225	2.251758	0.381458	0.000023
 236	2.3383e+01	2.3338	-4.894424	0.000229	2.292699	0.388394	0.000023
 237	2.3482e+01	2.3446	-4.872428	0.000221	2.210817	0.374522	0.000022
 238	2.3581e+01	2.3523	-4.855727	0.000168	1.678583	0.284360	0.000017
 239	2.3681e+01	2.3650	-4.829657	0.000262	2.620227	0.443879	0.000026
 240	2.3780e+01	2.3735	-4.808882	0.000209	2.087994	0.353716	0.000021
 241	2.3880e+01	2.3809	-4.784442	0.000246	2.456463	0.416136	0.000025
 242	2.3980e+01	2.3920	-4.761631	0.000229	2.292699	0.388394	0.000023
 243	2.4079e+01	2.4038	-4.742893	0.000188	1.883288	0.319038	0.000019
 244	2.4178e+01	2.4117	-4.719674	0.000233	2.333640	0.395329	0.000023
 245	2.4278e+01	2.4227	-4.702973	0.000168	1.678583	0.284360	0.000017
 246	2.4378e+01	2.4342	-4.679755	0.000233	2.333640	0.395329	0.000023
 247	2.4477e+01	2.4438	-4.664276	0.000156	1.555760	0.263553	0.000016
 248	2.4576e+01	2.4522	-4.641057	0.000233	2.333640	0.395329	0.000023
 249	2.4676e+01	2.4633	-4.622320	0.000188	1.883288	0.319038	0.000019
 250	2.4776e+01	2.4741	-4.605619	0.000168	1.678583	0.284360	0.000017
 251	2.4875e+01	2.4828	-4.584844	0.000209	2.087994	0.353716	0.000021
 252	2.4974e+01	2.4937	-4.564070	0.000209	2.087994	0.353716	0.000021
 253	2.5074e+01	2.5047	-4.541258	0.000229	2.292699	0.388394	0.000023
 254	2.5174e+01	2.5135	-4.517633	0.000237	2.374581	0.402265	0.000024
 255	2.5273e+01	2.5253	-4.500932	0.000168	1.678583	0.284360	0.000017
 256	2.5372e+01	2.5312	-4.480564	0.000205	2.047052	0.346780	0.000020
 257	2.5472e+01	2.5428	-4.461827	0.000188	1.883288	0.319038	0.000019
 258	2.5572e+01	2.5528	-4.441052	0.000209	2.087994	0.353716	0.000021
 259	2.5671e+01	2.5600	-4.418648	0.000225	2.251758	0.381458	0.000023
 260	2.5770e+01	2.5734	-4.404391	0.000143	1.432937	0.242746	0.000014
 261	2.5870e+01	2.5814	-4.382802	0.000217	2.169876	0.367587	0.000022
 262	2.5970e+01	2.5919	-4.363657	0.000192	1.924229	0.325973	0.000019
 263	2.6069e+01	2.6030	-4.342475	0.000213	2.128935	0.360651	0.000021
 264	2.6169e+01	2.6098	-4.321293	0.000213	2.128935	0.360651	0.000021
 265	2.6268e+01	2.6221	-4.299297	0.000221	2.210817	0.374522	0.000022
 266	2.6367e+01	2.6308	-4.276893	0.000225	2.251758	0.381458	0.000023
 267	2.6467e+01	2.6424	-4.251231	0.000258	2.579286	0.436943	0.000026
 268	2.6567e+01	2.6531	-4.232900	0.000184	1.842347	0.312102	0.000018
 269	2.6666e+01	2.6611	-4.210904	0.000221	2.210817	0.374522	0.000022
 270	2.6765e+01	2.6740	-4.188907	0.000221	2.210817	0.374522	0.000022
 271	2.6865e+01	2.6802	-4.168133	0.000209	2.087994	0.353716	0.000021
 272	2.6965e+01	2.6903	-4.148988	0.000192	1.924229	0.325973	0.000019
 273	2.7064e+01	2.7029	-4.124954	0.000242	2.415522	0.409200	0.000024
 274	2.7163e+01	2.7117	-4.101736	0.000233	2.333640	0.395329	0.000023
 275	2.7263e+01	2.7202	-4.080554	0.000213	2.128935	0.360651	0.000021
 276	2.7363e+01	2.7322	-4.061409	0.000192	1.924229	0.325973	0.000019
 277	2.7462e+01	2.7425	-4.040634	0.000209	2.087994	0.353716	0.000021
 278	2.7561e+01	2.7530	-4.021489	0.000192	1.924229	0.325973	0.000019
 279	2.7661e+01	2.7632	-4.001937	0.000197	1.965170	0.332909	0.000020
 280	2.7761e+01	2.7718	-3.981162	0.000209	2.087994	0.353716	0.000021
 281	2.7860e+01	2.7811	-3.959573	0.000217	2.169876	0.367587	0.000022
 282	2.7959e+01	2.7926	-3.937169	0.000225	2.251758	0.381458	0.000023
 283	2.8059e+01	2.8033	-3.915988	0.000213	2.128935	0.360651	0.000021
 284	2.8159e+01	2.8124	-3.898065	0.000180	1.801406	0.305166	0.000018
 285	2.8258e+01	2.8189	-3.876475	0.000217	2.169876	0.367587	0.000022
 286	2.8358e+01	2.8326	-3.854886	0.000217	2.169876	0.367587	0.000022
 287	2.8457e+01	2.8429	-3.839407	0.000156	1.555760	0.263553	0.000016
 288	2.8556e+01	2.8516	-3.815374	0.000242	2.415522	0.409200	0.000024
 289	2.8656e+01	2.8603	-3.793378	0.000221	2.210817	0.374522	0.000022
 290	2.8756e+01	2.8696	-3.774232	0.000192	1.924229	0.325973	0.000019
 291	2.8855e+01	2.8812	-3.754680	0.000197	1.965170	0.332909	0.000020
 292	2.8954e+01	2.8914	-3.731869	0.000229	2.292699	0.388394	0.000023
 293	2.9054e+01	2.8994	-3.713538	0.000184	1.842347	0.312102	0.000018
 294	2.9154e+01	2.9108	-3.691542	0.000221	2.210817	0.374522	0.000022
 295	2.9253e+01	2.9205	-3.665472	0.000262	2.620227	0.443879	0.000026
 296	2.9352e+01	2.9277	-3.645512	0.000201	2.006111	0.339844	0.000020
 297	2.9452e+01	2.9411	-3.627182	0.000184	1.842347	0.312102	0.000018
 298	2.9552e+01	2.9517	-3.600297	0.000270	2.702109	0.457750	0.000027
 299	2.9651e+01	2.9606	-3.577486	0.000229	2.292699	0.388394	0.000023
 300	2.9750e+01	2.9728	-3.556304	0.000213	2.128935	0.360651	0.000021
 301	2.9850e+01	2.9860	-3.531049	0.000254	2.538345	0.430007	0.000025
 302	2.9950e+01	2.9916	-3.507830	0.000233	2.333640	0.395329	0.000023
 303	3.0049e+01	2.9986	-3.488278	0.000197	1.965170	0.332909	0.000020
 304	3.0148e+01	3.0116	-3.463430	0.000250	2.497404	0.423072	0.000025
 305	3.0248e+01	3.0187	-3.441841	0.000217	2.169876	0.367587	0.000022
 306	3.0348e+01	3.0297	-3.416993	0.000250	2.497404	0.423072	0.000025
 307	3.0447e+01	3.0410	-3.396219	0.000209	2.087994	0.353716	0.000021
 308	3.0547e+01	3.0511	-3.372185	0.000242	2.415522	0.409200	0.000024
 309	3.0646e+01	3.0604	-3.348559	0.000237	2.374581	0.402265	0.000024
 310	3.0745e+01	3.0701	-3.328192	0.000205	2.047052	0.346780	0.000020
 311	3.0845e+01	3.0801	-3.302122	0.000262	2.620227	0.443879	0.000026
 312	3.0945e+01	3.0896	-3.282163	0.000201	2.006111	0.339844	0.000020
 313	3.1044e+01	3.1022	-3.260573	0.000217	2.169876	0.367587	0.000022
 314	3.1143e+01	3.1104	-3.234504	0.000262	2.620227	0.443879	0.000026
 315	3.1243e+01	3.1202	-3.209656	0.000250	2.497404	0.423072	0.000025
 316	3.1343e+01	3.1290	-3.190511	0.000192	1.924229	0.325973	0.000019
 317	3.1442e+01	3.1393	-3.167292	0.000233	2.333640	0.395329	0.000023
 318	3.1541e+01	3.1499	-3.142851	0.000246	2.456463	0.416136	0.000025
 319	3.1641e+01	3.1603	-3.119226	0.000237	2.374581	0.402265	0.000024
 320	3.1741e+01	3.1676	-3.098451	0.000209	2.087994	0.353716	0.000021
 321	3.1840e+01	3.1818	-3.072381	0.000262	2.620227	0.443879	0.000026
 322	3.1939e+01	3.1880	-3.051607	0.000209	2.087994	0.353716	0.000021
 323	3.2039e+01	3.1989	-3.030018	0.000217	2.169876	0.367587	0.000022
 324	3.2139e+01	3.2111	-3.004762	0.000254	2.538345	0.430007	0.000025
 325	3.2238e+01	3.2160	-2.985210	0.000197	1.965170	0.332909	0.000020
 326	3.2337e+01	3.2327	-2.959955	0.000254	2.538345	0.430007	0.000025
 327	3.2437e+01	3.2394	-2.936736	0.000233	2.333640	0.395329	0.000023
 328	3.2536e+01	3.2482	-2.909444	0.000274	2.743050	0.464685	0.000027
 329	3.2636e+01	3.2586	-2.885004	0.000246	2.456463	0.416136	0.000025
 330	3.2736e+01	3.2696	-2.861378	0.000237	2.374581	0.402265	0.000024
 331	3.2835e+01	3.2815	-2.833678	0.000278	2.783991	0.471621	0.000028
 332	3.2934e+01	3.2887	-2.814941	0.000188	1.883288	0.319038	0.000019
 333	3.3034e+01	3.2985	-2.788056	0.000270	2.702109	0.457750	0.000027
 334	3.3133e+01	3.3098	-2.757098	0.000311	3.111520	0.527106	0.000031
 335	3.3233e+01	3.3195	-2.737546	0.000197	1.965170	0.332909	0.000020
 336	3.3333e+01	3.3323	-2.711883	0.000258	2.579286	0.436943	0.000026
 337	3.3432e+01	3.3404	-2.689887	0.000221	2.210817	0.374522	0.000022
 338	3.3532e+01	3.3489	-2.660558	0.000295	2.947756	0.499363	0.000029
 339	3.3631e+01	3.3571	-2.637747	0.000229	2.292699	0.388394	0.000023
 340	3.3730e+01	3.3681	-2.614121	0.000237	2.374581	0.402265	0.000024
 341	3.3830e+01	3.3790	-2.589680	0.000246	2.456463	0.416136	0.000025
 342	3.3929e+01	3.3854	-2.565647	0.000242	2.415522	0.409200	0.000024
 343	3.4029e+01	3.3992	-2.539577	0.000262	2.620227	0.443879	0.000026
 344	3.4129e+01	3.4100	-2.515951	0.000237	2.374581	0.402265	0.000024
 345	3.4228e+01	3.4190	-2.491918	0.000242	2.415522	0.409200	0.000024
 346	3.4328e+01	3.4315	-2.465441	0.000266	2.661168	0.450814	0.000027
 347	3.4427e+01	3.4429	-2.441000	0.000246	2.456463	0.416136	0.000025
 348	3.4526e+01	3.4470	-2.416152	0.000250	2.497404	0.423072	0.000025
 349	3.4626e+01	3.4575	-2.394971	0.000213	2.128935	0.360651	0.000021
 350	3.4725e+01	3.4676	-2.371752	0.000233	2.333640	0.395329	0.000023
 351	3.4825e+01	3.4814	-2.347719	0.000242	2.415522	0.409200	0.000024
 352	3.4925e+01	3.4892	-2.323686	0.000242	2.415522	0.409200	0.000024
 353	3.5024e+01	3.4994	-2.302504	0.000213	2.128935	0.360651	0.000021
 354	3.5123e+01	3.5090	-2.281322	0.000213	2.128935	0.360651	0.000021
 355	3.5223e+01	3.5204	-2.251993	0.000295	2.947756	0.499363	0.000029
 356	3.5322e+01	3.5291	-2.236107	0.000160	1.596701	0.270488	0.000016
 357	3.5422e+01	3.5399	-2.209630	0.000266	2.661168	0.450814	0.000027
 358	3.5522e+01	3.5482	-2.186004	0.000237	2.374581	0.402265	0.000024
 359	3.5621e+01	3.5571	-2.162378	0.000237	2.374581	0.402265	0.000024
 360	3.5721e+01	3.5680	-2.137123	0.000254	2.538345	0.430007	0.000025
 361	3.5820e+01	3.5791	-2.111460	0.000258	2.579286	0.436943	0.000026
 362	3.5919e+01	3.5880	-2.094759	0.000168	1.678583	0.284360	0.000017
 363	3.6019e+01	3.5986	-2.068689	0.000262	2.620227	0.443879	0.000026
 364	3.6118e+01	3.6083	-2.039360	0.000295	2.947756	0.499363	0.000029
 365	3.6218e+01	3.6172	-2.019401	0.000201	2.006111	0.339844	0.000020
 366	3.6318e+01	3.6278	-1.992923	0.000266	2.661168	0.450814	0.000027
 367	3.6417e+01	3.6368	-1.971334	0.000217	2.169876	0.367587	0.000022
 368	3.6517e+01	3.6497	-1.948930	0.000225	2.251758	0.381458	0.000023
 369	3.6616e+01	3.6587	-1.924083	0.000250	2.497404	0.423072	0.000025
 370	3.6715e+01	3.6694	-1.902901	0.000213	2.128935	0.360651	0.000021
 371	3.6815e+01	3.6781	-1.877645	0.000254	2.538345	0.430007	0.000025
 372	3.6914e+01	3.6883	-1.849946	0.000278	2.783991	0.471621	0.000028
 373	3.7014e+01	3.6972	-1.828357	0.000217	2.169876	0.367587	0.000022
 374	3.7114e+01	3.7081	-1.804731	0.000237	2.374581	0.402265	0.000024
 375	3.7213e+01	3.7178	-1.783549	0.000213	2.128935	0.360651	0.000021
 376	3.7313e+01	3.7283	-1.758701	0.000250	2.497404	0.423072	0.000025
 377	3.7412e+01	3.7351	-1.733039	0.000258	2.579286	0.436943	0.000026
 378	3.7511e+01	3.7472	-1.713486	0.000197	1.965170	0.332909	0.000020
 379	3.7611e+01	3.7569	-1.690675	0.000229	2.292699	0.388394	0.000023
 380	3.7711e+01	3.7678	-1.670715	0.000201	2.006111	0.339844	0.000020
 381	3.7810e+01	3.7752	-1.651570	0.000192	1.924229	0.325973	0.000019
 382	3.7910e+01	3.7876	-1.625093	0.000266	2.661168	0.450814	0.000027
 383	3.8009e+01	3.7961	-1.611243	0.000139	1.391996	0.235810	0.000014
 384	3.8108e+01	3.8068	-1.584766	0.000266	2.661168	0.450814	0.000027
 385	3.8208e+01	3.8158	-1.562770	0.000221	2.210817	0.374522	0.000022
 386	3.8307e+01	3.8247	-1.542403	0.000205	2.047052	0.346780	0.000020
 387	3.8407e+01	3.8355	-1.521628	0.000209	2.087994	0.353716	0.000021
 388	3.8507e+01	3.8457	-1.499632	0.000221	2.210817	0.374522	0.000022
 389	3.8606e+01	3.8574	-1.478450	0.000213	2.128935	0.360651	0.000021
 390	3.8706e+01	3.8678	-1.458897	0.000197	1.965170	0.332909	0.000020
 391	3.8805e+01	3.8759	-1.434049	0.000250	2.497404	0.423072	0.000025
 392	3.8904e+01	3.8870	-1.415719	0.000184	1.842347	0.312102	0.000018
 393	3.9004e+01	3.8955	-1.393723	0.000221	2.210817	0.374522	0.000022
 394	3.9103e+01	3.9039	-1.371726	0.000221	2.210817	0.374522	0.000022
 395	3.9203e+01	3.9170	-1.353803	0.000180	1.801406	0.305166	0.000018
 396	3.9303e+01	3.9281	-1.329362	0.000246	2.456463	0.416136	0.000025
 397	3.9402e+01	3.9352	-1.311439	0.000180	1.801406	0.305166	0.000018
 398	3.9502e+01	3.9452	-1.290665	0.000209	2.087994	0.353716	0.000021
 399	3.9601e+01	3.9557	-1.271112	0.000197	1.965170	0.332909	0.000020
 400	3.9700e+01	3.9646	-1.248709	0.000225	2.251758	0.381458	0.000023
 401	3.9800e+01	3.9767	-1.228341	0.000205	2.047052	0.346780	0.000020
 402	3.9900e+01	3.9858	-1.206345	0.000221	2.210817	0.374522	0.000022
 403	3.9999e+01	3.9963	-1.186793	0.000197	1.965170	0.332909	0.000020
 404	4.0099e+01	4.0039	-1.169277	0.000176	1.760465	0.298231	0.000018
 405	4.0198e+01	4.0154	-1.142800	0.000266	2.661168	0.450814	0.000027
 406	4.0297e+01	4.0239	-1.122840	0.000201	2.006111	0.339844	0.000020
 407	4.0397e+01	4.0357	-1.102880	0.000201	2.006111	0.339844	0.000020
 408	4.0496e+01	4.0475	-1.082513	0.000205	2.047052	0.346780	0.000020
 409	4.0596e+01	4.0562	-1.059702	0.000229	2.292699	0.388394	0.000023
 410	4.0696e+01	4.0661	-1.040149	0.000197	1.965170	0.332909	0.000020
 411	4.0795e+01	4.0733	-1.021411	0.000188	1.883288	0.319038	0.000019
 412	4.0895e+01	4.0855	-1.003488	0.000180	1.801406	0.305166	0.000018
 413	4.0994e+01	4.0958	-0.983936	0.000197	1.965170	0.332909	0.000020
 414	4.1093e+01	4.1069	-0.966420	0.000176	1.760465	0.298231	0.000018
 415	4.1193e+01	4.1164	-0.950127	0.000164	1.637642	0.277424	0.000016
 416	4.1292e+01	4.1247	-0.930574	0.000197	1.965170	0.332909	0.000020
 417	4.1392e+01	4.1335	-0.912244	0.000184	1.842347	0.312102	0.000018
 418	4.1492e+01	4.1479	-0.892284	0.000201	2.006111	0.339844	0.000020
 419	4.1591e+01	4.1540	-0.873546	0.000188	1.883288	0.319038	0.000019
 420	4.1691e+01	4.1644	-0.855216	0.000184	1.842347	0.312102	0.000018
 421	4.1790e+01	4.1738	-0.830775	0.000246	2.456463	0.416136	0.000025
 422	4.1889e+01	4.1846	-0.813667	0.000172	1.719524	0.291295	0.000017
 423	4.1989e+01	4.1972	-0.794522	0.000192	1.924229	0.325973	0.000019
 424	4.2089e+01	4.2011	-0.779043	0.000156	1.555760	0.263553	0.000016
 425	4.2188e+01	4.2127	-0.759490	0.000197	1.965170	0.332909	0.000020
 426	4.2288e+01	4.2249	-0.742382	0.000172	1.719524	0.291295	0.000017
 427	4.2387e+01	4.2349	-0.722829	0.000197	1.965170	0.332909	0.000020
 428	4.2486e+01	4.2443	-0.702870	0.000201	2.006111	0.339844	0.000020
 429	4.2586e+01	4.2545	-0.684132	0.000188	1.883288	0.319038	0.000019
 430	4.2685e+01	4.2678	-0.668653	0.000156	1.555760	0.263553	0.000016
 431	4.2785e+01	4.2751	-0.646656	0.000221	2.210817	0.374522	0.000022
 432	4.2885e+01	4.2841	-0.627919	0.000188	1.883288	0.319038	0.000019
 433	4.2984e+01	4.2928	-0.605107	0.000229	2.292699	0.388394	0.000023
 434	4.3084e+01	4.3041	-0.585555	0.000197	1.965170	0.332909	0.000020
 435	4.3183e+01	4.3131	-0.566410	0.000192	1.924229	0.325973	0.000019
 436	4.3282e+01	4.3265	-0.542377	0.000242	2.415522	0.409200	0.000024
 437	4.3382e+01	4.3365	-0.522417	0.000201	2.006111	0.339844	0.000020
 438	4.3481e+01	4.3450	-0.503272	0.000192	1.924229	0.325973	0.000019
 439	4.3581e+01	4.3534	-0.484127	0.000192	1.924229	0.325973	0.000019
 440	4.3681e+01	4.3646	-0.461315	0.000229	2.292699	0.388394	0.000023
 441	4.3780e+01	4.3748	-0.441356	0.000201	2.006111	0.339844	0.000020
 442	4.3880e+01	4.3833	-0.423840	0.000176	1.760465	0.298231	0.000018
 443	4.3979e+01	4.3941	-0.404287	0.000197	1.965170	0.332909	0.000020
 444	4.4078e+01	4.4025	-0.384735	0.000197	1.965170	0.332909	0.000020
 445	4.4178e+01	4.4135	-0.365590	0.000192	1.924229	0.325973	0.000019
 446	4.4278e+01	4.4232	-0.350111	0.000156	1.555760	0.263553	0.000016
 447	4.4377e+01	4.4320	-0.330151	0.000201	2.006111	0.339844	0.000020
 448	4.4477e+01	4.4462	-0.308969	0.000213	2.128935	0.360651	0.000021
 449	4.4576e+01	4.4550	-0.290232	0.000188	1.883288	0.319038	0.000019
 450	4.4675e+01	4.4625	-0.273123	0.000172	1.719524	0.291295	0.000017
 451	4.4775e+01	4.4741	-0.253163	0.000201	2.006111	0.339844	0.000020
 452	4.4874e+01	4.4835	-0.231167	0.000221	2.210817	0.374522	0.000022
 453	4.4974e+01	4.4967	-0.213244	0.000180	1.801406	0.305166	0.000018
 454	4.5074e+01	4.5029	-0.195728	0.000176	1.760465	0.298231	0.000018
 455	4.5173e+01	4.5116	-0.173732	0.000221	2.210817	0.374522	0.000022
 456	4.5273e+01	4.5236	-0.155809	0.000180	1.801406	0.305166	0.000018
 457	4.5372e+01	4.5305	-0.137885	0.000180	1.801406	0.305166	0.000018
 458	4.5471e+01	4.5429	-0.120777	0.000172	1.719524	0.291295	0.000017
 459	4.5571e+01	4.5535	-0.096744	0.000242	2.415522	0.409200	0.000024
 460	4.5670e+01	4.5609	-0.078413	0.000184	1.842347	0.312102	0.000018
 461	4.5770e+01	4.5745	-0.056824	0.000217	2.169876	0.367587	0.000022
 462	4.5870e+01	4.5830	-0.038087	0.000188	1.883288	0.319038	0.000019
 463	4.5969e+01	4.5939	-0.014053	0.000242	2.415522	0.409200	0.000024
 464	4.6069e+01	4.6023	0.001833	0.000160	1.596701	0.270488	0.000016
 465	4.6168e+01	4.6117	0.025866	0.000242	2.415522	0.409200	0.000024
 466	4.6267e+01	4.6236	0.044604	0.000188	1.883288	0.319038	0.000019
 467	4.6367e+01	4.6325	0.068230	0.000237	2.374581	0.402265	0.000024
 468	4.6467e+01	4.6438	0.088190	0.000201	2.006111	0.339844	0.000020
 469	4.6566e+01	4.6542	0.113445	0.000254	2.538345	0.430007	0.000025
 470	4.6666e+01	4.6607	0.132997	0.000197	1.965170	0.332909	0.000020
 471	4.6765e+01	4.6731	0.159067	0.000262	2.620227	0.443879	0.000026
 472	4.6864e+01	4.6826	0.180249	0.000213	2.128935	0.360651	0.000021
 473	4.6964e+01	4.6898	0.198172	0.000180	1.801406	0.305166	0.000018
 474	4.7063e+01	4.7012	0.219354	0.000213	2.128935	0.360651	0.000021
 475	4.7163e+01	4.7124	0.240943	0.000217	2.169876	0.367587	0.000022
 476	4.7263e+01	4.7225	0.261718	0.000209	2.087994	0.353716	0.000021
 477	4.7362e+01	4.7318	0.281677	0.000201	2.006111	0.339844	0.000020
 478	4.7462e+01	4.7434	0.303267	0.000217	2.169876	0.367587	0.000022
 479	4.7561e+01	4.7515	0.328522	0.000254	2.538345	0.430007	0.000025
 480	4.7660e+01	4.7636	0.345630	0.000172	1.719524	0.291295	0.000017
 481	4.7760e+01	4.7733	0.368034	0.000225	2.251758	0.381458	0.000023
 482	4.7859e+01	4.7817	0.389216	0.000213	2.128935	0.360651	0.000021
 483	4.7959e+01	4.7912	0.413656	0.000246	2.456463	0.416136	0.000025
 484	4.8059e+01	4.8016	0.435653	0.000221	2.210817	0.374522	0.000022
 485	4.8158e+01	4.8118	0.458871	0.000233	2.333640	0.395329	0.000023
 486	4.8258e+01	4.8232	0.480868	0.000221	2.210817	0.374522	0.000022
 487	4.8357e+01	4.8350	0.498791	0.000180	1.801406	0.305166	0.000018
 488	4.8456e+01	4.8399	0.521195	0.000225	2.251758	0.381458	0.000023
 489	4.8556e+01	4.8499	0.541969	0.000209	2.087994	0.353716	0.000021
 490	4.8656e+01	4.8623	0.562336	0.000205	2.047052	0.346780	0.000020
 491	4.8755e+01	4.8708	0.590443	0.000282	2.824932	0.478557	0.000028
 492	4.8855e+01	4.8811	0.607551	0.000172	1.719524	0.291295	0.000017
 493	4.8954e+01	4.8960	0.630770	0.000233	2.333640	0.395329	0.000023
 494	4.9053e+01	4.9026	0.650730	0.000201	2.006111	0.339844	0.000020
 495	4.9153e+01	4.9107	0.670282	0.000197	1.965170	0.332909	0.000020
 496	4.9252e+01	4.9230	0.697981	0.000278	2.783991	0.471621	0.000028
 497	4.9352e+01	4.9316	0.721200	0.000233	2.333640	0.395329	0.000023
 498	4.9452e+01	4.9433	0.746863	0.000258	2.579286	0.436943	0.000026
 499	4.9551e+01	4.9509	0.769674	0.000229	2.292699	0.388394	0.000023
 500	4.9651e+01	4.9622	0.794114	0.000246	2.456463	0.416136	0.000025
 501	4.9750e+01	4.9712	0.814889	0.000209	2.087994	0.353716	0.000021
 502	4.9849e+01	4.9818	0.839737	0.000250	2.497404	0.423072	0.000025
 503	4.9949e+01	4.9899	0.863363	0.000237	2.374581	0.402265	0.000024
 504	5.0048e+01	5.0021	0.886174	0.000229	2.292699	0.388394	0.000023
 505	5.0148e+01	5.0111	0.906948	0.000209	2.087994	0.353716	0.000021
 506	5.0248e+01	5.0243	0.934240	0.000274	2.743050	0.464685	0.000027
 507	5.0347e+01	5.0314	0.958273	0.000242	2.415522	0.409200	0.000024
 508	5.0447e+01	5.0372	0.978233	0.000201	2.006111	0.339844	0.000020
 509	5.0546e+01	5.0499	1.000637	0.000225	2.251758	0.381458	0.000023
 510	5.0645e+01	5.0605	1.023448	0.000229	2.292699	0.388394	0.000023
 511	5.0745e+01	5.0732	1.048703	0.000254	2.538345	0.430007	0.000025
 512	5.0844e+01	5.0789	1.071107	0.000225	2.251758	0.381458	0.000023
 513	5.0944e+01	5.0900	1.095548	0.000246	2.456463	0.416136	0.000025
 514	5.1044e+01	5.0997	1.116730	0.000213	2.128935	0.360651	0.000021
 515	5.1143e+01	5.1086	1.141985	0.000254	2.538345	0.430007	0.000025
 516	5.1242e+01	5.1196	1.164796	0.000229	2.292699	0.388394	0.000023
 517	5.1342e+01	5.1290	1.187607	0.000229	2.292699	0.388394	0.000023
 518	5.1441e+01	5.1398	1.203901	0.000164	1.637642	0.277424	0.000016
 519	5.1541e+01	5.1501	1.227119	0.000233	2.333640	0.395329	0.000023
 520	5.1641e+01	5.1592	1.245043	0.000180	1.801406	0.305166	0.000018
 521	5.1740e+01	5.1709	1.269890	0.000250	2.497404	0.423072	0.000025
 522	5.1840e+01	5.1800	1.292702	0.000229	2.292699	0.388394	0.000023
 523	5.1939e+01	5.1906	1.317549	0.000250	2.497404	0.423072	0.000025
 524	5.2038e+01	5.2000	1.340768	0.000233	2.333640	0.395329	0.000023
 525	5.2138e+01	5.2102	1.360320	0.000197	1.965170	0.332909	0.000020
 526	5.2237e+01	5.2221	1.381502	0.000213	2.128935	0.360651	0.000021
 527	5.2337e+01	5.2324	1.402684	0.000213	2.128935	0.360651	0.000021
 528	5.2437e+01	5.2410	1.421422	0.000188	1.883288	0.319038	0.000019
 529	5.2536e+01	5.2499	1.447084	0.000258	2.579286	0.436943	0.000026
 530	5.2636e+01	5.2599	1.470303	0.000233	2.333640	0.395329	0.000023
 531	5.2735e+01	5.2673	1.496780	0.000266	2.661168	0.450814	0.000027
 532	5.2834e+01	5.2801	1.515925	0.000192	1.924229	0.325973	0.000019
 533	5.2934e+01	5.2903	1.538329	0.000225	2.251758	0.381458	0.000023
 534	5.3033e+01	5.2979	1.559918	0.000217	2.169876	0.367587	0.000022
 535	5.3133e+01	5.3089	1.579063	0.000192	1.924229	0.325973	0.000019
 536	5.3233e+01	5.3155	1.603097	0.000242	2.415522	0.409200	0.000024
 537	5.3332e+01	5.3268	1.627537	0.000246	2.456463	0.416136	0.000025
 538	5.3431e+01	5.3394	1.649534	0.000221	2.210817	0.374522	0.000022
 539	5.3531e+01	5.3472	1.674382	0.000250	2.497404	0.423072	0.000025
 540	5.3630e+01	5.3606	1.694749	0.000205	2.047052	0.346780	0.000020
 541	5.3730e+01	5.3701	1.717153	0.000225	2.251758	0.381458	0.000023
 542	5.3830e+01	5.3773	1.739149	0.000221	2.210817	0.374522	0.000022
 543	5.3929e+01	5.3894	1.757887	0.000188	1.883288	0.319038	0.000019
 544	5.4029e+01	5.3988	1.781920	0.000242	2.415522	0.409200	0.000024
 545	5.4128e+01	5.4067	1.807583	0.000258	2.579286	0.436943	0.000026
 546	5.4227e+01	5.4198	1.826728	0.000192	1.924229	0.325973	0.000019
 547	5.4327e+01	5.4285	1.847502	0.000209	2.087994	0.353716	0.000021
 548	5.4426e+01	5.4371	1.868277	0.000209	2.087994	0.353716	0.000021
 549	5.4526e+01	5.4461	1.886200	0.000180	1.801406	0.305166	0.000018
 550	5.4626e+01	5.4557	1.907789	0.000217	2.169876	0.367587	0.000022
 551	5.4725e+01	5.4700	1.926119	0.000184	1.842347	0.312102	0.000018
 552	5.4825e+01	5.4770	1.947301	0.000213	2.128935	0.360651	0.000021
 553	5.4924e+01	5.4877	1.966039	0.000188	1.883288	0.319038	0.000019
 554	5.5023e+01	5.4987	1.986406	0.000205	2.047052	0.346780	0.000020
 555	5.5123e+01	5.5083	2.005144	0.000188	1.883288	0.319038	0.000019
 556	5.5222e+01	5.5202	2.027548	0.000225	2.251758	0.381458	0.000023
 557	5.5322e+01	5.5283	2.044656	0.000172	1.719524	0.291295	0.000017
 558	5.5422e+01	5.5377	2.067467	0.000229	2.292699	0.388394	0.000023
 559	5.5521e+01	5.5494	2.086205	0.000188	1.883288	0.319038	0.000019
 560	5.5620e+01	5.5570	2.106572	0.000205	2.047052	0.346780	0.000020
 561	5.5720e+01	5.5683	2.128976	0.000225	2.251758	0.381458	0.000023
 562	5.5819e+01	5.5773	2.145270	0.000164	1.637642	0.277424	0.000016
 563	5.5919e+01	5.5871	2.166451	0.000213	2.128935	0.360651	0.000021
 564	5.6019e+01	5.5959	2.186004	0.000197	1.965170	0.332909	0.000020
 565	5.6118e+01	5.6091	2.203927	0.000180	1.801406	0.305166	0.000018
 566	5.6218e+01	5.6149	2.223479	0.000197	1.965170	0.332909	0.000020
 567	5.6317e+01	5.6280	2.242624	0.000192	1.924229	0.325973	0.000019
 568	5.6416e+01	5.6380	2.261362	0.000188	1.883288	0.319038	0.000019
 569	5.6516e+01	5.6513	2.278878	0.000176	1.760465	0.298231	0.000018
 570	5.6615e+01	5.6582	2.300467	0.000217	2.169876	0.367587	0.000022
 571	5.6715e+01	5.6707	2.317168	0.000168	1.678583	0.284360	0.000017
 572	5.6815e+01	5.6759	2.340387	0.000233	2.333640	0.395329	0.000023
 573	5.6914e+01	5.6872	2.359124	0.000188	1.883288	0.319038	0.000019
 574	5.7014e+01	5.6994	2.376233	0.000172	1.719524	0.291295	0.000017
 575	5.7113e+01	5.7067	2.398637	0.000225	2.251758	0.381458	0.000023
 576	5.7212e+01	5.7178	2.419818	0.000213	2.128935	0.360651	0.000021
 577	5.7312e+01	5.7252	2.436112	0.000164	1.637642	0.277424	0.000016
 578	5.7411e+01	5.7379	2.459331	0.000233	2.333640	0.395329	0.000023
 579	5.7511e+01	5.7502	2.475624	0.000164	1.637642	0.277424	0.000016
 580	5.7611e+01	5.7558	2.488252	0.000127	1.269173	0.215004	0.000013
 581	5.7710e+01	5.7677	2.509026	0.000209	2.087994	0.353716	0.000021
 582	5.7809e+01	5.7764	2.524098	0.000151	1.514819	0.256617	0.000015
 583	5.7909e+01	5.7864	2.543243	0.000192	1.924229	0.325973	0.000019
 584	5.8008e+01	5.7960	2.557500	0.000143	1.432937	0.242746	0.000014
 585	5.8108e+01	5.8080	2.576645	0.000192	1.924229	0.325973	0.000019
 586	5.8208e+01	5.8150	2.596198	0.000197	1.965170	0.332909	0.000020
 587	5.8307e+01	5.8274	2.614528	0.000184	1.842347	0.312102	0.000018
 588	5.8407e+01	5.8347	2.629600	0.000151	1.514819	0.256617	0.000015
 589	5.8506e+01	5.8472	2.649152	0.000197	1.965170	0.332909	0.000020
 590	5.8605e+01	5.8556	2.667483	0.000184	1.842347	0.312102	0.000018
 591	5.8705e+01	5.8697	2.685813	0.000184	1.842347	0.312102	0.000018
 592	5.8804e+01	5.8758	2.701292	0.000156	1.555760	0.263553	0.000016
 593	5.8904e+01	5.8880	2.720030	0.000188	1.883288	0.319038	0.000019
 594	5.9004e+01	5.8970	2.734287	0.000143	1.432937	0.242746	0.000014
 595	5.9103e+01	5.9057	2.753432	0.000192	1.924229	0.325973	0.000019
 596	5.9203e+01	5.9155	2.768911	0.000156	1.555760	0.263553	0.000016
 597	5.9302e+01	5.9261	2.785205	0.000164	1.637642	0.277424	0.000016
 598	5.9401e+01	5.9348	2.802720	0.000176	1.760465	0.298231	0.000018
 599	5.9501e+01	5.9455	2.821051	0.000184	1.842347	0.312102	0.000018
 600	5.9600e+01	5.9566	2.842233	0.000213	2.128935	0.360651	0.000021
 601	5.9700e+01	5.9657	2.862192	0.000201	2.006111	0.339844	0.000020
 602	5.9800e+01	5.9750	2.878486	0.000164	1.637642	0.277424	0.000016
 603	5.9899e+01	5.9872	2.900483	0.000221	2.210817	0.374522	0.000022
 604	5.9998e+01	5.9975	2.919220	0.000188	1.883288	0.319038	0.000019
 605	6.0098e+01	6.0060	2.937551	0.000184	1.842347	0.312102	0.000018
 606	6.0197e+01	6.0177	2.959140	0.000217	2.169876	0.367587	0.000022
 607	6.0297e+01	6.0250	2.975841	0.000168	1.678583	0.284360	0.000017
 608	6.0397e+01	6.0336	2.993764	0.000180	1.801406	0.305166	0.000018
 609	6.0496e+01	6.0464	3.011687	0.000180	1.801406	0.305166	0.000018
 610	6.0596e+01	6.0571	3.030018	0.000184	1.842347	0.312102	0.000018
 611	6.0695e+01	6.0680	3.048755	0.000188	1.883288	0.319038	0.000019
 612	6.0794e+01	6.0760	3.068715	0.000201	2.006111	0.339844	0.000020
 613	6.0894e+01	6.0838	3.082565	0.000139	1.391996	0.235810	0.000014
 614	6.0993e+01	6.0989	3.101710	0.000192	1.924229	0.325973	0.000019
 615	6.1093e+01	6.1060	3.121670	0.000201	2.006111	0.339844	0.000020
 616	6.1193e+01	6.1138	3.139593	0.000180	1.801406	0.305166	0.000018
 617	6.1292e+01	6.1245	3.157516	0.000180	1.801406	0.305166	0.000018
 618	6.1392e+01	6.1364	3.174217	0.000168	1.678583	0.284360	0.000017
 619	6.1491e+01	6.1463	3.194991	0.000209	2.087994	0.353716	0.000021
 620	6.1590e+01	6.1524	3.209656	0.000147	1.473878	0.249682	0.000015
 621	6.1690e+01	6.1656	3.229615	0.000201	2.006111	0.339844	0.000020
 622	6.1789e+01	6.1739	3.245094	0.000156	1.555760	0.263553	0.000016
 623	6.1889e+01	6.1860	3.260981	0.000160	1.596701	0.270488	0.000016
 624	6.1989e+01	6.1956	3.279311	0.000184	1.842347	0.312102	0.000018
 625	6.2088e+01	6.2061	3.299678	0.000205	2.047052	0.346780	0.000020
 626	6.2188e+01	6.2139	3.317194	0.000176	1.760465	0.298231	0.000018
 627	6.2287e+01	6.2258	3.338376	0.000213	2.128935	0.360651	0.000021
 628	6.2386e+01	6.2337	3.357521	0.000192	1.924229	0.325973	0.000019
 629	6.2486e+01	6.2481	3.374629	0.000172	1.719524	0.291295	0.000017
 630	6.2586e+01	6.2560	3.392145	0.000176	1.760465	0.298231	0.000018
 631	6.2685e+01	6.2661	3.416586	0.000246	2.456463	0.416136	0.000025
 632	6.2785e+01	6.2730	3.432879	0.000164	1.637642	0.277424	0.000016
 633	6.2884e+01	6.2856	3.452839	0.000201	2.006111	0.339844	0.000020
 634	6.2983e+01	6.2963	3.472799	0.000201	2.006111	0.339844	0.000020
 635	6.3083e+01	6.3044	3.489500	0.000168	1.678583	0.284360	0.000017
 636	6.3182e+01	6.3161	3.510682	0.000213	2.128935	0.360651	0.000021
 637	6.3282e+01	6.3244	3.532271	0.000217	2.169876	0.367587	0.000022
 638	6.3382e+01	6.3325	3.550194	0.000180	1.801406	0.305166	0.000018
 639	6.3481e+01	6.3453	3.576264	0.000262	2.620227	0.443879	0.000026
 640	6.3581e+01	6.3512	3.592558	0.000164	1.637642	0.277424	0.000016
 641	6.3680e+01	6.3643	3.613739	0.000213	2.128935	0.360651	0.000021
 642	6.3779e+01	6.3742	3.635329	0.000217	2.169876	0.367587	0.000022
 643	6.3879e+01	6.3845	3.656103	0.000209	2.087994	0.353716	0.000021
 644	6.3978e+01	6.3927	3.674841	0.000188	1.883288	0.319038	0.000019
 645	6.4078e+01	6.4037	3.691542	0.000168	1.678583	0.284360	0.000017
 646	6.4177e+01	6.4133	3.714353	0.000229	2.292699	0.388394	0.000023
 647	6.4277e+01	6.4258	3.735535	0.000213	2.128935	0.360651	0.000021
 648	6.4376e+01	6.4327	3.754680	0.000192	1.924229	0.325973	0.000019
 649	6.4476e+01	6.4425	3.773418	0.000188	1.883288	0.319038	0.000019
 650	6.4576e+01	6.4531	3.795007	0.000217	2.169876	0.367587	0.000022
 651	6.4675e+01	6.4641	3.817818	0.000229	2.292699	0.388394	0.000023
 652	6.4775e+01	6.4746	3.838593	0.000209	2.087994	0.353716	0.000021
 653	6.4874e+01	6.4829	3.857330	0.000188	1.883288	0.319038	0.000019
 654	6.4974e+01	6.4935	3.881771	0.000246	2.456463	0.416136	0.000025
 655	6.5073e+01	6.5026	3.900101	0.000184	1.842347	0.312102	0.000018
 656	6.5172e+01	6.5118	3.918839	0.000188	1.883288	0.319038	0.000019
 657	6.5272e+01	6.5217	3.936355	0.000176	1.760465	0.298231	0.000018
 658	6.5371e+01	6.5311	3.957537	0.000213	2.128935	0.360651	0.000021
 659	6.5471e+01	6.5430	3.980348	0.000229	2.292699	0.388394	0.000023
 660	6.5570e+01	6.5545	3.999085	0.000188	1.883288	0.319038	0.000019
 661	6.5670e+01	6.5635	4.024748	0.000258	2.579286	0.436943	0.000026
 662	6.5769e+01	6.5725	4.045523	0.000209	2.087994	0.353716	0.000021
 663	6.5869e+01	6.5865	4.066704	0.000213	2.128935	0.360651	0.000021
 664	6.5969e+01	6.5919	4.086257	0.000197	1.965170	0.332909	0.000020
 665	6.6068e+01	6.6041	4.110290	0.000242	2.415522	0.409200	0.000024
 666	6.6168e+01	6.6137	4.133509	0.000233	2.333640	0.395329	0.000023
 667	6.6267e+01	6.6216	4.154690	0.000213	2.128935	0.360651	0.000021
 668	6.6367e+01	6.6322	4.176687	0.000221	2.210817	0.374522	0.000022
 669	6.6466e+01	6.6438	4.199498	0.000229	2.292699	0.388394	0.000023
 670	6.6566e+01	6.6506	4.223124	0.000237	2.374581	0.402265	0.000024
 671	6.6665e+01	6.6619	4.242676	0.000197	1.965170	0.332909	0.000020
 672	6.6764e+01	6.6730	4.265080	0.000225	2.251758	0.381458	0.000023
 673	6.6864e+01	6.6839	4.287077	0.000221	2.210817	0.374522	0.000022
 674	6.6963e+01	6.6933	4.309481	0.000225	2.251758	0.381458	0.000023
 675	6.7063e+01	6.7019	4.333921	0.000246	2.456463	0.416136	0.000025
 676	6.7162e+01	6.7115	4.355103	0.000213	2.128935	0.360651	0.000021
 677	6.7262e+01	6.7208	4.378321	0.000233	2.333640	0.395329	0.000023
 678	6.7362e+01	6.7306	4.399911	0.000217	2.169876	0.367587	0.000022
 679	6.7461e+01	6.7416	4.421500	0.000217	2.169876	0.367587	0.000022
 680	6.7561e+01	6.7527	4.444311	0.000229	2.292699	0.388394	0.000023
 681	6.7660e+01	6.7622	4.467529	0.000233	2.333640	0.395329	0.000023
 682	6.7760e+01	6.7729	4.486675	0.000192	1.924229	0.325973	0.000019
 683	6.7859e+01	6.7803	4.507449	0.000209	2.087994	0.353716	0.000021
 684	6.7959e+01	6.7892	4.528631	0.000213	2.128935	0.360651	0.000021
 685	6.8058e+01	6.8018	4.544925	0.000164	1.637642	0.277424	0.000016
 686	6.8157e+01	6.8141	4.568143	0.000233	2.333640	0.395329	0.000023
 687	6.8257e+01	6.8211	4.591362	0.000233	2.333640	0.395329	0.000023
 688	6.8356e+01	6.8327	4.608063	0.000168	1.678583	0.284360	0.000017
 689	6.8456e+01	6.8408	4.629652	0.000217	2.169876	0.367587	0.000022
 690	6.8555e+01	6.8508	4.652463	0.000229	2.292699	0.388394	0.000023
 691	6.8655e+01	6.8607	4.672423	0.000201	2.006111	0.339844	0.000020
 692	6.8754e+01	6.8716	4.691160	0.000188	1.883288	0.319038	0.000019
 693	6.8854e+01	6.8801	4.713564	0.000225	2.251758	0.381458	0.000023
 694	6.8954e+01	6.8893	4.736376	0.000229	2.292699	0.388394	0.000023
 695	6.9053e+01	6.9019	4.757965	0.000217	2.169876	0.367587	0.000022
 696	6.9153e+01	6.9103	4.777110	0.000192	1.924229	0.325973	0.000019
 697	6.9252e+01	6.9215	4.797477	0.000205	2.047052	0.346780	0.000020
 698	6.9352e+01	6.9307	4.821103	0.000237	2.374581	0.402265	0.000024
 699	6.9451e+01	6.9393	4.842692	0.000217	2.169876	0.367587	0.000022
 700	6.9550e+01	6.9501	4.865096	0.000225	2.251758	0.381458	0.000023
 701	6.9650e+01	6.9593	4.885463	0.000205	2.047052	0.346780	0.000020
 702	6.9749e+01	6.9674	4.905423	0.000201	2.006111	0.339844	0.000020
 703	6.9849e+01	6.9832	4.929456	0.000242	2.415522	0.409200	0.000024
 704	6.9948e+01	6.9889	4.950638	0.000213	2.128935	0.360651	0.000021
 705	7.0048e+01	7.0000	4.966524	0.000160	1.596701	0.270488	0.000016
 706	7.0147e+01	7.0080	4.988113	0.000217	2.169876	0.367587	0.000022
 707	7.0247e+01	7.0207	5.012961	0.000250	2.497404	0.423072	0.000025
 708	7.0347e+01	7.0290	5.033328	0.000205	2.047052	0.346780	0.000020
 709	7.0446e+01	7.0411	5.054917	0.000217	2.169876	0.367587	0.000022
 710	7.0546e+01	7.0490	5.072026	0.000172	1.719524	0.291295	0.000017
 711	7.0645e+01	7.0627	5.096874	0.000250	2.497404	0.423072	0.000025
 712	7.0745e+01	7.0699	5.118055	0.000213	2.128935	0.360651	0.000021
 713	7.0844e+01	7.0806	5.137608	0.000197	1.965170	0.332909	0.000020
 714	7.0944e+01	7.0886	5.156346	0.000188	1.883288	0.319038	0.000019
 715	7.1043e+01	7.0980	5.176713	0.000205	2.047052	0.346780	0.000020
 716	7.1142e+01	7.1088	5.194229	0.000176	1.760465	0.298231	0.000018
 717	7.1242e+01	7.1185	5.213781	0.000197	1.965170	0.332909	0.000020
 718	7.1341e+01	7.1294	5.232926	0.000192	1.924229	0.325973	0.000019
 719	7.1441e+01	7.1404	5.252886	0.000201	2.006111	0.339844	0.000020
 720	7.1540e+01	7.1487	5.269180	0.000164	1.637642	0.277424	0.000016
 721	7.1640e+01	7.1593	5.290361	0.000213	2.128935	0.360651	0.000021
 722	7.1740e+01	7.1708	5.309099	0.000188	1.883288	0.319038	0.000019
 723	7.1839e+01	7.1819	5.324986	0.000160	1.596701	0.270488	0.000016
 724	7.1939e+01	7.1896	5.345760	0.000209	2.087994	0.353716	0.000021
 725	7.2038e+01	7.1999	5.362461	0.000168	1.678583	0.284360	0.000017
 726	7.2138e+01	7.2105	5.383643	0.000213	2.128935	0.360651	0.000021
 727	7.2237e+01	7.2210	5.402381	0.000188	1.883288	0.319038	0.000019
 728	7.2337e+01	7.2269	5.419489	0.000172	1.719524	0.291295	0.000017
 729	7.2436e+01	7.2386	5.436597	0.000172	1.719524	0.291295	0.000017
 730	7.2535e+01	7.2461	5.454113	0.000176	1.760465	0.298231	0.000018
 731	7.2635e+01	7.2581	5.476110	0.000221	2.210817	0.374522	0.000022
 732	7.2734e+01	7.2697	5.494847	0.000188	1.883288	0.319038	0.000019
 733	7.2834e+01	7.2796	5.512363	0.000176	1.760465	0.298231	0.000018
 734	7.2933e+01	7.2898	5.528657	0.000164	1.637642	0.277424	0.000016
 735	7.3033e+01	7.2990	5.550246	0.000217	2.169876	0.367587	0.000022
 736	7.3132e+01	7.3077	5.565725	0.000156	1.555760	0.263553	0.000016
 737	7.3232e+01	7.3191	5.585685	0.000201	2.006111	0.339844	0.000020
 738	7.3332e+01	7.3267	5.606459	0.000209	2.087994	0.353716	0.000021
 739	7.3431e+01	7.3403	5.621938	0.000156	1.555760	0.263553	0.000016
 740	7.3531e+01	7.3476	5.639861	0.000180	1.801406	0.305166	0.000018
 741	7.3630e+01	7.3598	5.659414	0.000197	1.965170	0.332909	0.000020
 742	7.3730e+01	7.3682	5.681818	0.000225	2.251758	0.381458	0.000023
 743	7.3829e+01	7.3779	5.696482	0.000147	1.473878	0.249682	0.000015
 744	7.3928e+01	7.3877	5.713590	0.000172	1.719524	0.291295	0.000017
 745	7.4028e+01	7.3995	5.729069	0.000156	1.555760	0.263553	0.000016
 746	7.4127e+01	7.4069	5.746992	0.000180	1.801406	0.305166	0.000018
 747	7.4227e+01	7.4160	5.765323	0.000184	1.842347	0.312102	0.000018
 748	7.4326e+01	7.4310	5.782431	0.000172	1.719524	0.291295	0.000017
 749	7.4426e+01	7.4378	5.799947	0.000176	1.760465	0.298231	0.000018
 750	7.4525e+01	7.4500	5.812575	0.000127	1.269173	0.215004	0.000013
 751	7.4625e+01	7.4587	5.829683	0.000172	1.719524	0.291295	0.000017
 752	7.4725e+01	7.4710	5.846384	0.000168	1.678583	0.284360	0.000017
 753	7.4824e+01	7.4767	5.861863	0.000156	1.555760	0.263553	0.000016
 754	7.4924e+01	7.4886	5.879786	0.000180	1.801406	0.305166	0.000018
 755	7.5023e+01	7.5008	5.895672	0.000160	1.596701	0.270488	0.000016
 756	7.5123e+01	7.5079	5.909115	0.000135	1.351055	0.228875	0.000014
 757	7.5222e+01	7.5173	5.929075	0.000201	2.006111	0.339844	0.000020
 758	7.5322e+01	7.5269	5.946998	0.000180	1.801406	0.305166	0.000018
 759	7.5421e+01	7.5388	5.963291	0.000164	1.637642	0.277424	0.000016
 760	7.5520e+01	7.5465	5.976326	0.000131	1.310114	0.221939	0.000013
 761	7.5620e+01	7.5562	5.996286	0.000201	2.006111	0.339844	0.000020
 762	7.5719e+01	7.5674	6.009728	0.000135	1.351055	0.228875	0.000014
 763	7.5819e+01	7.5784	6.027651	0.000180	1.801406	0.305166	0.000018
 764	7.5918e+01	7.5881	6.041908	0.000143	1.432937	0.242746	0.000014
 765	7.6018e+01	7.5951	6.060646	0.000188	1.883288	0.319038	0.000019
 766	7.6118e+01	7.6061	6.078977	0.000184	1.842347	0.312102	0.000018
 767	7.6217e+01	7.6189	6.096085	0.000172	1.719524	0.291295	0.000017
 768	7.6317e+01	7.6286	6.111157	0.000151	1.514819	0.256617	0.000015
 769	7.6416e+01	7.6379	6.128672	0.000176	1.760465	0.298231	0.000018
 770	7.6516e+01	7.6469	6.145373	0.000168	1.678583	0.284360	0.000017
 771	7.6615e+01	7.6587	6.169407	0.000242	2.415522	0.409200	0.000024
 772	7.6715e+01	7.6637	6.186922	0.000176	1.760465	0.298231	0.000018
 773	7.6814e+01	7.6769	6.201994	0.000151	1.514819	0.256617	0.000015
 774	7.6913e+01	7.6881	6.220732	0.000188	1.883288	0.319038	0.000019
 775	7.7013e+01	7.6961	6.243136	0.000225	2.251758	0.381458	0.000023
 776	7.7112e+01	7.7054	6.257393	0.000143	1.432937	0.242746	0.000014
 777	7.7212e+01	7.7166	6.275316	0.000180	1.801406	0.305166	0.000018
 778	7.7311e+01	7.7262	6.291609	0.000164	1.637642	0.277424	0.000016
 779	7.7411e+01	7.7367	6.307496	0.000160	1.596701	0.270488	0.000016
 780	7.7510e+01	7.7459	6.322160	0.000147	1.473878	0.249682	0.000015
 781	7.7610e+01	7.7561	6.342527	0.000205	2.047052	0.346780	0.000020
 782	7.7710e+01	7.7680	6.360450	0.000180	1.801406	0.305166	0.000018
 783	7.7809e+01	7.7748	6.373893	0.000135	1.351055	0.228875	0.000014
 784	7.7909e+01	7.7856	6.391816	0.000180	1.801406	0.305166	0.000018
 785	7.8008e+01	7.7969	6.410553	0.000188	1.883288	0.319038	0.000019
 786	7.8108e+01	7.8066	6.425218	0.000147	1.473878	0.249682	0.000015
 787	7.8207e+01	7.8164	6.445178	0.000201	2.006111	0.339844	0.000020
 788	7.8306e+01	7.8254	6.460657	0.000156	1.555760	0.263553	0.000016
 789	7.8406e+01	7.8379	6.478987	0.000184	1.842347	0.312102	0.000018
 790	7.8505e+01	7.8448	6.492429	0.000135	1.351055	0.228875	0.000014
 791	7.8605e+01	7.8545	6.514018	0.000217	2.169876	0.367587	0.000022
 792	7.8704e+01	7.8654	6.527461	0.000135	1.351055	0.228875	0.000014
 793	7.8804e+01	7.8780	6.548235	0.000209	2.087994	0.353716	0.000021
 794	7.8903e+01	7.8841	6.563714	0.000156	1.555760	0.263553	0.000016
 795	7.9003e+01	7.8948	6.577157	0.000135	1.351055	0.228875	0.000014
 796	7.9103e+01	7.9053	6.593858	0.000168	1.678583	0.284360	0.000017
 797	7.9202e+01	7.9176	6.616669	0.000229	2.292699	0.388394	0.000023
 798	7.9302e+01	7.9273	6.632962	0.000164	1.637642	0.277424	0.000016
 799	7.9401e+01	7.9349	6.650071	0.000172	1.719524	0.291295	0.000017
 800	7.9501e+01	7.9459	6.672067	0.000221	2.210817	0.374522	0.000022
 801	7.9600e+01	7.9591	6.689176	0.000172	1.719524	0.291295	0.000017
 802	7.9700e+01	7.9649	6.709135	0.000201	2.006111	0.339844	0.000020
 803	7.9799e+01	7.9771	6.729095	0.000201	2.006111	0.339844	0.000020
 804	7.9898e+01	7.9852	6.750684	0.000217	2.169876	0.367587	0.000022
 805	7.9998e+01	7.9976	6.767385	0.000168	1.678583	0.284360	0.000017
 806	8.0097e+01	8.0053	6.788975	0.000217	2.169876	0.367587	0.000022
 807	8.0197e+01	8.0143	6.807305	0.000184	1.842347	0.312102	0.000018
 808	8.0296e+01	8.0277	6.827265	0.000201	2.006111	0.339844	0.000020
 809	8.0396e+01	8.0354	6.849669	0.000225	2.251758	0.381458	0.000023
 810	8.0496e+01	8.0470	6.865555	0.000160	1.596701	0.270488	0.000016
 811	8.0595e+01	8.0543	6.883478	0.000180	1.801406	0.305166	0.000018
 812	8.0695e+01	8.0640	6.902623	0.000192	1.924229	0.325973	0.000019
 813	8.0794e+01	8.0740	6.923805	0.000213	2.128935	0.360651	0.000021
 814	8.0894e+01	8.0830	6.944172	0.000205	2.047052	0.346780	0.000020
 815	8.0993e+01	8.0946	6.962503	0.000184	1.842347	0.312102	0.000018
 816	8.1093e+01	8.1045	6.984906	0.000225	2.251758	0.381458	0.000023
 817	8.1192e+01	8.1161	7.002422	0.000176	1.760465	0.298231	0.000018
 818	8.1291e+01	8.1245	7.021567	0.000192	1.924229	0.325973	0.000019
 819	8.1391e+01	8.1325	7.039898	0.000184	1.842347	0.312102	0.000018
 820	8.1490e+01	8.1430	7.062301	0.000225	2.251758	0.381458	0.000023
 821	8.1590e+01	8.1533	7.080225	0.000180	1.801406	0.305166	0.000018
 822	8.1689e+01	8.1665	7.096926	0.000168	1.678583	0.284360	0.000017
 823	8.1789e+01	8.1764	7.116478	0.000197	1.965170	0.332909	0.000020
 824	8.1888e+01	8.1847	7.135623	0.000192	1.924229	0.325973	0.000019
 825	8.1988e+01	8.1934	7.155583	0.000201	2.006111	0.339844	0.000020
 826	8.2088e+01	8.2033	7.175543	0.000201	2.006111	0.339844	0.000020
 827	8.2187e+01	8.2129	7.194280	0.000188	1.883288	0.319038	0.000019
 828	8.2287e+01	8.2211	7.217092	0.000229	2.292699	0.388394	0.000023
 829	8.2386e+01	8.2325	7.237051	0.000201	2.006111	0.339844	0.000020
 830	8.2486e+01	8.2448	7.255382	0.000184	1.842347	0.312102	0.000018
 831	8.2585e+01	8.2545	7.277378	0.000221	2.210817	0.374522	0.000022
 832	8.2684e+01	8.2644	7.302226	0.000250	2.497404	0.423072	0.000025
 833	8.2784e+01	8.2745	7.323408	0.000213	2.128935	0.360651	0.000021
 834	8.2883e+01	8.2840	7.343368	0.000201	2.006111	0.339844	0.000020
 835	8.2983e+01	8.2948	7.367808	0.000246	2.456463	0.416136	0.000025
 836	8.3082e+01	8.3042	7.388176	0.000205	2.047052	0.346780	0.000020
 837	8.3182e+01	8.3154	7.406099	0.000180	1.801406	0.305166	0.000018
 838	8.3281e+01	8.3213	7.425651	0.000197	1.965170	0.332909	0.000020
 839	8.3381e+01	8.3336	7.450499	0.000250	2.497404	0.423072	0.000025
 840	8.3481e+01	8.3450	7.468015	0.000176	1.760465	0.298231	0.000018
 841	8.3580e+01	8.3545	7.490826	0.000229	2.292699	0.388394	0.000023
 842	8.3680e+01	8.3643	7.514044	0.000233	2.333640	0.395329	0.000023
 843	8.3779e+01	8.3745	7.534004	0.000201	2.006111	0.339844	0.000020
 844	8.3879e+01	8.3862	7.556408	0.000225	2.251758	0.381458	0.000023
 845	8.3978e+01	8.3926	7.575146	0.000188	1.883288	0.319038	0.000019
 846	8.4078e+01	8.4013	7.602438	0.000274	2.743050	0.464685	0.000027
 847	8.4177e+01	8.4136	7.623620	0.000213	2.128935	0.360651	0.000021
 848	8.4276e+01	8.4236	7.642765	0.000192	1.924229	0.325973	0.000019
 849	8.4376e+01	8.4319	7.663946	0.000213	2.128935	0.360651	0.000021
 850	8.4475e+01	8.4434	7.686758	0.000229	2.292699	0.388394	0.000023
 851	8.4575e+01	8.4547	7.700607	0.000139	1.391996	0.235810	0.000014
 852	8.4674e+01	8.4626	7.724233	0.000237	2.374581	0.402265	0.000024
 853	8.4774e+01	8.4727	7.742971	0.000188	1.883288	0.319038	0.000019
 854	8.4874e+01	8.4822	7.763338	0.000205	2.047052	0.346780	0.000020
 855	8.4973e+01	8.4924	7.781261	0.000180	1.801406	0.305166	0.000018
 856	8.5073e+01	8.5027	7.799592	0.000184	1.842347	0.312102	0.000018
 857	8.5172e+01	8.5112	7.819551	0.000201	2.006111	0.339844	0.000020
 858	8.5272e+01	8.5216	7.839511	0.000201	2.006111	0.339844	0.000020
 859	8.5371e+01	8.5352	7.861915	0.000225	2.251758	0.381458	0.000023
 860	8.5471e+01	8.5438	7.880245	0.000184	1.842347	0.312102	0.000018
 861	8.5570e+01	8.5527	7.901427	0.000213	2.128935	0.360651	0.000021
 862	8.5669e+01	8.5629	7.919350	0.000180	1.801406	0.305166	0.000018
 863	8.5769e+01	8.5719	7.941347	0.000221	2.210817	0.374522	0.000022
 864	8.5868e+01	8.5840	7.963343	0.000221	2.210817	0.374522	0.000022
 865	8.5968e+01	8.5950	7.984118	0.000209	2.087994	0.353716	0.000021
 866	8.6067e+01	8.6011	8.003670	0.000197	1.965170	0.332909	0.000020
 867	8.6167e+01	8.6106	8.025667	0.000221	2.210817	0.374522	0.000022
 868	8.6266e+01	8.6221	8.044812	0.000192	1.924229	0.325973	0.000019
 869	8.6366e+01	8.6317	8.061920	0.000172	1.719524	0.291295	0.000017
 870	8.6466e+01	8.6413	8.087990	0.000262	2.620227	0.443879	0.000026
 871	8.6565e+01	8.6523	8.106728	0.000188	1.883288	0.319038	0.000019
 872	8.6665e+01	8.6614	8.125873	0.000192	1.924229	0.325973	0.000019
 873	8.6764e+01	8.6719	8.146647	0.000209	2.087994	0.353716	0.000021
 874	8.6864e+01	8.6823	8.169459	0.000229	2.292699	0.388394	0.000023
 875	8.6963e+01	8.6916	8.190640	0.000213	2.128935	0.360651	0.000021
 876	8.7063e+01	8.7003	8.205305	0.000147	1.473878	0.249682	0.000015
 877	8.7162e+01	8.7119	8.231782	0.000266	2.661168	0.450814	0.000027
 878	8.7261e+01	8.7203	8.247261	0.000156	1.555760	0.263553	0.000016
 879	8.7361e+01	8.7291	8.268443	0.000213	2.128935	0.360651	0.000021
 880	8.7460e+01	8.7415	8.289217	0.000209	2.087994	0.353716	0.000021
 881	8.7560e+01	8.7514	8.312028	0.000229	2.292699	0.388394	0.000023
 882	8.7659e+01	8.7611	8.325878	0.000139	1.391996	0.235810	0.000014
 883	8.7759e+01	8.7723	8.343801	0.000180	1.801406	0.305166	0.000018
 884	8.7859e+01	8.7814	8.363761	0.000201	2.006111	0.339844	0.000020
 885	8.7958e+01	8.7913	8.382906	0.000192	1.924229	0.325973	0.000019
 886	8.8058e+01	8.8014	8.401236	0.000184	1.842347	0.312102	0.000018
 887	8.8157e+01	8.8113	8.417123	0.000160	1.596701	0.270488	0.000016
 888	8.8257e+01	8.8209	8.433009	0.000160	1.596701	0.270488	0.000016
 889	8.8356e+01	8.8290	8.450118	0.000172	1.719524	0.291295	0.000017
 890	8.8456e+01	8.8396	8.470892	0.000209	2.087994	0.353716	0.000021
 891	8.8555e+01	8.8519	8.487593	0.000168	1.678583	0.284360	0.000017
 892	8.8654e+01	8.8603	8.509182	0.000217	2.169876	0.367587	0.000022
 893	8.8754e+01	8.8691	8.522625	0.000135	1.351055	0.228875	0.000014
 894	8.8853e+01	8.8788	8.541770	0.000192	1.924229	0.325973	0.000019
 895	8.8953e+01	8.8929	8.563766	0.000221	2.210817	0.374522	0.000022
 896	8.9052e+01	8.8969	8.581689	0.000180	1.801406	0.305166	0.000018
 897	8.9152e+01	8.9107	8.598390	0.000168	1.678583	0.284360	0.000017
 898	8.9251e+01	8.9209	8.614684	0.000164	1.637642	0.277424	0.000016
 899	8.9351e+01	8.9310	8.631385	0.000168	1.678583	0.284360	0.000017
 900	8.9451e+01	8.9392	8.649308	0.000180	1.801406	0.305166	0.000018
 901	8.9550e+01	8.9486	8.665602	0.000164	1.637642	0.277424	0.000016
 902	8.9650e+01	8.9603	8.684747	0.000192	1.924229	0.325973	0.000019
 903	8.9749e+01	8.9716	8.703077	0.000184	1.842347	0.312102	0.000018
 904	8.9849e+01	8.9816	8.722630	0.000197	1.965170	0.332909	0.000020
 905	8.9948e+01	8.9909	8.738109	0.000156	1.555760	0.263553	0.000016
 906	9.0047e+01	8.9993	8.754402	0.000164	1.637642	0.277424	0.000016
 907	9.0147e+01	9.0082	8.771511	0.000172	1.719524	0.291295	0.000017
 908	9.0246e+01	9.0186	8.790656	0.000192	1.924229	0.325973	0.000019
 909	9.0346e+01	9.0286	8.808172	0.000176	1.760465	0.298231	0.000018
 910	9.0445e+01	9.0411	8.826909	0.000188	1.883288	0.319038	0.000019
 911	9.0545e+01	9.0495	8.844425	0.000176	1.760465	0.298231	0.000018
 912	9.0644e+01	9.0597	8.862348	0.000180	1.801406	0.305166	0.000018
 913	9.0744e+01	9.0701	8.876605	0.000143	1.432937	0.242746	0.000014
 914	9.0844e+01	9.0802	8.894528	0.000180	1.801406	0.305166	0.000018
 915	9.0943e+01	9.0886	8.911229	0.000168	1.678583	0.284360	0.000017
 916	9.1043e+01	9.0992	8.926301	0.000151	1.514819	0.256617	0.000015
 917	9.1142e+01	9.1113	8.944631	0.000184	1.842347	0.312102	0.000018
 918	9.1242e+01	9.1164	8.956444	0.000119	1.187290	0.201132	0.000012
 919	9.1341e+01	9.1277	8.972738	0.000164	1.637642	0.277424	0.000016
 920	9.1441e+01	9.1387	8.990661	0.000180	1.801406	0.305166	0.000018
 921	9.1540e+01	9.1479	9.001252	0.000106	1.064467	0.180326	0.000011
 922	9.1639e+01	9.1596	9.020397	0.000192	1.924229	0.325973	0.000019
 923	9.1739e+01	9.1695	9.037913	0.000176	1.760465	0.298231	0.000018
 924	9.1838e+01	9.1789	9.053392	0.000156	1.555760	0.263553	0.000016
 925	9.1938e+01	9.1880	9.066019	0.000127	1.269173	0.215004	0.000013
 926	9.2037e+01	9.1969	9.083535	0.000176	1.760465	0.298231	0.000018
 927	9.2137e+01	9.2094	9.099014	0.000156	1.555760	0.263553	0.000016
 928	9.2237e+01	9.2164	9.113679	0.000147	1.473878	0.249682	0.000015
 929	9.2336e+01	9.2261	9.130787	0.000172	1.719524	0.291295	0.000017
 930	9.2436e+01	9.2397	9.143822	0.000131	1.310114	0.221939	0.000013
 931	9.2535e+01	9.2474	9.161745	0.000180	1.801406	0.305166	0.000018
 932	9.2635e+01	9.2592	9.178446	0.000168	1.678583	0.284360	0.000017
 933	9.2734e+01	9.2706	9.197184	0.000188	1.883288	0.319038	0.000019
 934	9.2834e+01	9.2779	9.214700	0.000176	1.760465	0.298231	0.000018
 935	9.2933e+01	9.2897	9.229364	0.000147	1.473878	0.249682	0.000015
 936	9.3032e+01	9.2987	9.245250	0.000160	1.596701	0.270488	0.000016
 937	9.3132e+01	9.3092	9.266025	0.000209	2.087994	0.353716	0.000021
 938	9.3231e+01	9.3182	9.281504	0.000156	1.555760	0.263553	0.000016
 939	9.3331e+01	9.3286	9.301871	0.000205	2.047052	0.346780	0.000020
 940	9.3430e+01	9.3375	9.316535	0.000147	1.473878	0.249682	0.000015
 941	9.3530e+01	9.3475	9.338124	0.000217	2.169876	0.367587	0.000022
 942	9.3629e+01	9.3577	9.354011	0.000160	1.596701	0.270488	0.000016
 943	9.3729e+01	9.3668	9.365416	0.000115	1.146349	0.194197	0.000011
 944	9.3829e+01	9.3790	9.385376	0.000201	2.006111	0.339844	0.000020
 945	9.3928e+01	9.3896	9.403706	0.000184	1.842347	0.312102	0.000018
 946	9.4028e+01	9.3982	9.420408	0.000168	1.678583	0.284360	0.000017
 947	9.4127e+01	9.4087	9.435479	0.000151	1.514819	0.256617	0.000015
 948	9.4227e+01	9.4176	9.450144	0.000147	1.473878	0.249682	0.000015
 949	9.4326e+01	9.4265	9.468474	0.000184	1.842347	0.312102	0.000018
 950	9.4425e+01	9.4385	9.485990	0.000176	1.760465	0.298231	0.000018
 951	9.4525e+01	9.4497	9.501061	0.000151	1.514819	0.256617	0.000015
 952	9.4624e+01	9.4570	9.512874	0.000119	1.187290	0.201132	0.000012
 953	9.4724e+01	9.4669	9.531612	0.000188	1.883288	0.319038	0.000019
 954	9.4823e+01	9.4775	9.555238	0.000237	2.374581	0.402265	0.000024
 955	9.4923e+01	9.4852	9.567051	0.000119	1.187290	0.201132	0.000012
 956	9.5022e+01	9.4959	9.586603	0.000197	1.965170	0.332909	0.000020
 957	9.5122e+01	9.5044	9.603304	0.000168	1.678583	0.284360	0.000017
 958	9.5222e+01	9.5142	9.619598	0.000164	1.637642	0.277424	0.000016
 959	9.5321e+01	9.5269	9.635892	0.000164	1.637642	0.277424	0.000016
 960	9.5421e+01	9.5370	9.651371	0.000156	1.555760	0.263553	0.000016
 961	9.5520e+01	9.5444	9.668072	0.000168	1.678583	0.284360	0.000017
 962	9.5620e+01	9.5568	9.684773	0.000168	1.678583	0.284360	0.000017
 963	9.5719e+01	9.5674	9.702289	0.000176	1.760465	0.298231	0.000018
 964	9.5819e+01	9.5779	9.715324	0.000131	1.310114	0.221939	0.000013
 965	9.5918e+01	9.5888	9.736505	0.000213	2.128935	0.360651	0.000021
 966	9.6017e+01	9.5982	9.758094	0.000217	2.169876	0.367587	0.000022
 967	9.6117e+01	9.6072	9.775610	0.000176	1.760465	0.298231	0.000018
 968	9.6216e+01	9.6155	9.791904	0.000164	1.637642	0.277424	0.000016
 969	9.6316e+01	9.6270	9.812271	0.000205	2.047052	0.346780	0.000020
 970	9.6415e+01	9.6354	9.832638	0.000205	2.047052	0.346780	0.000020
 971	9.6515e+01	9.6455	9.850969	0.000184	1.842347	0.312102	0.000018
 972	9.6615e+01	9.6572	9.869299	0.000184	1.842347	0.312102	0.000018
 973	9.6714e+01	9.6670	9.885593	0.000164	1.637642	0.277424	0.000016
 974	9.6814e+01	9.6744	9.907997	0.000225	2.251758	0.381458	0.000023
 975	9.6913e+01	9.6875	9.925105	0.000172	1.719524	0.291295	0.000017
 976	9.7013e+01	9.6949	9.943435	0.000184	1.842347	0.312102	0.000018
 977	9.7112e+01	9.7054	9.966247	0.000229	2.292699	0.388394	0.000023
 978	9.7212e+01	9.7144	9.982540	0.000164	1.637642	0.277424	0.000016
 979	9.7311e+01	9.7256	10.002093	0.000197	1.965170	0.332909	0.000020
 980	9.7410e+01	9.7354	10.019201	0.000172	1.719524	0.291295	0.000017
 981	9.7510e+01	9.7451	10.040383	0.000213	2.128935	0.360651	0.000021
 982	9.7609e+01	9.7552	10.056677	0.000164	1.637642	0.277424	0.000016
 983	9.7709e+01	9.7656	10.077858	0.000213	2.128935	0.360651	0.000021
 984	9.7808e+01	9.7755	10.097818	0.000201	2.006111	0.339844	0.000020
 985	9.7908e+01	9.7860	10.116556	0.000188	1.883288	0.319038	0.000019
 986	9.8007e+01	9.7945	10.134886	0.000184	1.842347	0.312102	0.000018
 987	9.8107e+01	9.8052	10.156068	0.000213	2.128935	0.360651	0.000021
 988	9.8207e+01	9.8153	10.175213	0.000192	1.924229	0.325973	0.000019
 989	9.8306e+01	9.8249	10.193951	0.000188	1.883288	0.319038	0.000019
 990	9.8406e+01	9.8342	10.212689	0.000188	1.883288	0.319038	0.000019
 991	9.8505e+01	9.8438	10.231427	0.000188	1.883288	0.319038	0.000019
 992	9.8605e+01	9.8565	10.255052	0.000237	2.374581	0.402265	0.000024
 993	9.8704e+01	9.8624	10.275012	0.000201	2.006111	0.339844	0.000020
 994	9.8803e+01	9.8791	10.292528	0.000176	1.760465	0.298231	0.000018
 995	9.8903e+01	9.8839	10.310858	0.000184	1.842347	0.312102	0.000018
 996	9.9002e+01	9.8959	10.334077	0.000233	2.333640	0.395329	0.000023
 997	9.9102e+01	9.9081	10.349963	0.000160	1.596701	0.270488	0.000016
 998	9.9201e+01	9.9114	10.371552	0.000217	2.169876	0.367587	0.000022
 999	9.9301e+01	9.9250	10.395993	0.000246	2.456463	0.416136	0.000025
1000	9.9400e+01	9.9347	10.414323	0.000184	1.842347	0.312102	0.000018
1001	9.9500e+01	9.9451	10.433468	0.000192	1.924229	0.325973	0.000019
1002	9.9600e+01	9.9535	10.455465	0.000221	2.210817	0.374522	0.000022
1003	9.9699e+01	9.9640	10.478276	0.000229	2.292699	0.388394	0.000023
1004	9.9799e+01	9.9744	10.501495	0.000233	2.333640	0.395329	0.000023
1005	9.9898e+01	9.9874	10.523084	0.000217	2.169876	0.367587	0.000022
1006	9.9998e+01	9.9951	10.540192	0.000172	1.719524	0.291295	0.000017
1007	1.0010e+02	9.9830	10.536526	0.000037	0.368469	0.062420	-0.000004
1008	1.0020e+02	9.9738	10.524713	0.000119	1.187290	0.201132	-0.000012
1009	1.0030e+02	9.9648	10.511678	0.000131	1.310114	0.221939	-0.000013
1010	1.0040e+02	9.9551	10.504346	0.000074	0.736939	0.124841	-0.000007
1011	1.0050e+02	9.9436	10.492940	0.000115	1.146349	0.194197	-0.000011
1012	1.0059e+02	9.9332	10.483164	0.000098	0.982585	0.166454	-0.000010
1013	1.0069e+02	9.9244	10.480313	0.000029	0.286587	0.048549	-0.000003
1014	1.0079e+02	9.9146	10.463612	0.000168	1.678583	0.284360	-0.000017
1015	1.0089e+02	9.9030	10.457909	0.000057	0.573175	0.097098	-0.000006
1016	1.0099e+02	9.8957	10.444467	0.000135	1.351055	0.228875	-0.000014
1017	1.0109e+02	9.8837	10.435912	0.000086	0.859762	0.145648	-0.000009
1018	1.0119e+02	9.8755	10.423285	0.000127	1.269173	0.215004	-0.000013
1019	1.0129e+02	9.8638	10.408621	0.000147	1.473878	0.249682	-0.000015
1020	1.0139e+02	9.8535	10.398844	0.000098	0.982585	0.166454	-0.000010
1021	1.0149e+02	9.8449	10.388661	0.000102	1.023526	0.173390	-0.000010
1022	1.0159e+02	9.8347	10.372367	0.000164	1.637642	0.277424	-0.000016
1023	1.0169e+02	9.8264	10.364220	0.000082	0.818821	0.138712	-0.000008
1024	1.0179e+02	9.8147	10.351185	0.000131	1.310114	0.221939	-0.000013
1025	1.0189e+02	9.8048	10.343038	0.000082	0.818821	0.138712	-0.000008
1026	1.0199e+02	9.7950	10.325523	0.000176	1.760465	0.298231	-0.000018
1027	1.0209e+02	9.7842	10.316561	0.000090	0.900703	0.152583	-0.000009
1028	1.0219e+02	9.7784	10.301082	0.000156	1.555760	0.263553	-0.000016
1029	1.0229e+02	9.7670	10.293750	0.000074	0.736939	0.124841	-0.000007
1030	1.0239e+02	9.7543	10.277456	0.000164	1.637642	0.277424	-0.000016
1031	1.0248e+02	9.7468	10.271753	0.000057	0.573175	0.097098	-0.000006
1032	1.0258e+02	9.7353	10.259941	0.000119	1.187290	0.201132	-0.000012
1033	1.0268e+02	9.7256	10.249350	0.000106	1.064467	0.180326	-0.000011
1034	1.0278e+02	9.7150	10.239573	0.000098	0.982585	0.166454	-0.000010
1035	1.0288e+02	9.7073	10.222872	0.000168	1.678583	0.284360	-0.000017
1036	1.0298e+02	9.6973	10.210245	0.000127	1.269173	0.215004	-0.000013
1037	1.0308e+02	9.6889	10.199654	0.000106	1.064467	0.180326	-0.000011
1038	1.0318e+02	9.6765	10.187434	0.000123	1.228231	0.208068	-0.000012
1039	1.0328e+02	9.6658	10.177250	0.000102	1.023526	0.173390	-0.000010
1040	1.0338e+02	9.6571	10.166252	0.000111	1.105408	0.187261	-0.000011
1041	1.0348e+02	9.6436	10.151180	0.000151	1.514819	0.256617	-0.000015
1042	1.0358e+02	9.6355	10.137330	0.000139	1.391996	0.235810	-0.000014
1043	1.0368e+02	9.6249	10.130406	0.000070	0.695998	0.117905	-0.000007
1044	1.0378e+02	9.6156	10.115334	0.000151	1.514819	0.256617	-0.000015
1045	1.0388e+02	9.6057	10.103928	0.000115	1.146349	0.194197	-0.000011
1046	1.0398e+02	9.5985	10.094967	0.000090	0.900703	0.152583	-0.000009
1047	1.0408e+02	9.5869	10.080302	0.000147	1.473878	0.249682	-0.000015
1048	1.0418e+02	9.5767	10.067267	0.000131	1.310114	0.221939	-0.000013
1049	1.0428e+02	9.5654	10.050159	0.000172	1.719524	0.291295	-0.000017
1050	1.0438e+02	9.5571	10.037124	0.000131	1.310114	0.221939	-0.000013
1051	1.0447e+02	9.5459	10.022052	0.000151	1.514819	0.256617	-0.000015
1052	1.0457e+02	9.5386	10.008610	0.000135	1.351055	0.228875	-0.000014
1053	1.0467e+02	9.5275	9.993131	0.000156	1.555760	0.263553	-0.000016
1054	1.0477e+02	9.5156	9.982948	0.000102	1.023526	0.173390	-0.000010
1055	1.0487e+02	9.5061	9.962173	0.000209	2.087994	0.353716	-0.000021
1056	1.0497e+02	9.5008	9.950360	0.000119	1.187290	0.201132	-0.000012
1057	1.0507e+02	9.4876	9.936103	0.000143	1.432937	0.242746	-0.000014
1058	1.0517e+02	9.4781	9.919809	0.000164	1.637642	0.277424	-0.000016
1059	1.0527e+02	9.4671	9.903923	0.000160	1.596701	0.270488	-0.000016
1060	1.0537e+02	9.4551	9.889259	0.000147	1.473878	0.249682	-0.000015
1061	1.0547e+02	9.4474	9.877039	0.000123	1.228231	0.208068	-0.000012
1062	1.0557e+02	9.4385	9.865633	0.000115	1.146349	0.194197	-0.000011
1063	1.0567e+02	9.4267	9.846488	0.000192	1.924229	0.325973	-0.000019
1064	1.0577e+02	9.4166	9.834675	0.000119	1.187290	0.201132	-0.000012
1065	1.0587e+02	9.4059	9.817159	0.000176	1.760465	0.298231	-0.000018
1066	1.0597e+02	9.3994	9.802087	0.000151	1.514819	0.256617	-0.000015
1067	1.0607e+02	9.3867	9.786608	0.000156	1.555760	0.263553	-0.000016
1068	1.0617e+02	9.3775	9.771944	0.000147	1.473878	0.249682	-0.000015
1069	1.0627e+02	9.3660	9.751984	0.000201	2.006111	0.339844	-0.000020
1070	1.0637e+02	9.3571	9.737727	0.000143	1.432937	0.242746	-0.000014
1071	1.0647e+02	9.3469	9.722656	0.000151	1.514819	0.256617	-0.000015
1072	1.0656e+02	9.3368	9.707991	0.000147	1.473878	0.249682	-0.000015
1073	1.0666e+02	9.3288	9.690476	0.000176	1.760465	0.298231	-0.000018
1074	1.0676e+02	9.3169	9.678255	0.000123	1.228231	0.208068	-0.000012
1075	1.0686e+02	9.3085	9.663184	0.000151	1.514819	0.256617	-0.000015
1076	1.0696e+02	9.2986	9.644853	0.000184	1.842347	0.312102	-0.000018
1077	1.0706e+02	9.2886	9.631004	0.000139	1.391996	0.235810	-0.000014
1078	1.0716e+02	9.2798	9.616339	0.000147	1.473878	0.249682	-0.000015
1079	1.0726e+02	9.2678	9.598009	0.000184	1.842347	0.312102	-0.000018
1080	1.0736e+02	9.2583	9.580900	0.000172	1.719524	0.291295	-0.000017
1081	1.0746e+02	9.2495	9.567051	0.000139	1.391996	0.235810	-0.000014
1082	1.0756e+02	9.2386	9.549128	0.000180	1.801406	0.305166	-0.000018
1083	1.0766e+02	9.2316	9.530797	0.000184	1.842347	0.312102	-0.000018
1084	1.0776e+02	9.2200	9.512874	0.000180	1.801406	0.305166	-0.000018
1085	1.0786e+02	9.2098	9.494137	0.000188	1.883288	0.319038	-0.000019
1086	1.0796e+02	9.1992	9.477028	0.000172	1.719524	0.291295	-0.000017
1087	1.0806e+02	9.1895	9.461142	0.000160	1.596701	0.270488	-0.000016
1088	1.0816e+02	9.1779	9.443626	0.000176	1.760465	0.298231	-0.000018
1089	1.0826e+02	9.1687	9.427332	0.000164	1.637642	0.277424	-0.000016
1090	1.0836e+02	9.1578	9.407780	0.000197	1.965170	0.332909	-0.000020
1091	1.0845e+02	9.1515	9.393116	0.000147	1.473878	0.249682	-0.000015
1092	1.0855e+02	9.1397	9.373563	0.000197	1.965170	0.332909	-0.000020
1093	1.0865e+02	9.1292	9.355233	0.000184	1.842347	0.312102	-0.000018
1094	1.0875e+02	9.1189	9.336902	0.000184	1.842347	0.312102	-0.000018
1095	1.0885e+02	9.1080	9.318979	0.000180	1.801406	0.305166	-0.000018
1096	1.0895e+02	9.1010	9.301056	0.000180	1.801406	0.305166	-0.000018
1097	1.0905e+02	9.0912	9.283948	0.000172	1.719524	0.291295	-0.000017
1098	1.0915e+02	9.0781	9.264803	0.000192	1.924229	0.325973	-0.000019
1099	1.0925e+02	9.0686	9.247694	0.000172	1.719524	0.291295	-0.000017
1100	1.0935e+02	9.0594	9.230586	0.000172	1.719524	0.291295	-0.000017
1101	1.0945e+02	9.0484	9.212255	0.000184	1.842347	0.312102	-0.000018
1102	1.0955e+02	9.0383	9.195147	0.000172	1.719524	0.291295	-0.000017
1103	1.0965e+02	9.0284	9.182927	0.000123	1.228231	0.208068	-0.000012
1104	1.0975e+02	9.0192	9.165411	0.000176	1.760465	0.298231	-0.000018
1105	1.0985e+02	9.0088	9.150747	0.000147	1.473878	0.249682	-0.000015
1106	1.0995e+02	8.9976	9.132824	0.000180	1.801406	0.305166	-0.000018
1107	1.1005e+02	8.9937	9.121418	0.000115	1.146349	0.194197	-0.000011
1108	1.1015e+02	8.9795	9.099829	0.000217	2.169876	0.367587	-0.000022
1109	1.1025e+02	8.9700	9.082313	0.000176	1.760465	0.298231	-0.000018
1110	1.1035e+02	8.9618	9.067242	0.000151	1.514819	0.256617	-0.000015
1111	1.1044e+02	8.9487	9.047282	0.000201	2.006111	0.339844	-0.000020
1112	1.1054e+02	8.9398	9.033432	0.000139	1.391996	0.235810	-0.000014
1113	1.1064e+02	8.9294	9.014694	0.000188	1.883288	0.319038	-0.000019
1114	1.1074e+02	8.9214	8.997586	0.000172	1.719524	0.291295	-0.000017
1115	1.1084e+02	8.9083	8.978848	0.000188	1.883288	0.319038	-0.000019
1116	1.1094e+02	8.8982	8.961332	0.000176	1.760465	0.298231	-0.000018
1117	1.1104e+02	8.8909	8.945039	0.000164	1.637642	0.277424	-0.000016
1118	1.1114e+02	8.8825	8.927523	0.000176	1.760465	0.298231	-0.000018
1119	1.1124e+02	8.8705	8.910822	0.000168	1.678583	0.284360	-0.000017
1120	1.1134e+02	8.8575	8.893714	0.000172	1.719524	0.291295	-0.000017
1121	1.1144e+02	8.8550	8.872939	0.000209	2.087994	0.353716	-0.000021
1122	1.1154e+02	8.8400	8.858682	0.000143	1.432937	0.242746	-0.000014
1123	1.1164e+02	8.8332	8.844018	0.000147	1.473878	0.249682	-0.000015
1124	1.1174e+02	8.8214	8.826502	0.000176	1.760465	0.298231	-0.000018
1125	1.1184e+02	8.8086	8.807764	0.000188	1.883288	0.319038	-0.000019
1126	1.1194e+02	8.8023	8.789027	0.000188	1.883288	0.319038	-0.000019
1127	1.1204e+02	8.7954	8.773955	0.000151	1.514819	0.256617	-0.000015
1128	1.1214e+02	8.7799	8.753180	0.000209	2.087994	0.353716	-0.000021
1129	1.1224e+02	8.7744	8.738516	0.000147	1.473878	0.249682	-0.000015
1130	1.1234e+02	8.7636	8.718149	0.000205	2.047052	0.346780	-0.000020
1131	1.1244e+02	8.7508	8.702263	0.000160	1.596701	0.270488	-0.000016
1132	1.1253e+02	8.7415	8.687598	0.000147	1.473878	0.249682	-0.000015
1133	1.1263e+02	8.7327	8.671305	0.000164	1.637642	0.277424	-0.000016
1134	1.1273e+02	8.7231	8.651345	0.000201	2.006111	0.339844	-0.000020
1135	1.1283e+02	8.7106	8.639532	0.000119	1.187290	0.201132	-0.000012
1136	1.1293e+02	8.7016	8.625682	0.000139	1.391996	0.235810	-0.000014
1137	1.1303e+02	8.6944	8.608981	0.000168	1.678583	0.284360	-0.000017
1138	1.1313e+02	8.6818	8.594317	0.000147	1.473878	0.249682	-0.000015
1139	1.1323e+02	8.6732	8.579652	0.000147	1.473878	0.249682	-0.000015
1140	1.1333e+02	8.6613	8.560915	0.000188	1.883288	0.319038	-0.000019
1141	1.1343e+02	8.6532	8.546658	0.000143	1.432937	0.242746	-0.000014
1142	1.1353e+02	8.6432	8.532401	0.000143	1.432937	0.242746	-0.000014
1143	1.1363e+02	8.6326	8.515700	0.000168	1.678583	0.284360	-0.000017
1144	1.1373e+02	8.6218	8.504294	0.000115	1.146349	0.194197	-0.000011
1145	1.1383e+02	8.6112	8.486778	0.000176	1.760465	0.298231	-0.000018
1146	1.1393e+02	8.6038	8.469263	0.000176	1.760465	0.298231	-0.000018
1147	1.1403e+02	8.5931	8.457042	0.000123	1.228231	0.208068	-0.000012
1148	1.1413e+02	8.5819	8.441156	0.000160	1.596701	0.270488	-0.000016
1149	1.1423e+02	8.5700	8.424862	0.000164	1.637642	0.277424	-0.000016
1150	1.1433e+02	8.5621	8.407754	0.000172	1.719524	0.291295	-0.000017
1151	1.1442e+02	8.5511	8.393497	0.000143	1.432937	0.242746	-0.000014
1152	1.1452e+02	8.5449	8.379647	0.000139	1.391996	0.235810	-0.000014
1153	1.1462e+02	8.5313	8.365390	0.000143	1.432937	0.242746	-0.000014
1154	1.1472e+02	8.5213	8.348689	0.000168	1.678583	0.284360	-0.000017
1155	1.1482e+02	8.5135	8.332803	0.000160	1.596701	0.270488	-0.000016
1156	1.1492e+02	8.5011	8.318953	0.000139	1.391996	0.235810	-0.000014
1157	1.1502e+02	8.4920	8.303067	0.000160	1.596701	0.270488	-0.000016
1158	1.1512e+02	8.4844	8.287588	0.000156	1.555760	0.263553	-0.000016
1159	1.1522e+02	8.4745	8.273738	0.000139	1.391996	0.235810	-0.000014
1160	1.1532e+02	8.4631	8.257445	0.000164	1.637642	0.277424	-0.000016
1161	1.1542e+02	8.4528	8.240743	0.000168	1.678583	0.284360	-0.000017
1162	1.1552e+02	8.4431	8.225672	0.000151	1.514819	0.256617	-0.000015
1163	1.1562e+02	8.4330	8.209785	0.000160	1.596701	0.270488	-0.000016
1164	1.1572e+02	8.4234	8.198380	0.000115	1.146349	0.194197	-0.000011
1165	1.1582e+02	8.4105	8.182086	0.000164	1.637642	0.277424	-0.000016
1166	1.1592e+02	8.4083	8.168644	0.000135	1.351055	0.228875	-0.000014
1167	1.1602e+02	8.3921	8.156831	0.000119	1.187290	0.201132	-0.000012
1168	1.1612e+02	8.3820	8.142574	0.000143	1.432937	0.242746	-0.000014
1169	1.1622e+02	8.3712	8.132390	0.000102	1.023526	0.173390	-0.000010
1170	1.1632e+02	8.3607	8.119355	0.000131	1.310114	0.221939	-0.000013
1171	1.1642e+02	8.3552	8.102654	0.000168	1.678583	0.284360	-0.000017
1172	1.1651e+02	8.3443	8.090434	0.000123	1.228231	0.208068	-0.000012
1173	1.1661e+02	8.3326	8.075362	0.000151	1.514819	0.256617	-0.000015
1174	1.1671e+02	8.3221	8.060698	0.000147	1.473878	0.249682	-0.000015
1175	1.1681e+02	8.3130	8.047663	0.000131	1.310114	0.221939	-0.000013
1176	1.1691e+02	8.3036	8.031777	0.000160	1.596701	0.270488	-0.000016
1177	1.1701e+02	8.2928	8.018334	0.000135	1.351055	0.228875	-0.000014
1178	1.1711e+02	8.2826	8.005707	0.000127	1.269173	0.215004	-0.000013
1179	1.1721e+02	8.2740	7.993894	0.000119	1.187290	0.201132	-0.000012
1180	1.1731e+02	8.2659	7.981266	0.000127	1.269173	0.215004	-0.000013
1181	1.1741e+02	8.2539	7.967417	0.000139	1.391996	0.235810	-0.000014
1182	1.1751e+02	8.2439	7.954382	0.000131	1.310114	0.221939	-0.000013
1183	1.1761e+02	8.2340	7.940532	0.000139	1.391996	0.235810	-0.000014
1184	1.1771e+02	8.2249	7.926275	0.000143	1.432937	0.242746	-0.000014
1185	1.1781e+02	8.2140	7.912018	0.000143	1.432937	0.242746	-0.000014
1186	1.1791e+02	8.2028	7.897354	0.000147	1.473878	0.249682	-0.000015
1187	1.1801e+02	8.1964	7.879431	0.000180	1.801406	0.305166	-0.000018
1188	1.1811e+02	8.1836	7.865988	0.000135	1.351055	0.228875	-0.000014
1189	1.1821e+02	8.1744	7.848065	0.000180	1.801406	0.305166	-0.000018
1190	1.1831e+02	8.1645	7.835030	0.000131	1.310114	0.221939	-0.000013
1191	1.1841e+02	8.1557	7.819144	0.000160	1.596701	0.270488	-0.000016
1192	1.1850e+02	8.1467	7.804072	0.000151	1.514819	0.256617	-0.000015
1193	1.1860e+02	8.1334	7.789001	0.000151	1.514819	0.256617	-0.000015
1194	1.1870e+02	8.1261	7.771892	0.000172	1.719524	0.291295	-0.000017
1195	1.1880e+02	8.1165	7.758043	0.000139	1.391996	0.235810	-0.000014
1196	1.1890e+02	8.1055	7.740119	0.000180	1.801406	0.305166	-0.000018
1197	1.1900e+02	8.0961	7.729529	0.000106	1.064467	0.180326	-0.000011
1198	1.1910e+02	8.0859	7.711198	0.000184	1.842347	0.312102	-0.000018
1199	1.1920e+02	8.0766	7.699385	0.000119	1.187290	0.201132	-0.000012
1200	1.1930e+02	8.0679	7.685128	0.000143	1.432937	0.242746	-0.000014
1201	1.1940e+02	8.0547	7.666798	0.000184	1.842347	0.312102	-0.000018
1202	1.1950e+02	8.0469	7.653356	0.000135	1.351055	0.228875	-0.000014
1203	1.1960e+02	8.0349	7.639099	0.000143	1.432937	0.242746	-0.000014
1204	1.1970e+02	8.0265	7.626878	0.000123	1.228231	0.208068	-0.000012
1205	1.1980e+02	8.0157	7.610177	0.000168	1.678583	0.284360	-0.000017
1206	1.1990e+02	8.0066	7.599994	0.000102	1.023526	0.173390	-0.000010
1207	1.2000e+02	7.9961	7.583293	0.000168	1.678583	0.284360	-0.000017
1208	1.2010e+02	7.9854	7.563740	0.000197	1.965170	0.332909	-0.000020
1209	1.2020e+02	7.9744	7.553964	0.000098	0.982585	0.166454	-0.000010
1210	1.2030e+02	7.9644	7.538892	0.000151	1.514819	0.256617	-0.000015
1211	1.2039e+02	7.9546	7.521784	0.000172	1.719524	0.291295	-0.000017
1212	1.2049e+02	7.9456	7.507934	0.000139	1.391996	0.235810	-0.000014
1213	1.2059e+02	7.9356	7.490419	0.000176	1.760465	0.298231	-0.000018
1214	1.2069e+02	7.9262	7.475754	0.000147	1.473878	0.249682	-0.000015
1215	1.2079e+02	7.9172	7.457831	0.000180	1.801406	0.305166	-0.000018
1216	1.2089e+02	7.9072	7.445203	0.000127	1.269173	0.215004	-0.000013
1217	1.2099e+02	7.8956	7.428910	0.000164	1.637642	0.277424	-0.000016
1218	1.2109e+02	7.8848	7.410987	0.000180	1.801406	0.305166	-0.000018
1219	1.2119e+02	7.8751	7.394693	0.000164	1.637642	0.277424	-0.000016
1220	1.2129e+02	7.8662	7.375141	0.000197	1.965170	0.332909	-0.000020
1221	1.2139e+02	7.8555	7.359662	0.000156	1.555760	0.263553	-0.000016
1222	1.2149e+02	7.8462	7.340516	0.000192	1.924229	0.325973	-0.000019
1223	1.2159e+02	7.8353	7.326259	0.000143	1.432937	0.242746	-0.000014
1224	1.2169e+02	7.8258	7.307114	0.000192	1.924229	0.325973	-0.000019
1225	1.2179e+02	7.8139	7.290413	0.000168	1.678583	0.284360	-0.000017
1226	1.2189e+02	7.8084	7.274934	0.000156	1.555760	0.263553	-0.000016
1227	1.2199e+02	7.7959	7.257826	0.000172	1.719524	0.291295	-0.000017
1228	1.2209e+02	7.7869	7.237459	0.000205	2.047052	0.346780	-0.000020
1229	1.2219e+02	7.7756	7.219943	0.000176	1.760465	0.298231	-0.000018
1230	1.2229e+02	7.7665	7.204464	0.000156	1.555760	0.263553	-0.000016
1231	1.2239e+02	7.7588	7.186134	0.000184	1.842347	0.312102	-0.000018
1232	1.2248e+02	7.7462	7.173506	0.000127	1.269173	0.215004	-0.000013
1233	1.2258e+02	7.7363	7.153546	0.000201	2.006111	0.339844	-0.000020
1234	1.2268e+02	7.7277	7.137253	0.000164	1.637642	0.277424	-0.000016
1235	1.2278e+02	7.7164	7.117700	0.000197	1.965170	0.332909	-0.000020
1236	1.2288e+02	7.7061	7.099370	0.000184	1.842347	0.312102	-0.000018
1237	1.2298e+02	7.6972	7.081447	0.000180	1.801406	0.305166	-0.000018
1238	1.2308e+02	7.6866	7.062709	0.000188	1.883288	0.319038	-0.000019
1239	1.2318e+02	7.6785	7.044786	0.000180	1.801406	0.305166	-0.000018
1240	1.2328e+02	7.6678	7.026048	0.000188	1.883288	0.319038	-0.000019
1241	1.2338e+02	7.6557	7.007310	0.000188	1.883288	0.319038	-0.000019
1242	1.2348e+02	7.6465	6.989795	0.000176	1.760465	0.298231	-0.000018
1243	1.2358e+02	7.6360	6.975945	0.000139	1.391996	0.235810	-0.000014
1244	1.2368e+02	7.6264	6.958429	0.000176	1.760465	0.298231	-0.000018
1245	1.2378e+02	7.6197	6.940506	0.000180	1.801406	0.305166	-0.000018
1246	1.2388e+02	7.6064	6.921768	0.000188	1.883288	0.319038	-0.000019
1247	1.2398e+02	7.5977	6.900994	0.000209	2.087994	0.353716	-0.000021
1248	1.2408e+02	7.5866	6.883885	0.000172	1.719524	0.291295	-0.000017
1249	1.2418e+02	7.5789	6.864740	0.000192	1.924229	0.325973	-0.000019
1250	1.2428e+02	7.5677	6.845595	0.000192	1.924229	0.325973	-0.000019
1251	1.2438e+02	7.5573	6.820747	0.000250	2.497404	0.423072	-0.000025
1252	1.2447e+02	7.5479	6.802417	0.000184	1.842347	0.312102	-0.000018
1253	1.2457e+02	7.5375	6.784901	0.000176	1.760465	0.298231	-0.000018
1254	1.2467e+02	7.5288	6.762497	0.000225	2.251758	0.381458	-0.000023
1255	1.2477e+02	7.5182	6.742130	0.000205	2.047052	0.346780	-0.000020
1256	1.2487e+02	7.5069	6.724615	0.000176	1.760465	0.298231	-0.000018
1257	1.2497e+02	7.4955	6.706284	0.000184	1.842347	0.312102	-0.000018
1258	1.2507e+02	7.4857	6.681844	0.000246	2.456463	0.416136	-0.000025
1259	1.2517e+02	7.4749	6.665957	0.000160	1.596701	0.270488	-0.000016
1260	1.2527e+02	7.4672	6.646812	0.000192	1.924229	0.325973	-0.000019
1261	1.2537e+02	7.4581	6.629704	0.000172	1.719524	0.291295	-0.000017
1262	1.2547e+02	7.4483	6.606485	0.000233	2.333640	0.395329	-0.000023
1263	1.2557e+02	7.4369	6.585303	0.000213	2.128935	0.360651	-0.000021
1264	1.2567e+02	7.4294	6.567380	0.000180	1.801406	0.305166	-0.000018
1265	1.2577e+02	7.4185	6.546198	0.000213	2.128935	0.360651	-0.000021
1266	1.2587e+02	7.4073	6.526239	0.000201	2.006111	0.339844	-0.000020
1267	1.2597e+02	7.3981	6.507094	0.000192	1.924229	0.325973	-0.000019
1268	1.2607e+02	7.3889	6.489578	0.000176	1.760465	0.298231	-0.000018
1269	1.2617e+02	7.3794	6.468396	0.000213	2.128935	0.360651	-0.000021
1270	1.2627e+02	7.3684	6.451288	0.000172	1.719524	0.291295	-0.000017
1271	1.2636e+02	7.3595	6.430513	0.000209	2.087994	0.353716	-0.000021
1272	1.2646e+02	7.3501	6.412183	0.000184	1.842347	0.312102	-0.000018
1273	1.2656e+02	7.3374	6.397111	0.000151	1.514819	0.256617	-0.000015
1274	1.2666e+02	7.3275	6.378373	0.000188	1.883288	0.319038	-0.000019
1275	1.2676e+02	7.3193	6.358006	0.000205	2.047052	0.346780	-0.000020
1276	1.2686e+02	7.3096	6.341713	0.000164	1.637642	0.277424	-0.000016
1277	1.2696e+02	7.2971	6.320938	0.000209	2.087994	0.353716	-0.000021
1278	1.2706e+02	7.2897	6.307496	0.000135	1.351055	0.228875	-0.000014
1279	1.2716e+02	7.2781	6.286314	0.000213	2.128935	0.360651	-0.000021
1280	1.2726e+02	7.2675	6.266354	0.000201	2.006111	0.339844	-0.000020
1281	1.2736e+02	7.2614	6.247616	0.000188	1.883288	0.319038	-0.000019
1282	1.2746e+02	7.2496	6.225213	0.000225	2.251758	0.381458	-0.000023
1283	1.2756e+02	7.2384	6.208104	0.000172	1.719524	0.291295	-0.000017
1284	1.2766e+02	7.2286	6.186922	0.000213	2.128935	0.360651	-0.000021
1285	1.2776e+02	7.2197	6.167370	0.000197	1.965170	0.332909	-0.000020
1286	1.2786e+02	7.2081	6.150262	0.000172	1.719524	0.291295	-0.000017
1287	1.2796e+02	7.1993	6.130302	0.000201	2.006111	0.339844	-0.000020
1288	1.2806e+02	7.1879	6.109935	0.000205	2.047052	0.346780	-0.000020
1289	1.2816e+02	7.1777	6.087938	0.000221	2.210817	0.374522	-0.000022
1290	1.2826e+02	7.1694	6.072052	0.000160	1.596701	0.270488	-0.000016
1291	1.2835e+02	7.1619	6.050870	0.000213	2.128935	0.360651	-0.000021
1292	1.2845e+02	7.1513	6.032540	0.000184	1.842347	0.312102	-0.000018
1293	1.2855e+02	7.1394	6.012172	0.000205	2.047052	0.346780	-0.000020
1294	1.2865e+02	7.1301	5.991398	0.000209	2.087994	0.353716	-0.000021
1295	1.2875e+02	7.1181	5.974697	0.000168	1.678583	0.284360	-0.000017
1296	1.2885e+02	7.1081	5.951886	0.000229	2.292699	0.388394	-0.000023
1297	1.2895e+02	7.0961	5.938443	0.000135	1.351055	0.228875	-0.000014
1298	1.2905e+02	7.0887	5.916040	0.000225	2.251758	0.381458	-0.000023
1299	1.2915e+02	7.0791	5.896487	0.000197	1.965170	0.332909	-0.000020
1300	1.2925e+02	7.0696	5.883045	0.000135	1.351055	0.228875	-0.000014
1301	1.2935e+02	7.0614	5.865122	0.000180	1.801406	0.305166	-0.000018
1302	1.2945e+02	7.0487	5.844347	0.000209	2.087994	0.353716	-0.000021
1303	1.2955e+02	7.0406	5.829276	0.000151	1.514819	0.256617	-0.000015
1304	1.2965e+02	7.0313	5.811760	0.000176	1.760465	0.298231	-0.000018
1305	1.2975e+02	7.0208	5.792615	0.000192	1.924229	0.325973	-0.000019
1306	1.2985e+02	7.0110	5.778765	0.000139	1.391996	0.235810	-0.000014
1307	1.2995e+02	6.9997	5.759620	0.000192	1.924229	0.325973	-0.000019
1308	1.3005e+02	6.9895	5.742919	0.000168	1.678583	0.284360	-0.000017
1309	1.3015e+02	6.9795	5.726218	0.000168	1.678583	0.284360	-0.000017
1310	1.3025e+02	6.9710	5.708702	0.000176	1.760465	0.298231	-0.000018
1311	1.3034e+02	6.9616	5.692001	0.000168	1.678583	0.284360	-0.000017
1312	1.3044e+02	6.9505	5.675300	0.000168	1.678583	0.284360	-0.000017
1313	1.3054e+02	6.9427	5.656562	0.000188	1.883288	0.319038	-0.000019
1314	1.3064e+02	6.9311	5.641083	0.000156	1.555760	0.263553	-0.000016
1315	1.3074e+02	6.9224	5.619902	0.000213	2.128935	0.360651	-0.000021
1316	1.3084e+02	6.9112	5.603608	0.000164	1.637642	0.277424	-0.000016
1317	1.3094e+02	6.9009	5.587314	0.000164	1.637642	0.277424	-0.000016
1318	1.3104e+02	6.8905	5.571020	0.000164	1.637642	0.277424	-0.000016
1319	1.3114e+02	6.8803	5.553097	0.000180	1.801406	0.305166	-0.000018
1320	1.3124e+02	6.8719	5.538433	0.000147	1.473878	0.249682	-0.000015
1321	1.3134e+02	6.8633	5.518473	0.000201	2.006111	0.339844	-0.000020
1322	1.3144e+02	6.8513	5.503809	0.000147	1.473878	0.249682	-0.000015
1323	1.3154e+02	6.8429	5.489552	0.000143	1.432937	0.242746	-0.000014
1324	1.3164e+02	6.8333	5.466741	0.000229	2.292699	0.388394	-0.000023
1325	1.3174e+02	6.8227	5.453706	0.000131	1.310114	0.221939	-0.000013
1326	1.3184e+02	6.8105	5.433339	0.000205	2.047052	0.346780	-0.000020
1327	1.3194e+02	6.8037	5.417452	0.000160	1.596701	0.270488	-0.000016
1328	1.3204e+02	6.7892	5.399529	0.000180	1.801406	0.305166	-0.000018
1329	1.3214e+02	6.7812	5.381606	0.000180	1.801406	0.305166	-0.000018
1330	1.3224e+02	6.7731	5.367756	0.000139	1.391996	0.235810	-0.000014
1331	1.3234e+02	6.7645	5.348611	0.000192	1.924229	0.325973	-0.000019
1332	1.3243e+02	6.7541	5.332318	0.000164	1.637642	0.277424	-0.000016
1333	1.3253e+02	6.7405	5.318061	0.000143	1.432937	0.242746	-0.000014
1334	1.3263e+02	6.7330	5.300952	0.000172	1.719524	0.291295	-0.000017
1335	1.3273e+02	6.7188	5.287103	0.000139	1.391996	0.235810	-0.000014
1336	1.3283e+02	6.7120	5.272031	0.000151	1.514819	0.256617	-0.000015
1337	1.3293e+02	6.7033	5.260218	0.000119	1.187290	0.201132	-0.000012
1338	1.3303e+02	6.6912	5.239444	0.000209	2.087994	0.353716	-0.000021
1339	1.3313e+02	6.6844	5.226001	0.000135	1.351055	0.228875	-0.000014
1340	1.3323e+02	6.6712	5.209300	0.000168	1.678583	0.284360	-0.000017
1341	1.3333e+02	6.6669	5.197080	0.000123	1.228231	0.208068	-0.000012
1342	1.3343e+02	6.6504	5.180379	0.000168	1.678583	0.284360	-0.000017
1343	1.3353e+02	6.6424	5.168566	0.000119	1.187290	0.201132	-0.000012
1344	1.3363e+02	6.6332	5.144533	0.000242	2.415522	0.409200	-0.000024
1345	1.3373e+02	6.6203	5.132720	0.000119	1.187290	0.201132	-0.000012
1346	1.3383e+02	6.6111	5.118055	0.000147	1.473878	0.249682	-0.000015
1347	1.3393e+02	6.6027	5.100947	0.000172	1.719524	0.291295	-0.000017
1348	1.3403e+02	6.5932	5.086690	0.000143	1.432937	0.242746	-0.000014
1349	1.3413e+02	6.5818	5.072840	0.000139	1.391996	0.235810	-0.000014
1350	1.3423e+02	6.5730	5.058176	0.000147	1.473878	0.249682	-0.000015
1351	1.3432e+02	6.5649	5.041475	0.000168	1.678583	0.284360	-0.000017
1352	1.3442e+02	6.5539	5.024774	0.000168	1.678583	0.284360	-0.000017
1353	1.3452e+02	6.5423	5.010110	0.000147	1.473878	0.249682	-0.000015
1354	1.3462e+02	6.5313	4.990150	0.000201	2.006111	0.339844	-0.000020
1355	1.3472e+02	6.5209	4.977115	0.000131	1.310114	0.221939	-0.000013
1356	1.3482e+02	6.5111	4.954304	0.000229	2.292699	0.388394	-0.000023
1357	1.3492e+02	6.5060	4.938010	0.000164	1.637642	0.277424	-0.000016
1358	1.3502e+02	6.4931	4.922124	0.000160	1.596701	0.270488	-0.000016
1359	1.3512e+02	6.4816	4.906645	0.000156	1.555760	0.263553	-0.000016
1360	1.3522e+02	6.4733	4.884241	0.000225	2.251758	0.381458	-0.000023
1361	1.3532e+02	6.4632	4.871206	0.000131	1.310114	0.221939	-0.000013
1362	1.3542e+02	6.4520	4.855320	0.000160	1.596701	0.270488	-0.000016
1363	1.3552e+02	6.4437	4.839433	0.000160	1.596701	0.270488	-0.000016
1364	1.3562e+02	6.4304	4.821510	0.000180	1.801406	0.305166	-0.000018
1365	1.3572e+02	6.4236	4.807660	0.000139	1.391996	0.235810	-0.000014
1366	1.3582e+02	6.4130	4.790145	0.000176	1.760465	0.298231	-0.000018
1367	1.3592e+02	6.4004	4.770592	0.000197	1.965170	0.332909	-0.000020
1368	1.3602e+02	6.3938	4.753891	0.000168	1.678583	0.284360	-0.000017
1369	1.3612e+02	6.3833	4.741264	0.000127	1.269173	0.215004	-0.000013
1370	1.3622e+02	6.3728	4.722119	0.000192	1.924229	0.325973	-0.000019
1371	1.3631e+02	6.3638	4.706640	0.000156	1.555760	0.263553	-0.000016
1372	1.3641e+02	6.3535	4.689124	0.000176	1.760465	0.298231	-0.000018
1373	1.3651e+02	6.3457	4.673645	0.000156	1.555760	0.263553	-0.000016
1374	1.3661e+02	6.3326	4.659388	0.000143	1.432937	0.242746	-0.000014
1375	1.3671e+02	6.3251	4.641465	0.000180	1.801406	0.305166	-0.000018
1376	1.3681e+02	6.3134	4.623542	0.000180	1.801406	0.305166	-0.000018
1377	1.3691e+02	6.3035	4.606026	0.000176	1.760465	0.298231	-0.000018
1378	1.3701e+02	6.2972	4.593806	0.000123	1.228231	0.208068	-0.000012
1379	1.3711e+02	6.2887	4.575883	0.000180	1.801406	0.305166	-0.000018
1380	1.3721e+02	6.2749	4.559182	0.000168	1.678583	0.284360	-0.000017
1381	1.3731e+02	6.2642	4.542073	0.000172	1.719524	0.291295	-0.000017
1382	1.3741e+02	6.2566	4.526594	0.000156	1.555760	0.263553	-0.000016
1383	1.3751e+02	6.2461	4.505820	0.000209	2.087994	0.353716	-0.000021
1384	1.3761e+02	6.2354	4.488304	0.000176	1.760465	0.298231	-0.000018
1385	1.3771e+02	6.2256	4.469973	0.000184	1.842347	0.312102	-0.000018
1386	1.3781e+02	6.2148	4.451643	0.000184	1.842347	0.312102	-0.000018
1387	1.3791e+02	6.2069	4.436979	0.000147	1.473878	0.249682	-0.000015
1388	1.3801e+02	6.1950	4.415390	0.000217	2.169876	0.367587	-0.000022
1389	1.3811e+02	6.1844	4.397467	0.000180	1.801406	0.305166	-0.000018
1390	1.3821e+02	6.1761	4.374655	0.000229	2.292699	0.388394	-0.000023
1391	1.3831e+02	6.1628	4.357954	0.000168	1.678583	0.284360	-0.000017
1392	1.3840e+02	6.1541	4.338809	0.000192	1.924229	0.325973	-0.000019
1393	1.3850e+02	6.1475	4.317220	0.000217	2.169876	0.367587	-0.000022
1394	1.3860e+02	6.1353	4.298075	0.000192	1.924229	0.325973	-0.000019
1395	1.3870e+02	6.1260	4.280967	0.000172	1.719524	0.291295	-0.000017
1396	1.3880e+02	6.1150	4.261821	0.000192	1.924229	0.325973	-0.000019
1397	1.3890e+02	6.1080	4.243084	0.000188	1.883288	0.319038	-0.000019
1398	1.3900e+02	6.0963	4.225975	0.000172	1.719524	0.291295	-0.000017
1399	1.3910e+02	6.0854	4.203979	0.000221	2.210817	0.374522	-0.000022
1400	1.3920e+02	6.0751	4.188500	0.000156	1.555760	0.263553	-0.000016
1401	1.3930e+02	6.0635	4.165281	0.000233	2.333640	0.395329	-0.000023
1402	1.3940e+02	6.0548	4.142877	0.000225	2.251758	0.381458	-0.000023
1403	1.3950e+02	6.0450	4.127806	0.000151	1.514819	0.256617	-0.000015
1404	1.3960e+02	6.0332	4.110290	0.000176	1.760465	0.298231	-0.000018
1405	1.3970e+02	6.0267	4.089923	0.000205	2.047052	0.346780	-0.000020
1406	1.3980e+02	6.0157	4.069148	0.000209	2.087994	0.353716	-0.000021
1407	1.3990e+02	6.0070	4.049189	0.000201	2.006111	0.339844	-0.000020
1408	1.4000e+02	5.9966	4.033302	0.000160	1.596701	0.270488	-0.000016
1409	1.4010e+02	5.9867	4.011306	0.000221	2.210817	0.374522	-0.000022
1410	1.4020e+02	5.9771	3.991346	0.000201	2.006111	0.339844	-0.000020
1411	1.4029e+02	5.9689	3.972608	0.000188	1.883288	0.319038	-0.000019
1412	1.4039e+02	5.9588	3.953056	0.000197	1.965170	0.332909	-0.000020
1413	1.4049e+02	5.9467	3.932689	0.000205	2.047052	0.346780	-0.000020
1414	1.4059e+02	5.9356	3.912322	0.000205	2.047052	0.346780	-0.000020
1415	1.4069e+02	5.9252	3.892362	0.000201	2.006111	0.339844	-0.000020
1416	1.4079e+02	5.9161	3.870773	0.000217	2.169876	0.367587	-0.000022
1417	1.4089e+02	5.9058	3.849591	0.000213	2.128935	0.360651	-0.000021
1418	1.4099e+02	5.8974	3.829224	0.000205	2.047052	0.346780	-0.000020
1419	1.4109e+02	5.8868	3.804783	0.000246	2.456463	0.416136	-0.000025
1420	1.4119e+02	5.8755	3.786453	0.000184	1.842347	0.312102	-0.000018
1421	1.4129e+02	5.8660	3.763642	0.000229	2.292699	0.388394	-0.000023
1422	1.4139e+02	5.8585	3.740423	0.000233	2.333640	0.395329	-0.000023
1423	1.4149e+02	5.8448	3.720463	0.000201	2.006111	0.339844	-0.000020
1424	1.4159e+02	5.8353	3.697652	0.000229	2.292699	0.388394	-0.000023
1425	1.4169e+02	5.8260	3.678100	0.000197	1.965170	0.332909	-0.000020
1426	1.4179e+02	5.8154	3.657732	0.000205	2.047052	0.346780	-0.000020
1427	1.4189e+02	5.8080	3.637365	0.000205	2.047052	0.346780	-0.000020
1428	1.4199e+02	5.7983	3.614147	0.000233	2.333640	0.395329	-0.000023
1429	1.4209e+02	5.7883	3.588484	0.000258	2.579286	0.436943	-0.000026
1430	1.4219e+02	5.7790	3.568524	0.000201	2.006111	0.339844	-0.000020
1431	1.4228e+02	5.7674	3.546935	0.000217	2.169876	0.367587	-0.000022
1432	1.4238e+02	5.7572	3.523717	0.000233	2.333640	0.395329	-0.000023
1433	1.4248e+02	5.7494	3.504164	0.000197	1.965170	0.332909	-0.000020
1434	1.4258e+02	5.7360	3.481760	0.000225	2.251758	0.381458	-0.000023
1435	1.4268e+02	5.7240	3.460986	0.000209	2.087994	0.353716	-0.000021
1436	1.4278e+02	5.7183	3.438582	0.000225	2.251758	0.381458	-0.000023
1437	1.4288e+02	5.7076	3.419030	0.000197	1.965170	0.332909	-0.000020
1438	1.4298e+02	5.6978	3.401107	0.000180	1.801406	0.305166	-0.000018
1439	1.4308e+02	5.6875	3.379110	0.000221	2.210817	0.374522	-0.000022
1440	1.4318e+02	5.6779	3.359965	0.000192	1.924229	0.325973	-0.000019
1441	1.4328e+02	5.6692	3.343264	0.000168	1.678583	0.284360	-0.000017
1442	1.4338e+02	5.6568	3.320453	0.000229	2.292699	0.388394	-0.000023
1443	1.4348e+02	5.6493	3.305788	0.000147	1.473878	0.249682	-0.000015
1444	1.4358e+02	5.6395	3.284607	0.000213	2.128935	0.360651	-0.000021
1445	1.4368e+02	5.6277	3.263425	0.000213	2.128935	0.360651	-0.000021
1446	1.4378e+02	5.6190	3.239392	0.000242	2.415522	0.409200	-0.000024
1447	1.4388e+02	5.6062	3.223098	0.000164	1.637642	0.277424	-0.000016
1448	1.4398e+02	5.5963	3.197843	0.000254	2.538345	0.430007	-0.000025
1449	1.4408e+02	5.5898	3.179512	0.000184	1.842347	0.312102	-0.000018
1450	1.4418e+02	5.5788	3.153442	0.000262	2.620227	0.443879	-0.000026
1451	1.4428e+02	5.5654	3.134705	0.000188	1.883288	0.319038	-0.000019
1452	1.4437e+02	5.5587	3.114745	0.000201	2.006111	0.339844	-0.000020
1453	1.4447e+02	5.5465	3.091934	0.000229	2.292699	0.388394	-0.000023
1454	1.4457e+02	5.5389	3.072789	0.000192	1.924229	0.325973	-0.000019
1455	1.4467e+02	5.5317	3.050792	0.000221	2.210817	0.374522	-0.000022
1456	1.4477e+02	5.5177	3.029610	0.000213	2.128935	0.360651	-0.000021
1457	1.4487e+02	5.5117	3.008021	0.000217	2.169876	0.367587	-0.000022
1458	1.4497e+02	5.4998	2.989283	0.000188	1.883288	0.319038	-0.000019
1459	1.4507e+02	5.4867	2.965657	0.000237	2.374581	0.402265	-0.000024
1460	1.4517e+02	5.4776	2.944068	0.000217	2.169876	0.367587	-0.000022
1461	1.4527e+02	5.4668	2.920850	0.000233	2.333640	0.395329	-0.000023
1462	1.4537e+02	5.4609	2.903334	0.000176	1.760465	0.298231	-0.000018
1463	1.4547e+02	5.4481	2.882560	0.000209	2.087994	0.353716	-0.000021
1464	1.4557e+02	5.4402	2.862600	0.000201	2.006111	0.339844	-0.000020
1465	1.4567e+02	5.4275	2.839381	0.000233	2.333640	0.395329	-0.000023
1466	1.4577e+02	5.4182	2.820643	0.000188	1.883288	0.319038	-0.000019
1467	1.4587e+02	5.4086	2.799462	0.000213	2.128935	0.360651	-0.000021
1468	1.4597e+02	5.3976	2.781946	0.000176	1.760465	0.298231	-0.000018
1469	1.4607e+02	5.3861	2.761579	0.000205	2.047052	0.346780	-0.000020
1470	1.4617e+02	5.3774	2.742434	0.000192	1.924229	0.325973	-0.000019
1471	1.4626e+02	5.3679	2.721252	0.000213	2.128935	0.360651	-0.000021
1472	1.4636e+02	5.3587	2.702107	0.000192	1.924229	0.325973	-0.000019
1473	1.4646e+02	5.3487	2.681740	0.000205	2.047052	0.346780	-0.000020
1474	1.4656e+02	5.3403	2.665039	0.000168	1.678583	0.284360	-0.000017
1475	1.4666e+02	5.3272	2.647523	0.000176	1.760465	0.298231	-0.000018
1476	1.4676e+02	5.3188	2.628785	0.000188	1.883288	0.319038	-0.000019
1477	1.4686e+02	5.3101	2.610455	0.000184	1.842347	0.312102	-0.000018
1478	1.4696e+02	5.3020	2.593754	0.000168	1.678583	0.284360	-0.000017
1479	1.4706e+02	5.2889	2.571757	0.000221	2.210817	0.374522	-0.000022
1480	1.4716e+02	5.2805	2.553834	0.000180	1.801406	0.305166	-0.000018
1481	1.4726e+02	5.2700	2.535911	0.000180	1.801406	0.305166	-0.000018
1482	1.4736e+02	5.2587	2.515544	0.000205	2.047052	0.346780	-0.000020
1483	1.4746e+02	5.2505	2.495177	0.000205	2.047052	0.346780	-0.000020
1484	1.4756e+02	5.2444	2.478476	0.000168	1.678583	0.284360	-0.000017
1485	1.4766e+02	5.2287	2.460553	0.000180	1.801406	0.305166	-0.000018
1486	1.4776e+02	5.2212	2.440186	0.000205	2.047052	0.346780	-0.000020
1487	1.4786e+02	5.2087	2.421448	0.000188	1.883288	0.319038	-0.000019
1488	1.4796e+02	5.2023	2.408005	0.000135	1.351055	0.228875	-0.000014
1489	1.4806e+02	5.1896	2.383972	0.000242	2.415522	0.409200	-0.000024
1490	1.4816e+02	5.1807	2.368086	0.000160	1.596701	0.270488	-0.000016
1491	1.4825e+02	5.1720	2.349348	0.000188	1.883288	0.319038	-0.000019
1492	1.4835e+02	5.1592	2.328166	0.000213	2.128935	0.360651	-0.000021
1493	1.4845e+02	5.1501	2.308207	0.000201	2.006111	0.339844	-0.000020
1494	1.4855e+02	5.1402	2.292320	0.000160	1.596701	0.270488	-0.000016
1495	1.4865e+02	5.1315	2.271138	0.000213	2.128935	0.360651	-0.000021
1496	1.4875e+02	5.1198	2.251179	0.000201	2.006111	0.339844	-0.000020
1497	1.4885e+02	5.1090	2.233663	0.000176	1.760465	0.298231	-0.000018
1498	1.4895e+02	5.1016	2.218999	0.000147	1.473878	0.249682	-0.000015
1499	1.4905e+02	5.0873	2.196595	0.000225	2.251758	0.381458	-0.000023
1500	1.4915e+02	5.0823	2.176228	0.000205	2.047052	0.346780	-0.000020
1501	1.4925e+02	5.0681	2.162785	0.000135	1.351055	0.228875	-0.000014
1502	1.4935e+02	5.0594	2.149343	0.000135	1.351055	0.228875	-0.000014
1503	1.4945e+02	5.0545	2.130605	0.000188	1.883288	0.319038	-0.000019
1504	1.4955e+02	5.0401	2.115534	0.000151	1.514819	0.256617	-0.000015
1505	1.4965e+02	5.0288	2.093130	0.000225	2.251758	0.381458	-0.000023
1506	1.4975e+02	5.0195	2.078058	0.000151	1.514819	0.256617	-0.000015
1507	1.4985e+02	5.0106	2.062986	0.000151	1.514819	0.256617	-0.000015
1508	1.4995e+02	5.0005	2.042619	0.000205	2.047052	0.346780	-0.000020
1509	1.5005e+02	4.9912	2.029584	0.000131	1.310114	0.221939	-0.000013
1510	1.5015e+02	4.9816	2.007180	0.000225	2.251758	0.381458	-0.000023
1511	1.5025e+02	4.9731	1.996182	0.000111	1.105408	0.187261	-0.000011
1512	1.5034e+02	4.9601	1.975000	0.000213	2.128935	0.360651	-0.000021
1513	1.5044e+02	4.9519	1.955855	0.000192	1.924229	0.325973	-0.000019
1514	1.5054e+02	4.9405	1.942413	0.000135	1.351055	0.228875	-0.000014
1515	1.5064e+02	4.9303	1.921638	0.000209	2.087994	0.353716	-0.000021
1516	1.5074e+02	4.9232	1.908604	0.000131	1.310114	0.221939	-0.000013
1517	1.5084e+02	4.9107	1.888644	0.000201	2.006111	0.339844	-0.000020
1518	1.5094e+02	4.9011	1.874387	0.000143	1.432937	0.242746	-0.000014
1519	1.5104e+02	4.8904	1.855242	0.000192	1.924229	0.325973	-0.000019
1520	1.5114e+02	4.8804	1.836097	0.000192	1.924229	0.325973	-0.000019
1521	1.5124e+02	4.8707	1.819803	0.000164	1.637642	0.277424	-0.000016
1522	1.5134e+02	4.8603	1.799843	0.000201	2.006111	0.339844	-0.000020
1523	1.5144e+02	4.8510	1.781920	0.000180	1.801406	0.305166	-0.000018
1524	1.5154e+02	4.8412	1.761960	0.000201	2.006111	0.339844	-0.000020
1525	1.5164e+02	4.8328	1.739964	0.000221	2.210817	0.374522	-0.000022
1526	1.5174e+02	4.8209	1.721633	0.000184	1.842347	0.312102	-0.000018
1527	1.5184e+02	4.8106	1.707784	0.000139	1.391996	0.235810	-0.000014
1528	1.5194e+02	4.8023	1.689861	0.000180	1.801406	0.305166	-0.000018
1529	1.5204e+02	4.7952	1.671530	0.000184	1.842347	0.312102	-0.000018
1530	1.5214e+02	4.7817	1.651163	0.000205	2.047052	0.346780	-0.000020
1531	1.5224e+02	4.7724	1.630389	0.000209	2.087994	0.353716	-0.000021
1532	1.5233e+02	4.7601	1.613280	0.000172	1.719524	0.291295	-0.000017
1533	1.5243e+02	4.7509	1.597801	0.000156	1.555760	0.263553	-0.000016
1534	1.5253e+02	4.7412	1.580693	0.000172	1.719524	0.291295	-0.000017
1535	1.5263e+02	4.7308	1.561548	0.000192	1.924229	0.325973	-0.000019
1536	1.5273e+02	4.7250	1.541588	0.000201	2.006111	0.339844	-0.000020
1537	1.5283e+02	4.7124	1.522850	0.000188	1.883288	0.319038	-0.000019
1538	1.5293e+02	4.6999	1.504520	0.000184	1.842347	0.312102	-0.000018
1539	1.5303e+02	4.6928	1.487004	0.000176	1.760465	0.298231	-0.000018
1540	1.5313e+02	4.6831	1.467452	0.000197	1.965170	0.332909	-0.000020
1541	1.5323e+02	4.6745	1.449936	0.000176	1.760465	0.298231	-0.000018
1542	1.5333e+02	4.6615	1.432827	0.000172	1.719524	0.291295	-0.000017
1543	1.5343e+02	4.6490	1.413682	0.000192	1.924229	0.325973	-0.000019
1544	1.5353e+02	4.6418	1.395352	0.000184	1.842347	0.312102	-0.000018
1545	1.5363e+02	4.6352	1.380280	0.000151	1.514819	0.256617	-0.000015
1546	1.5373e+02	4.6250	1.360320	0.000201	2.006111	0.339844	-0.000020
1547	1.5383e+02	4.6157	1.341990	0.000184	1.842347	0.312102	-0.000018
1548	1.5393e+02	4.6043	1.324474	0.000176	1.760465	0.298231	-0.000018
1549	1.5403e+02	4.5940	1.305329	0.000192	1.924229	0.325973	-0.000019
1550	1.5413e+02	4.5820	1.284555	0.000209	2.087994	0.353716	-0.000021
1551	1.5422e+02	4.5727	1.268668	0.000160	1.596701	0.270488	-0.000016
1552	1.5432e+02	4.5617	1.243006	0.000258	2.579286	0.436943	-0.000026
1553	1.5442e+02	4.5559	1.219380	0.000237	2.374581	0.402265	-0.000024
1554	1.5452e+02	4.5431	1.204308	0.000151	1.514819	0.256617	-0.000015
1555	1.5462e+02	4.5346	1.181904	0.000225	2.251758	0.381458	-0.000023
1556	1.5472e+02	4.5223	1.162352	0.000197	1.965170	0.332909	-0.000020
1557	1.5482e+02	4.5103	1.140355	0.000221	2.210817	0.374522	-0.000022
1558	1.5492e+02	4.5036	1.119581	0.000209	2.087994	0.353716	-0.000021
1559	1.5502e+02	4.4931	1.100436	0.000192	1.924229	0.325973	-0.000019
1560	1.5512e+02	4.4839	1.079661	0.000209	2.087994	0.353716	-0.000021
1561	1.5522e+02	4.4723	1.056850	0.000229	2.292699	0.388394	-0.000023
1562	1.5532e+02	4.4648	1.037705	0.000192	1.924229	0.325973	-0.000019
1563	1.5542e+02	4.4538	1.018153	0.000197	1.965170	0.332909	-0.000020
1564	1.5552e+02	4.4450	0.998193	0.000201	2.006111	0.339844	-0.000020
1565	1.5562e+02	4.4329	0.975789	0.000225	2.251758	0.381458	-0.000023
1566	1.5572e+02	4.4225	0.954200	0.000217	2.169876	0.367587	-0.000022
1567	1.5582e+02	4.4118	0.933425	0.000209	2.087994	0.353716	-0.000021
1568	1.5592e+02	4.4022	0.913873	0.000197	1.965170	0.332909	-0.000020
1569	1.5602e+02	4.3969	0.889840	0.000242	2.415522	0.409200	-0.000024
1570	1.5612e+02	4.3846	0.869880	0.000201	2.006111	0.339844	-0.000020
1571	1.5622e+02	4.3726	0.849920	0.000201	2.006111	0.339844	-0.000020
1572	1.5631e+02	4.3626	0.826702	0.000233	2.333640	0.395329	-0.000023
1573	1.5641e+02	4.3526	0.808779	0.000180	1.801406	0.305166	-0.000018
1574	1.5651e+02	4.3436	0.782301	0.000266	2.661168	0.450814	-0.000027
1575	1.5661e+02	4.3355	0.761934	0.000205	2.047052	0.346780	-0.000020
1576	1.5671e+02	4.3247	0.742789	0.000192	1.924229	0.325973	-0.000019
1577	1.5681e+02	4.3174	0.721607	0.000213	2.128935	0.360651	-0.000021
1578	1.5691e+02	4.3010	0.697981	0.000237	2.374581	0.402265	-0.000024
1579	1.5701e+02	4.2947	0.678836	0.000192	1.924229	0.325973	-0.000019
1580	1.5711e+02	4.2848	0.656840	0.000221	2.210817	0.374522	-0.000022
1581	1.5721e+02	4.2738	0.634843	0.000221	2.210817	0.374522	-0.000022
1582	1.5731e+02	4.2660	0.612440	0.000225	2.251758	0.381458	-0.000023
1583	1.5741e+02	4.2547	0.590850	0.000217	2.169876	0.367587	-0.000022
1584	1.5751e+02	4.2449	0.571705	0.000192	1.924229	0.325973	-0.000019
1585	1.5761e+02	4.2312	0.547672	0.000242	2.415522	0.409200	-0.000024
1586	1.5771e+02	4.2268	0.519158	0.000287	2.865873	0.485492	-0.000029
1587	1.5781e+02	4.2139	0.496347	0.000229	2.292699	0.388394	-0.000023
1588	1.5791e+02	4.2045	0.473536	0.000229	2.292699	0.388394	-0.000023
1589	1.5801e+02	4.1950	0.451539	0.000221	2.210817	0.374522	-0.000022
1590	1.5811e+02	4.1851	0.429543	0.000221	2.210817	0.374522	-0.000022
1591	1.5821e+02	4.1747	0.405510	0.000242	2.415522	0.409200	-0.000024
1592	1.5830e+02	4.1664	0.384735	0.000209	2.087994	0.353716	-0.000021
1593	1.5840e+02	4.1553	0.360294	0.000246	2.456463	0.416136	-0.000025
1594	1.5850e+02	4.1433	0.337483	0.000229	2.292699	0.388394	-0.000023
1595	1.5860e+02	4.1360	0.311006	0.000266	2.661168	0.450814	-0.000027
1596	1.5870e+02	4.1248	0.288195	0.000229	2.292699	0.388394	-0.000023
1597	1.5880e+02	4.1152	0.267420	0.000209	2.087994	0.353716	-0.000021
1598	1.5890e+02	4.1045	0.243387	0.000242	2.415522	0.409200	-0.000024
1599	1.5900e+02	4.0964	0.216910	0.000266	2.661168	0.450814	-0.000027
1600	1.5910e+02	4.0857	0.196135	0.000209	2.087994	0.353716	-0.000021
1601	1.5920e+02	4.0777	0.174954	0.000213	2.128935	0.360651	-0.000021
1602	1.5930e+02	4.0670	0.150106	0.000250	2.497404	0.423072	-0.000025
1603	1.5940e+02	4.0530	0.126073	0.000242	2.415522	0.409200	-0.000024
1604	1.5950e+02	4.0441	0.100817	0.000254	2.538345	0.430007	-0.000025
1605	1.5960e+02	4.0370	0.081672	0.000192	1.924229	0.325973	-0.000019
1606	1.5970e+02	4.0252	0.057232	0.000246	2.456463	0.416136	-0.000025
1607	1.5980e+02	4.0166	0.039309	0.000180	1.801406	0.305166	-0.000018
1608	1.5990e+02	4.0090	0.015683	0.000237	2.374581	0.402265	-0.000024
1609	1.6000e+02	3.9984	-0.003462	0.000192	1.924229	0.325973	-0.000019
1610	1.6010e+02	3.9893	-0.027496	0.000242	2.415522	0.409200	-0.000024
1611	1.6019e+02	3.9758	-0.049492	0.000221	2.210817	0.374522	-0.000022
1612	1.6029e+02	3.9649	-0.068637	0.000192	1.924229	0.325973	-0.000019
1613	1.6039e+02	3.9555	-0.090226	0.000217	2.169876	0.367587	-0.000022
1614	1.6049e+02	3.9433	-0.115074	0.000250	2.497404	0.423072	-0.000025
1615	1.6059e+02	3.9336	-0.139515	0.000246	2.456463	0.416136	-0.000025
1616	1.6069e+02	3.9297	-0.159475	0.000201	2.006111	0.339844	-0.000020
1617	1.6079e+02	3.9175	-0.183508	0.000242	2.415522	0.409200	-0.000024
1618	1.6089e+02	3.9072	-0.207134	0.000237	2.374581	0.402265	-0.000024
1619	1.6099e+02	3.8955	-0.226686	0.000197	1.965170	0.332909	-0.000020
1620	1.6109e+02	3.8860	-0.255200	0.000287	2.865873	0.485492	-0.000029
1621	1.6119e+02	3.8770	-0.273938	0.000188	1.883288	0.319038	-0.000019
1622	1.6129e+02	3.8653	-0.297971	0.000242	2.415522	0.409200	-0.000024
1623	1.6139e+02	3.8580	-0.320375	0.000225	2.251758	0.381458	-0.000023
1624	1.6149e+02	3.8439	-0.344001	0.000237	2.374581	0.402265	-0.000024
1625	1.6159e+02	3.8328	-0.368849	0.000250	2.497404	0.423072	-0.000025
1626	1.6169e+02	3.8265	-0.391253	0.000225	2.251758	0.381458	-0.000023
1627	1.6179e+02	3.8158	-0.411620	0.000205	2.047052	0.346780	-0.000020
1628	1.6189e+02	3.8062	-0.436060	0.000246	2.456463	0.416136	-0.000025
1629	1.6199e+02	3.7955	-0.458871	0.000229	2.292699	0.388394	-0.000023
1630	1.6209e+02	3.7875	-0.484941	0.000262	2.620227	0.443879	-0.000026
1631	1.6219e+02	3.7766	-0.501235	0.000164	1.637642	0.277424	-0.000016
1632	1.6228e+02	3.7650	-0.528120	0.000270	2.702109	0.457750	-0.000027
1633	1.6238e+02	3.7562	-0.544006	0.000160	1.596701	0.270488	-0.000016
1634	1.6248e+02	3.7484	-0.571298	0.000274	2.743050	0.464685	-0.000027
1635	1.6258e+02	3.7361	-0.588814	0.000176	1.760465	0.298231	-0.000018
1636	1.6268e+02	3.7272	-0.612440	0.000237	2.374581	0.402265	-0.000024
1637	1.6278e+02	3.7165	-0.632807	0.000205	2.047052	0.346780	-0.000020
1638	1.6288e+02	3.7082	-0.655210	0.000225	2.251758	0.381458	-0.000023
1639	1.6298e+02	3.6976	-0.673134	0.000180	1.801406	0.305166	-0.000018
1640	1.6308e+02	3.6880	-0.697574	0.000246	2.456463	0.416136	-0.000025
1641	1.6318e+02	3.6772	-0.718349	0.000209	2.087994	0.353716	-0.000021
1642	1.6328e+02	3.6689	-0.739530	0.000213	2.128935	0.360651	-0.000021
1643	1.6338e+02	3.6578	-0.761120	0.000217	2.169876	0.367587	-0.000022
1644	1.6348e+02	3.6480	-0.778635	0.000176	1.760465	0.298231	-0.000018
1645	1.6358e+02	3.6403	-0.800224	0.000217	2.169876	0.367587	-0.000022
1646	1.6368e+02	3.6281	-0.820999	0.000209	2.087994	0.353716	-0.000021
1647	1.6378e+02	3.6187	-0.841366	0.000205	2.047052	0.346780	-0.000020
1648	1.6388e+02	3.6054	-0.860104	0.000188	1.883288	0.319038	-0.000019
1649	1.6398e+02	3.5996	-0.885359	0.000254	2.538345	0.430007	-0.000025
1650	1.6408e+02	3.5873	-0.903689	0.000184	1.842347	0.312102	-0.000018
1651	1.6418e+02	3.5782	-0.924464	0.000209	2.087994	0.353716	-0.000021
1652	1.6427e+02	3.5671	-0.943609	0.000192	1.924229	0.325973	-0.000019
1653	1.6437e+02	3.5600	-0.965198	0.000217	2.169876	0.367587	-0.000022
1654	1.6447e+02	3.5479	-0.989231	0.000242	2.415522	0.409200	-0.000024
1655	1.6457e+02	3.5374	-1.006340	0.000172	1.719524	0.291295	-0.000017
1656	1.6467e+02	3.5284	-1.027114	0.000209	2.087994	0.353716	-0.000021
1657	1.6477e+02	3.5157	-1.047889	0.000209	2.087994	0.353716	-0.000021
1658	1.6487e+02	3.5069	-1.069071	0.000213	2.128935	0.360651	-0.000021
1659	1.6497e+02	3.4974	-1.086994	0.000180	1.801406	0.305166	-0.000018
1660	1.6507e+02	3.4873	-1.111434	0.000246	2.456463	0.416136	-0.000025
1661	1.6517e+02	3.4773	-1.134653	0.000233	2.333640	0.395329	-0.000023
1662	1.6527e+02	3.4648	-1.153390	0.000188	1.883288	0.319038	-0.000019
1663	1.6537e+02	3.4587	-1.172536	0.000192	1.924229	0.325973	-0.000019
1664	1.6547e+02	3.4453	-1.193717	0.000213	2.128935	0.360651	-0.000021
1665	1.6557e+02	3.4397	-1.214084	0.000205	2.047052	0.346780	-0.000020
1666	1.6567e+02	3.4295	-1.232822	0.000188	1.883288	0.319038	-0.000019
1667	1.6577e+02	3.4182	-1.250745	0.000180	1.801406	0.305166	-0.000018
1668	1.6587e+02	3.4122	-1.273149	0.000225	2.251758	0.381458	-0.000023
1669	1.6597e+02	3.4003	-1.290665	0.000176	1.760465	0.298231	-0.000018
1670	1.6607e+02	3.3897	-1.311439	0.000209	2.087994	0.353716	-0.000021
1671	1.6616e+02	3.3787	-1.326104	0.000147	1.473878	0.249682	-0.000015
1672	1.6626e+02	3.3675	-1.348915	0.000229	2.292699	0.388394	-0.000023
1673	1.6636e+02	3.3596	-1.366838	0.000180	1.801406	0.305166	-0.000018
1674	1.6646e+02	3.3498	-1.383539	0.000168	1.678583	0.284360	-0.000017
1675	1.6656e+02	3.3417	-1.403906	0.000205	2.047052	0.346780	-0.000020
1676	1.6666e+02	3.3301	-1.423459	0.000197	1.965170	0.332909	-0.000020
1677	1.6676e+02	3.3195	-1.442604	0.000192	1.924229	0.325973	-0.000019
1678	1.6686e+02	3.3094	-1.462156	0.000197	1.965170	0.332909	-0.000020
1679	1.6696e+02	3.2983	-1.481709	0.000197	1.965170	0.332909	-0.000020
1680	1.6706e+02	3.2874	-1.499224	0.000176	1.760465	0.298231	-0.000018
1681	1.6716e+02	3.2775	-1.519184	0.000201	2.006111	0.339844	-0.000020
1682	1.6726e+02	3.2702	-1.538736	0.000197	1.965170	0.332909	-0.000020
1683	1.6736e+02	3.2616	-1.555845	0.000172	1.719524	0.291295	-0.000017
1684	1.6746e+02	3.2505	-1.575397	0.000197	1.965170	0.332909	-0.000020
1685	1.6756e+02	3.2394	-1.594950	0.000197	1.965170	0.332909	-0.000020
1686	1.6766e+02	3.2270	-1.611651	0.000168	1.678583	0.284360	-0.000017
1687	1.6776e+02	3.2195	-1.633647	0.000221	2.210817	0.374522	-0.000022
1688	1.6786e+02	3.2085	-1.654014	0.000205	2.047052	0.346780	-0.000020
1689	1.6796e+02	3.2005	-1.673567	0.000197	1.965170	0.332909	-0.000020
1690	1.6806e+02	3.1893	-1.697600	0.000242	2.415522	0.409200	-0.000024
1691	1.6816e+02	3.1776	-1.715116	0.000176	1.760465	0.298231	-0.000018
1692	1.6825e+02	3.1705	-1.736705	0.000217	2.169876	0.367587	-0.000022
1693	1.6835e+02	3.1615	-1.759109	0.000225	2.251758	0.381458	-0.000023
1694	1.6845e+02	3.1509	-1.781513	0.000225	2.251758	0.381458	-0.000023
1695	1.6855e+02	3.1384	-1.798214	0.000168	1.678583	0.284360	-0.000017
1696	1.6865e+02	3.1292	-1.818581	0.000205	2.047052	0.346780	-0.000020
1697	1.6875e+02	3.1201	-1.839355	0.000209	2.087994	0.353716	-0.000021
1698	1.6885e+02	3.1089	-1.859315	0.000201	2.006111	0.339844	-0.000020
1699	1.6895e+02	3.1011	-1.878053	0.000188	1.883288	0.319038	-0.000019
1700	1.6905e+02	3.0880	-1.898013	0.000201	2.006111	0.339844	-0.000020
1701	1.6915e+02	3.0803	-1.917565	0.000197	1.965170	0.332909	-0.000020
1702	1.6925e+02	3.0689	-1.939562	0.000221	2.210817	0.374522	-0.000022
1703	1.6935e+02	3.0618	-1.958707	0.000192	1.924229	0.325973	-0.000019
1704	1.6945e+02	3.0509	-1.977852	0.000192	1.924229	0.325973	-0.000019
1705	1.6955e+02	3.0408	-1.996997	0.000192	1.924229	0.325973	-0.000019
1706	1.6965e+02	3.0315	-2.018586	0.000217	2.169876	0.367587	-0.000022
1707	1.6975e+02	3.0212	-2.042212	0.000237	2.374581	0.402265	-0.000024
1708	1.6985e+02	3.0099	-2.061357	0.000192	1.924229	0.325973	-0.000019
1709	1.6995e+02	3.0004	-2.079280	0.000180	1.801406	0.305166	-0.000018
1710	1.7005e+02	2.9920	-2.101277	0.000221	2.210817	0.374522	-0.000022
1711	1.7015e+02	2.9833	-2.122051	0.000209	2.087994	0.353716	-0.000021
1712	1.7024e+02	2.9720	-2.141196	0.000192	1.924229	0.325973	-0.000019
1713	1.7034e+02	2.9633	-2.161156	0.000201	2.006111	0.339844	-0.000020
1714	1.7044e+02	2.9509	-2.180708	0.000197	1.965170	0.332909	-0.000020
1715	1.7054e+02	2.9437	-2.199853	0.000192	1.924229	0.325973	-0.000019
1716	1.7064e+02	2.9289	-2.223479	0.000237	2.374581	0.402265	-0.000024
1717	1.7074e+02	2.9217	-2.243846	0.000205	2.047052	0.346780	-0.000020
1718	1.7084e+02	2.9119	-2.263399	0.000197	1.965170	0.332909	-0.000020
1719	1.7094e+02	2.9008	-2.289061	0.000258	2.579286	0.436943	-0.000026
1720	1.7104e+02	2.8923	-2.309429	0.000205	2.047052	0.346780	-0.000020
1721	1.7114e+02	2.8818	-2.330203	0.000209	2.087994	0.353716	-0.000021
1722	1.7124e+02	2.8681	-2.356273	0.000262	2.620227	0.443879	-0.000026
1723	1.7134e+02	2.8621	-2.379084	0.000229	2.292699	0.388394	-0.000023
1724	1.7144e+02	2.8503	-2.400266	0.000213	2.128935	0.360651	-0.000021
1725	1.7154e+02	2.8403	-2.422670	0.000225	2.251758	0.381458	-0.000023
1726	1.7164e+02	2.8317	-2.442222	0.000197	1.965170	0.332909	-0.000020
1727	1.7174e+02	2.8198	-2.466255	0.000242	2.415522	0.409200	-0.000024
1728	1.7184e+02	2.8093	-2.488659	0.000225	2.251758	0.381458	-0.000023
1729	1.7194e+02	2.8024	-2.512285	0.000237	2.374581	0.402265	-0.000024
1730	1.7204e+02	2.7903	-2.533874	0.000217	2.169876	0.367587	-0.000022
1731	1.7213e+02	2.7840	-2.559537	0.000258	2.579286	0.436943	-0.000026
1732	1.7223e+02	2.7714	-2.583163	0.000237	2.374581	0.402265	-0.000024
1733	1.7233e+02	2.7637	-2.604345	0.000213	2.128935	0.360651	-0.000021
1734	1.7243e+02	2.7512	-2.627563	0.000233	2.333640	0.395329	-0.000023
1735	1.7253e+02	2.7438	-2.652818	0.000254	2.538345	0.430007	-0.000025
1736	1.7263e+02	2.7292	-2.672778	0.000201	2.006111	0.339844	-0.000020
1737	1.7273e+02	2.7216	-2.695997	0.000233	2.333640	0.395329	-0.000023
1738	1.7283e+02	2.7139	-2.717586	0.000217	2.169876	0.367587	-0.000022
1739	1.7293e+02	2.7009	-2.746100	0.000287	2.865873	0.485492	-0.000029
1740	1.7303e+02	2.6934	-2.766467	0.000205	2.047052	0.346780	-0.000020
1741	1.7313e+02	2.6814	-2.786834	0.000205	2.047052	0.346780	-0.000020
1742	1.7323e+02	2.6724	-2.812089	0.000254	2.538345	0.430007	-0.000025
1743	1.7333e+02	2.6612	-2.834086	0.000221	2.210817	0.374522	-0.000022
1744	1.7343e+02	2.6521	-2.858526	0.000246	2.456463	0.416136	-0.000025
1745	1.7353e+02	2.6427	-2.881338	0.000229	2.292699	0.388394	-0.000023
1746	1.7363e+02	2.6317	-2.906185	0.000250	2.497404	0.423072	-0.000025
1747	1.7373e+02	2.6204	-2.926145	0.000201	2.006111	0.339844	-0.000020
1748	1.7383e+02	2.6138	-2.952622	0.000266	2.661168	0.450814	-0.000027
1749	1.7393e+02	2.6019	-2.975434	0.000229	2.292699	0.388394	-0.000023
1750	1.7403e+02	2.5918	-2.999467	0.000242	2.415522	0.409200	-0.000024
1751	1.7413e+02	2.5822	-3.024722	0.000254	2.538345	0.430007	-0.000025
1752	1.7422e+02	2.5717	-3.050385	0.000258	2.579286	0.436943	-0.000026
1753	1.7432e+02	2.5610	-3.074011	0.000237	2.374581	0.402265	-0.000024
1754	1.7442e+02	2.5570	-3.102117	0.000282	2.824932	0.478557	-0.000028
1755	1.7452e+02	2.5442	-3.127372	0.000254	2.538345	0.430007	-0.000025
1756	1.7462e+02	2.5323	-3.153035	0.000258	2.579286	0.436943	-0.000026
1757	1.7472e+02	2.5234	-3.178698	0.000258	2.579286	0.436943	-0.000026
1758	1.7482e+02	2.5111	-3.202323	0.000237	2.374581	0.402265	-0.000024
1759	1.7492e+02	2.5042	-3.227986	0.000258	2.579286	0.436943	-0.000026
1760	1.7502e+02	2.4929	-3.251205	0.000233	2.333640	0.395329	-0.000023
1761	1.7512e+02	2.4820	-3.273201	0.000221	2.210817	0.374522	-0.000022
1762	1.7522e+02	2.4765	-3.301715	0.000287	2.865873	0.485492	-0.000029
1763	1.7532e+02	2.4654	-3.325341	0.000237	2.374581	0.402265	-0.000024
1764	1.7542e+02	2.4540	-3.349781	0.000246	2.456463	0.416136	-0.000025
1765	1.7552e+02	2.4426	-3.378703	0.000291	2.906815	0.492428	-0.000029
1766	1.7562e+02	2.4356	-3.406402	0.000278	2.783991	0.471621	-0.000028
1767	1.7572e+02	2.4240	-3.427991	0.000217	2.169876	0.367587	-0.000022
1768	1.7582e+02	2.4137	-3.452839	0.000250	2.497404	0.423072	-0.000025
1769	1.7592e+02	2.4039	-3.480131	0.000274	2.743050	0.464685	-0.000027
1770	1.7602e+02	2.3942	-3.504164	0.000242	2.415522	0.409200	-0.000024
1771	1.7612e+02	2.3838	-3.529012	0.000250	2.497404	0.423072	-0.000025
1772	1.7621e+02	2.3759	-3.554267	0.000254	2.538345	0.430007	-0.000025
1773	1.7631e+02	2.3627	-3.576264	0.000221	2.210817	0.374522	-0.000022
1774	1.7641e+02	2.3540	-3.599075	0.000229	2.292699	0.388394	-0.000023
1775	1.7651e+02	2.3434	-3.622294	0.000233	2.333640	0.395329	-0.000023
1776	1.7661e+02	2.3341	-3.650400	0.000282	2.824932	0.478557	-0.000028
1777	1.7671e+02	2.3248	-3.670767	0.000205	2.047052	0.346780	-0.000020
1778	1.7681e+02	2.3160	-3.692357	0.000217	2.169876	0.367587	-0.000022
1779	1.7691e+02	2.3044	-3.716797	0.000246	2.456463	0.416136	-0.000025
1780	1.7701e+02	2.2942	-3.738794	0.000221	2.210817	0.374522	-0.000022
1781	1.7711e+02	2.2858	-3.768122	0.000295	2.947756	0.499363	-0.000029
1782	1.7721e+02	2.2735	-3.790933	0.000229	2.292699	0.388394	-0.000023
1783	1.7731e+02	2.2671	-3.819040	0.000282	2.824932	0.478557	-0.000028
1784	1.7741e+02	2.2524	-3.841851	0.000229	2.292699	0.388394	-0.000023
1785	1.7751e+02	2.2432	-3.868736	0.000270	2.702109	0.457750	-0.000027
1786	1.7761e+02	2.2355	-3.894806	0.000262	2.620227	0.443879	-0.000026
1787	1.7771e+02	2.2241	-3.919246	0.000246	2.456463	0.416136	-0.000025
1788	1.7781e+02	2.2145	-3.944502	0.000254	2.538345	0.430007	-0.000025
1789	1.7791e+02	2.2041	-3.968127	0.000237	2.374581	0.402265	-0.000024
1790	1.7801e+02	2.1964	-3.990939	0.000229	2.292699	0.388394	-0.000023
1791	1.7810e+02	2.1868	-4.012528	0.000217	2.169876	0.367587	-0.000022
1792	1.7820e+02	2.1744	-4.040634	0.000282	2.824932	0.478557	-0.000028
1793	1.7830e+02	2.1670	-4.068334	0.000278	2.783991	0.471621	-0.000028
1794	1.7840e+02	2.1567	-4.093182	0.000250	2.497404	0.423072	-0.000025
1795	1.7850e+02	2.1458	-4.117215	0.000242	2.415522	0.409200	-0.000024
1796	1.7860e+02	2.1350	-4.143692	0.000266	2.661168	0.450814	-0.000027
1797	1.7870e+02	2.1246	-4.165689	0.000221	2.210817	0.374522	-0.000022
1798	1.7880e+02	2.1148	-4.193388	0.000278	2.783991	0.471621	-0.000028
1799	1.7890e+02	2.1023	-4.219050	0.000258	2.579286	0.436943	-0.000026
1800	1.7900e+02	2.0948	-4.240640	0.000217	2.169876	0.367587	-0.000022
1801	1.7910e+02	2.0860	-4.264673	0.000242	2.415522	0.409200	-0.000024
1802	1.7920e+02	2.0789	-4.289113	0.000246	2.456463	0.416136	-0.000025
1803	1.7930e+02	2.0655	-4.311925	0.000229	2.292699	0.388394	-0.000023
1804	1.7940e+02	2.0541	-4.340031	0.000282	2.824932	0.478557	-0.000028
1805	1.7950e+02	2.0454	-4.359991	0.000201	2.006111	0.339844	-0.000020
1806	1.7960e+02	2.0362	-4.383210	0.000233	2.333640	0.395329	-0.000023
1807	1.7970e+02	2.0273	-4.406428	0.000233	2.333640	0.395329	-0.000023
1808	1.7980e+02	2.0145	-4.424351	0.000180	1.801406	0.305166	-0.000018
1809	1.7990e+02	2.0039	-4.447162	0.000229	2.292699	0.388394	-0.000023
1810	1.8000e+02	1.9966	-4.475676	0.000287	2.865873	0.485492	-0.000029
1811	1.8009e+02	1.9872	-4.492785	0.000172	1.719524	0.291295	-0.000017
1812	1.8019e+02	1.9738	-4.520077	0.000274	2.743050	0.464685	-0.000027
1813	1.8029e+02	1.9639	-4.540036	0.000201	2.006111	0.339844	-0.000020
1814	1.8039e+02	1.9566	-4.565292	0.000254	2.538345	0.430007	-0.000025
1815	1.8049e+02	1.9485	-4.586473	0.000213	2.128935	0.360651	-0.000021
1816	1.8059e+02	1.9344	-4.609692	0.000233	2.333640	0.395329	-0.000023
1817	1.8069e+02	1.9247	-4.636169	0.000266	2.661168	0.450814	-0.000027
1818	1.8079e+02	1.9160	-4.656129	0.000201	2.006111	0.339844	-0.000020
1819	1.8089e+02	1.9051	-4.677311	0.000213	2.128935	0.360651	-0.000021
1820	1.8099e+02	1.8938	-4.702566	0.000254	2.538345	0.430007	-0.000025
1821	1.8109e+02	1.8855	-4.725785	0.000233	2.333640	0.395329	-0.000023
1822	1.8119e+02	1.8761	-4.744930	0.000192	1.924229	0.325973	-0.000019
1823	1.8129e+02	1.8671	-4.771407	0.000266	2.661168	0.450814	-0.000027
1824	1.8139e+02	1.8571	-4.789737	0.000184	1.842347	0.312102	-0.000018
1825	1.8149e+02	1.8459	-4.814178	0.000246	2.456463	0.416136	-0.000025
1826	1.8159e+02	1.8340	-4.837396	0.000233	2.333640	0.395329	-0.000023
1827	1.8169e+02	1.8262	-4.859393	0.000221	2.210817	0.374522	-0.000022
1828	1.8179e+02	1.8154	-4.882611	0.000233	2.333640	0.395329	-0.000023
1829	1.8189e+02	1.8082	-4.908274	0.000258	2.579286	0.436943	-0.000026
1830	1.8199e+02	1.7968	-4.930678	0.000225	2.251758	0.381458	-0.000023
1831	1.8209e+02	1.7891	-4.953082	0.000225	2.251758	0.381458	-0.000023
1832	1.8218e+02	1.7770	-4.976708	0.000237	2.374581	0.402265	-0.000024
1833	1.8228e+02	1.7671	-4.998704	0.000221	2.210817	0.374522	-0.000022
1834	1.8238e+02	1.7575	-5.017849	0.000192	1.924229	0.325973	-0.000019
1835	1.8248e+02	1.7467	-5.041068	0.000233	2.333640	0.395329	-0.000023
1836	1.8258e+02	1.7390	-5.059806	0.000188	1.883288	0.319038	-0.000019
1837	1.8268e+02	1.7284	-5.080580	0.000209	2.087994	0.353716	-0.000021
1838	1.8278e+02	1.7160	-5.105021	0.000246	2.456463	0.416136	-0.000025
1839	1.8288e+02	1.7091	-5.119685	0.000147	1.473878	0.249682	-0.000015
1840	1.8298e+02	1.6945	-5.146162	0.000266	2.661168	0.450814	-0.000027
1841	1.8308e+02	1.6863	-5.166937	0.000209	2.087994	0.353716	-0.000021
1842	1.8318e+02	1.6756	-5.185674	0.000188	1.883288	0.319038	-0.000019
1843	1.8328e+02	1.6651	-5.206041	0.000205	2.047052	0.346780	-0.000020
1844	1.8338e+02	1.6578	-5.226816	0.000209	2.087994	0.353716	-0.000021
1845	1.8348e+02	1.6471	-5.255330	0.000287	2.865873	0.485492	-0.000029
1846	1.8358e+02	1.6363	-5.271216	0.000160	1.596701	0.270488	-0.000016
1847	1.8368e+02	1.6267	-5.295249	0.000242	2.415522	0.409200	-0.000024
1848	1.8378e+02	1.6186	-5.315617	0.000205	2.047052	0.346780	-0.000020
1849	1.8388e+02	1.6077	-5.335169	0.000197	1.965170	0.332909	-0.000020
1850	1.8398e+02	1.5957	-5.355944	0.000209	2.087994	0.353716	-0.000021
1851	1.8407e+02	1.5866	-5.379162	0.000233	2.333640	0.395329	-0.000023
1852	1.8417e+02	1.5765	-5.399937	0.000209	2.087994	0.353716	-0.000021
1853	1.8427e+02	1.5675	-5.419489	0.000197	1.965170	0.332909	-0.000020
1854	1.8437e+02	1.5577	-5.441893	0.000225	2.251758	0.381458	-0.000023
1855	1.8447e+02	1.5472	-5.459816	0.000180	1.801406	0.305166	-0.000018
1856	1.8457e+02	1.5370	-5.486293	0.000266	2.661168	0.450814	-0.000027
1857	1.8467e+02	1.5287	-5.511141	0.000250	2.497404	0.423072	-0.000025
1858	1.8477e+02	1.5192	-5.535582	0.000246	2.456463	0.416136	-0.000025
1859	1.8487e+02	1.5085	-5.557171	0.000217	2.169876	0.367587	-0.000022
1860	1.8497e+02	1.4977	-5.579982	0.000229	2.292699	0.388394	-0.000023
1861	1.8507e+02	1.4884	-5.600349	0.000205	2.047052	0.346780	-0.000020
1862	1.8517e+02	1.4781	-5.625604	0.000254	2.538345	0.430007	-0.000025
1863	1.8527e+02	1.4685	-5.645157	0.000197	1.965170	0.332909	-0.000020
1864	1.8537e+02	1.4575	-5.670819	0.000258	2.579286	0.436943	-0.000026
1865	1.8547e+02	1.4489	-5.695260	0.000246	2.456463	0.416136	-0.000025
1866	1.8557e+02	1.4397	-5.716034	0.000209	2.087994	0.353716	-0.000021
1867	1.8567e+02	1.4266	-5.737216	0.000213	2.128935	0.360651	-0.000021
1868	1.8577e+02	1.4164	-5.759213	0.000221	2.210817	0.374522	-0.000022
1869	1.8587e+02	1.4082	-5.782024	0.000229	2.292699	0.388394	-0.000023
1870	1.8597e+02	1.4012	-5.804020	0.000221	2.210817	0.374522	-0.000022
1871	1.8606e+02	1.3912	-5.823980	0.000201	2.006111	0.339844	-0.000020
1872	1.8616e+02	1.3782	-5.843940	0.000201	2.006111	0.339844	-0.000020
1873	1.8626e+02	1.3712	-5.869602	0.000258	2.579286	0.436943	-0.000026
1874	1.8636e+02	1.3568	-5.891599	0.000221	2.210817	0.374522	-0.000022
1875	1.8646e+02	1.3490	-5.916854	0.000254	2.538345	0.430007	-0.000025
1876	1.8656e+02	1.3367	-5.936407	0.000197	1.965170	0.332909	-0.000020
1877	1.8666e+02	1.3284	-5.962477	0.000262	2.620227	0.443879	-0.000026
1878	1.8676e+02	1.3177	-5.980807	0.000184	1.842347	0.312102	-0.000018
1879	1.8686e+02	1.3074	-6.003211	0.000225	2.251758	0.381458	-0.000023
1880	1.8696e+02	1.2969	-6.022356	0.000192	1.924229	0.325973	-0.000019
1881	1.8706e+02	1.2882	-6.048833	0.000266	2.661168	0.450814	-0.000027
1882	1.8716e+02	1.2785	-6.074903	0.000262	2.620227	0.443879	-0.000026
1883	1.8726e+02	1.2699	-6.093234	0.000184	1.842347	0.312102	-0.000018
1884	1.8736e+02	1.2600	-6.116452	0.000233	2.333640	0.395329	-0.000023
1885	1.8746e+02	1.2485	-6.138041	0.000217	2.169876	0.367587	-0.000022
1886	1.8756e+02	1.2397	-6.164519	0.000266	2.661168	0.450814	-0.000027
1887	1.8766e+02	1.2291	-6.187330	0.000229	2.292699	0.388394	-0.000023
1888	1.8776e+02	1.2193	-6.210548	0.000233	2.333640	0.395329	-0.000023
1889	1.8786e+02	1.2086	-6.237433	0.000270	2.702109	0.457750	-0.000027
1890	1.8796e+02	1.2015	-6.261059	0.000237	2.374581	0.402265	-0.000024
1891	1.8806e+02	1.1889	-6.285907	0.000250	2.497404	0.423072	-0.000025
1892	1.8815e+02	1.1794	-6.313606	0.000278	2.783991	0.471621	-0.000028
1893	1.8825e+02	1.1706	-6.336010	0.000225	2.251758	0.381458	-0.000023
1894	1.8835e+02	1.1630	-6.359228	0.000233	2.333640	0.395329	-0.000023
1895	1.8845e+02	1.1504	-6.386520	0.000274	2.743050	0.464685	-0.000027
1896	1.8855e+02	1.1411	-6.410553	0.000242	2.415522	0.409200	-0.000024
1897	1.8865e+02	1.1319	-6.436216	0.000258	2.579286	0.436943	-0.000026
1898	1.8875e+02	1.1203	-6.465545	0.000295	2.947756	0.499363	-0.000029
1899	1.8885e+02	1.1105	-6.486726	0.000213	2.128935	0.360651	-0.000021
1900	1.8895e+02	1.0991	-6.511574	0.000250	2.497404	0.423072	-0.000025
1901	1.8905e+02	1.0889	-6.534386	0.000229	2.292699	0.388394	-0.000023
1902	1.8915e+02	1.0785	-6.561677	0.000274	2.743050	0.464685	-0.000027
1903	1.8925e+02	1.0690	-6.586118	0.000246	2.456463	0.416136	-0.000025
1904	1.8935e+02	1.0593	-6.613003	0.000270	2.702109	0.457750	-0.000027
1905	1.8945e+02	1.0519	-6.636221	0.000233	2.333640	0.395329	-0.000023
1906	1.8955e+02	1.0426	-6.662291	0.000262	2.620227	0.443879	-0.000026
1907	1.8965e+02	1.0320	-6.691212	0.000291	2.906815	0.492428	-0.000029
1908	1.8975e+02	1.0196	-6.711580	0.000205	2.047052	0.346780	-0.000020
1909	1.8985e+02	1.0107	-6.741723	0.000303	3.029638	0.513235	-0.000030
1910	1.8995e+02	0.9997	-6.766571	0.000250	2.497404	0.423072	-0.000025
1911	1.9004e+02	0.9914	-6.791826	0.000254	2.538345	0.430007	-0.000025
1912	1.9014e+02	0.9824	-6.820340	0.000287	2.865873	0.485492	-0.000029
1913	1.9024e+02	0.9733	-6.844373	0.000242	2.415522	0.409200	-0.000024
1914	1.9034e+02	0.9607	-6.868814	0.000246	2.456463	0.416136	-0.000025
1915	1.9044e+02	0.9523	-6.892440	0.000237	2.374581	0.402265	-0.000024
1916	1.9054e+02	0.9402	-6.919324	0.000270	2.702109	0.457750	-0.000027
1917	1.9064e+02	0.9289	-6.947838	0.000287	2.865873	0.485492	-0.000029
1918	1.9074e+02	0.9204	-6.971464	0.000237	2.374581	0.402265	-0.000024
1919	1.9084e+02	0.9113	-6.997534	0.000262	2.620227	0.443879	-0.000026
1920	1.9094e+02	0.9004	-7.026455	0.000291	2.906815	0.492428	-0.000029
1921	1.9104e+02	0.8913	-7.057413	0.000311	3.111520	0.527106	-0.000031
1922	1.9114e+02	0.8804	-7.083891	0.000266	2.661168	0.450814	-0.000027
1923	1.9124e+02	0.8714	-7.115256	0.000315	3.152461	0.534041	-0.000032
1924	1.9134e+02	0.8630	-7.139289	0.000242	2.415522	0.409200	-0.000024
1925	1.9144e+02	0.8526	-7.168618	0.000295	2.947756	0.499363	-0.000029
1926	1.9154e+02	0.8434	-7.192651	0.000242	2.415522	0.409200	-0.000024
1927	1.9164e+02	0.8327	-7.224831	0.000323	3.234343	0.547913	-0.000032
1928	1.9174e+02	0.8211	-7.250086	0.000254	2.538345	0.430007	-0.000025
1929	1.9184e+02	0.8115	-7.274527	0.000246	2.456463	0.416136	-0.000025
1930	1.9194e+02	0.8014	-7.305078	0.000307	3.070579	0.520170	-0.000031
1931	1.9203e+02	0.7946	-7.328704	0.000237	2.374581	0.402265	-0.000024
1932	1.9213e+02	0.7825	-7.359662	0.000311	3.111520	0.527106	-0.000031
1933	1.9223e+02	0.7715	-7.389805	0.000303	3.029638	0.513235	-0.000030
1934	1.9233e+02	0.7603	-7.417097	0.000274	2.743050	0.464685	-0.000027
1935	1.9243e+02	0.7484	-7.445203	0.000282	2.824932	0.478557	-0.000028
1936	1.9253e+02	0.7408	-7.473310	0.000282	2.824932	0.478557	-0.000028
1937	1.9263e+02	0.7323	-7.500602	0.000274	2.743050	0.464685	-0.000027
1938	1.9273e+02	0.7238	-7.525857	0.000254	2.538345	0.430007	-0.000025
1939	1.9283e+02	0.7098	-7.549891	0.000242	2.415522	0.409200	-0.000024
1940	1.9293e+02	0.7018	-7.578812	0.000291	2.906815	0.492428	-0.000029
1941	1.9303e+02	0.6893	-7.606918	0.000282	2.824932	0.478557	-0.000028
1942	1.9313e+02	0.6832	-7.631766	0.000250	2.497404	0.423072	-0.000025
1943	1.9323e+02	0.6731	-7.659058	0.000274	2.743050	0.464685	-0.000027
1944	1.9333e+02	0.6613	-7.685536	0.000266	2.661168	0.450814	-0.000027
1945	1.9343e+02	0.6515	-7.711198	0.000258	2.579286	0.436943	-0.000026
1946	1.9353e+02	0.6454	-7.734824	0.000237	2.374581	0.402265	-0.000024
1947	1.9363e+02	0.6319	-7.762931	0.000282	2.824932	0.478557	-0.000028
1948	1.9373e+02	0.6232	-7.789408	0.000266	2.661168	0.450814	-0.000027
1949	1.9383e+02	0.6125	-7.817515	0.000282	2.824932	0.478557	-0.000028
1950	1.9393e+02	0.6015	-7.842362	0.000250	2.497404	0.423072	-0.000025
1951	1.9403e+02	0.5932	-7.869654	0.000274	2.743050	0.464685	-0.000027
1952	1.9412e+02	0.5834	-7.898983	0.000295	2.947756	0.499363	-0.000029
1953	1.9422e+02	0.5717	-7.927090	0.000282	2.824932	0.478557	-0.000028
1954	1.9432e+02	0.5637	-7.953160	0.000262	2.620227	0.443879	-0.000026
1955	1.9442e+02	0.5526	-7.980044	0.000270	2.702109	0.457750	-0.000027
1956	1.9452e+02	0.5415	-8.008558	0.000287	2.865873	0.485492	-0.000029
1957	1.9462e+02	0.5358	-8.038702	0.000303	3.029638	0.513235	-0.000030
1958	1.9472e+02	0.5228	-8.061920	0.000233	2.333640	0.395329	-0.000023
1959	1.9482e+02	0.5121	-8.087990	0.000262	2.620227	0.443879	-0.000026
1960	1.9492e+02	0.5050	-8.118948	0.000311	3.111520	0.527106	-0.000031
1961	1.9502e+02	0.4954	-8.147462	0.000287	2.865873	0.485492	-0.000029
1962	1.9512e+02	0.4822	-8.175976	0.000287	2.865873	0.485492	-0.000029
1963	1.9522e+02	0.4754	-8.198787	0.000229	2.292699	0.388394	-0.000023
1964	1.9532e+02	0.4630	-8.229745	0.000311	3.111520	0.527106	-0.000031
1965	1.9542e+02	0.4517	-8.255408	0.000258	2.579286	0.436943	-0.000026
1966	1.9552e+02	0.4434	-8.280256	0.000250	2.497404	0.423072	-0.000025
1967	1.9562e+02	0.4335	-8.310399	0.000303	3.029638	0.513235	-0.000030
1968	1.9572e+02	0.4203	-8.334840	0.000246	2.456463	0.416136	-0.000025
1969	1.9582e+02	0.4148	-8.367020	0.000323	3.234343	0.547913	-0.000032
1970	1.9592e+02	0.4023	-8.388609	0.000217	2.169876	0.367587	-0.000022
1971	1.9601e+02	0.3938	-8.415901	0.000274	2.743050	0.464685	-0.000027
1972	1.9611e+02	0.3821	-8.442378	0.000266	2.661168	0.450814	-0.000027
1973	1.9621e+02	0.3735	-8.467226	0.000250	2.497404	0.423072	-0.000025
1974	1.9631e+02	0.3632	-8.491666	0.000246	2.456463	0.416136	-0.000025
1975	1.9641e+02	0.3526	-8.515700	0.000242	2.415522	0.409200	-0.000024
1976	1.9651e+02	0.3458	-8.543399	0.000278	2.783991	0.471621	-0.000028
1977	1.9661e+02	0.3347	-8.569062	0.000258	2.579286	0.436943	-0.000026
1978	1.9671e+02	0.3271	-8.595539	0.000266	2.661168	0.450814	-0.000027
1979	1.9681e+02	0.3149	-8.621201	0.000258	2.579286	0.436943	-0.000026
1980	1.9691e+02	0.3049	-8.644420	0.000233	2.333640	0.395329	-0.000023
1981	1.9701e+02	0.2937	-8.670897	0.000266	2.661168	0.450814	-0.000027
1982	1.9711e+02	0.2832	-8.695745	0.000250	2.497404	0.423072	-0.000025
1983	1.9721e+02	0.2730	-8.724666	0.000291	2.906815	0.492428	-0.000029
1984	1.9731e+02	0.2631	-8.746256	0.000217	2.169876	0.367587	-0.000022
1985	1.9741e+02	0.2553	-8.774362	0.000282	2.824932	0.478557	-0.000028
1986	1.9751e+02	0.2467	-8.795951	0.000217	2.169876	0.367587	-0.000022
1987	1.9761e+02	0.2349	-8.825687	0.000299	2.988697	0.506299	-0.000030
1988	1.9771e+02	0.2268	-8.848499	0.000229	2.292699	0.388394	-0.000023
1989	1.9781e+02	0.2149	-8.874568	0.000262	2.620227	0.443879	-0.000026
1990	1.9791e+02	0.2036	-8.895750	0.000213	2.128935	0.360651	-0.000021
1991	1.9800e+02	0.1944	-8.923042	0.000274	2.743050	0.464685	-0.000027
1992	1.9810e+02	0.1856	-8.949520	0.000266	2.661168	0.450814	-0.000027
1993	1.9820e+02	0.1747	-8.975589	0.000262	2.620227	0.443879	-0.000026
1994	1.9830e+02	0.1662	-9.000437	0.000250	2.497404	0.423072	-0.000025
1995	1.9840e+02	0.1548	-9.026507	0.000262	2.620227	0.443879	-0.000026
1996	1.9850e+02	0.1466	-9.052985	0.000266	2.661168	0.450814	-0.000027
1997	1.9860e+02	0.1364	-9.076203	0.000233	2.333640	0.395329	-0.000023
1998	1.9870e+02	0.1254	-9.105532	0.000295	2.947756	0.499363	-0.000029
1999	1.9880e+02	0.1151	-9.128750	0.000233	2.333640	0.395329	-0.000023
2000	1.9890e+02	0.1056	-9.156042	0.000274	2.743050	0.464685	-0.000027
2001	1.9900e+02	0.0956	-9.180075	0.000242	2.415522	0.409200	-0.000024
2002	1.9910e+02	0.0845	-9.205738	0.000258	2.579286	0.436943	-0.000026
2003	1.9920e+02	0.0728	-9.229364	0.000237	2.374581	0.402265	-0.000024
2004	1.9930e+02	0.0647	-9.255026	0.000258	2.579286	0.436943	-0.000026
2005	1.9940e+02	0.0572	-9.274172	0.000192	1.924229	0.325973	-0.000019
2006	1.9950e+02	0.0462	-9.295761	0.000217	2.169876	0.367587	-0.000022
2007	1.9960e+02	0.0368	-9.320201	0.000246	2.456463	0.416136	-0.000025
2008	1.9970e+02	0.0253	-9.345456	0.000254	2.538345	0.430007	-0.000025
2009	1.9980e+02	0.0149	-9.368675	0.000233	2.333640	0.395329	-0.000023
2010	1.9990e+02	0.0057	-9.390672	0.000221	2.210817	0.374522	-0.000022
2011	2.0000e+02	-0.0038	-9.418371	0.000221	2.210817	0.374522	-0.000028

PMax (uC/cm2):	2.11e+01
Pr (uC/cm2):	1.14e+00
-Pr (uC/cm2):	0.00e+00
PLoss (uC/cm2):	0.00e+00
C (Max-Eff) (nF):	2.11e-01
K (Eff):	3.58e+02
Vert. (+/-Pr) Shift (uC/cm2):	5.70e-01
Offset (uC/cm2):	1.06e+01

A (Loop Area - uC/cm2·Volts):	-1.15e-02



Hysteresis Version: 5.48.1 - Radiant Technologies, Inc., 1999 - 9/12/24

