»»»»»»»»»»»»»»»»»»»»»»»»»»»»»»»»»»»» Hysteresis ««««««««««««««««««««««««««««««««««««
»»»  Executed Version:	5.48.1
»»»  Vision Version:	5.48.4 (R)
»»»  Vision Compiled:	9/18/24
»»»  Driver Version:	5.47.0
»»»  Windows Version:	Windows 8 or 8.1
»»»  Processor Information:	x86 (AMD or Intel) - 32 Processors
»»»  Tester Name:	PMF21124-494 (100V)
»»»  Tester S/N:	PMF21124-494
»»»  Internal Amp Type:	100V RevK 270k
»»»  Internal Amp S/N:	iAB2-596/K     
»»»  Execution Count:	1
»»»»»»»»»»»»»»»»»»»»»»»»»»»»»»»»»»»»»»»»»»««««««««««««««««««««««««««««««««««««««««««

Stored:	6/26/2025 - 14:10:25
Configured:	06/26/25 10:24:47 AM
Executed:	06/26/25 02:09:39 PM

»»»»»»»»»»»»»»»»»»»»»»»»»»»»»»»»»»» Sample Info ««««««««««««««««««««««««««««««««««««
Sample Name:	
Lot Name:	
Wafer Name:	
Die Row/Column:	0/0
Capacitor Number:	0
Sample Area (cm2):	1.00e-04
Sample Thickness (microns):	1.50e-01

Amplifier:	Internal

»»»»»»»»»»»»»»»»»»»»»»»»»»»»»»»»»»» Tester Info «««««««««««««««««««««««««««««««««««
Tester Name:	PMF21124-494 (100V)
Tester Serial Number:	PMF21124-494
Return Signal Amp. Level:	0.19 [Index: 3]

»»»»»»»»»»»»»»»»»»»»»»»»»»»»»»»» Hysteresis Info ««««««««««««««««««««««««««««««««««
Task Name:	Hyst-562
Volts:	10.00
Field:	666.67 (kV/cm)
DCBias:	0.00
DCField:	0.00 (kV/cm)
Hysteresis Period (ms):	2.00e+02
Preset:	Enabled
Preset Delay (ms):	1.00e+03
Profile:	Standard Monopolar

»»»»»»»»»»»»»»»»»»»»»»»»»»»»»»»»»»»»»» Data «««««««««««««««««««««««««««««««««««««««
Points:	2011

Valid Data

Point	Time (ms)	Drive Voltage	Measured Polarization (uC/cm2)	Capacitance (uF)	Normalized Capacitance (uF/cm2)	Dielectric Constant	Instantaneous Current (mA)
   1	0.0000e+00	-0.0003	-23.001581	0.000081	0.811548	0.137480	0.000008
   2	9.9500e-02	0.0093	-22.993507	0.000081	0.811548	0.137480	0.000008
   3	1.9900e-01	0.0190	-23.009655	-0.000162	-1.623096	-0.274960	-0.000016
   4	2.9850e-01	0.0287	-22.953135	0.000568	5.680835	0.962360	0.000057
   5	3.9800e-01	0.0391	-22.932950	0.000203	2.028870	0.343700	0.000020
   6	4.9750e-01	0.0484	-22.908727	0.000243	2.434644	0.412440	0.000024
   7	5.9700e-01	0.0589	-22.888541	0.000203	2.028870	0.343700	0.000020
   8	6.9650e-01	0.0687	-22.880467	0.000081	0.811548	0.137480	0.000008
   9	7.9600e-01	0.0784	-22.856244	0.000243	2.434644	0.412440	0.000024
  10	8.9550e-01	0.0880	-22.872393	-0.000162	-1.623096	-0.274960	-0.000016
  11	9.9500e-01	0.0990	-22.827984	0.000446	4.463513	0.756140	0.000045
  12	1.0945e+00	0.1080	-22.807798	0.000203	2.028870	0.343700	0.000020
  13	1.1940e+00	0.1192	-22.803761	0.000041	0.405774	0.068740	0.000004
  14	1.2935e+00	0.1278	-22.775501	0.000284	2.840418	0.481180	0.000028
  15	1.3930e+00	0.1384	-22.739167	0.000365	3.651965	0.618660	0.000037
  16	1.4925e+00	0.1492	-22.727056	0.000122	1.217322	0.206220	0.000012
  17	1.5920e+00	0.1584	-22.706870	0.000203	2.028870	0.343700	0.000020
  18	1.6915e+00	0.1696	-22.698796	0.000081	0.811548	0.137480	0.000008
  19	1.7910e+00	0.1785	-22.646313	0.000528	5.275061	0.893620	0.000053
  20	1.8905e+00	0.1878	-22.662461	-0.000162	-1.623096	-0.274960	-0.000016
  21	1.9900e+00	0.1987	-22.614016	0.000487	4.869287	0.824880	0.000049
  22	2.0895e+00	0.2077	-22.577682	0.000365	3.651965	0.618660	0.000037
  23	2.1890e+00	0.2189	-22.597867	-0.000203	-2.028870	-0.343700	-0.000020
  24	2.2885e+00	0.2274	-22.541347	0.000568	5.680835	0.962360	0.000057
  25	2.3880e+00	0.2378	-22.569607	-0.000284	-2.840418	-0.481180	-0.000028
  26	2.4875e+00	0.2482	-22.517125	0.000528	5.275061	0.893620	0.000053
  27	2.5870e+00	0.2579	-22.464642	0.000528	5.275061	0.893620	0.000053
  28	2.6865e+00	0.2681	-22.452530	0.000122	1.217322	0.206220	0.000012
  29	2.7860e+00	0.2782	-22.420233	0.000325	3.246191	0.549920	0.000032
  30	2.8855e+00	0.2876	-22.452530	-0.000325	-3.246191	-0.549920	-0.000032
  31	2.9850e+00	0.2973	-22.424270	0.000284	2.840418	0.481180	0.000028
  32	3.0845e+00	0.3076	-22.367751	0.000568	5.680835	0.962360	0.000057
  33	3.1840e+00	0.3174	-22.335453	0.000325	3.246191	0.549920	0.000032
  34	3.2835e+00	0.3270	-22.327379	0.000081	0.811548	0.137480	0.000008
  35	3.3830e+00	0.3384	-22.278934	0.000487	4.869287	0.824880	0.000049
  36	3.4825e+00	0.3481	-22.274896	0.000041	0.405774	0.068740	0.000004
  37	3.5820e+00	0.3577	-22.282971	-0.000081	-0.811548	-0.137480	-0.000008
  38	3.6815e+00	0.3679	-22.230488	0.000528	5.275061	0.893620	0.000053
  39	3.7810e+00	0.3770	-22.222414	0.000081	0.811548	0.137480	0.000008
  40	3.8805e+00	0.3866	-22.202228	0.000203	2.028870	0.343700	0.000020
  41	3.9800e+00	0.3981	-22.161857	0.000406	4.057739	0.687400	0.000041
  42	4.0795e+00	0.4073	-22.141671	0.000203	2.028870	0.343700	0.000020
  43	4.1790e+00	0.4179	-22.129560	0.000122	1.217322	0.206220	0.000012
  44	4.2785e+00	0.4270	-22.129560	0.000000	0.000000	0.000000	0.000000
  45	4.3780e+00	0.4373	-22.069003	0.000609	6.086609	1.031099	0.000061
  46	4.4775e+00	0.4472	-22.048817	0.000203	2.028870	0.343700	0.000020
  47	4.5770e+00	0.4565	-22.048817	0.000000	0.000000	0.000000	0.000000
  48	4.6765e+00	0.4678	-22.000371	0.000487	4.869287	0.824880	0.000049
  49	4.7760e+00	0.4769	-21.972111	0.000284	2.840418	0.481180	0.000028
  50	4.8755e+00	0.4874	-22.012483	-0.000406	-4.057739	-0.687400	-0.000041
  51	4.9750e+00	0.4968	-21.947888	0.000649	6.492383	1.099839	0.000065
  52	5.0745e+00	0.5070	-21.927703	0.000203	2.028870	0.343700	0.000020
  53	5.1740e+00	0.5167	-21.895406	0.000325	3.246191	0.549920	0.000032
  54	5.2735e+00	0.5267	-21.871183	0.000243	2.434644	0.412440	0.000024
  55	5.3730e+00	0.5370	-21.846960	0.000243	2.434644	0.412440	0.000024
  56	5.4725e+00	0.5464	-21.855034	-0.000081	-0.811548	-0.137480	-0.000008
  57	5.5720e+00	0.5562	-21.806589	0.000487	4.869287	0.824880	0.000049
  58	5.6715e+00	0.5680	-21.778329	0.000284	2.840418	0.481180	0.000028
  59	5.7710e+00	0.5773	-21.790440	-0.000122	-1.217322	-0.206220	-0.000012
  60	5.8705e+00	0.5876	-21.729883	0.000609	6.086609	1.031099	0.000061
  61	5.9700e+00	0.5954	-21.705660	0.000243	2.434644	0.412440	0.000024
  62	6.0695e+00	0.6068	-21.669326	0.000365	3.651965	0.618660	0.000037
  63	6.1690e+00	0.6164	-21.661252	0.000081	0.811548	0.137480	0.000008
  64	6.2685e+00	0.6263	-21.645103	0.000162	1.623096	0.274960	0.000016
  65	6.3680e+00	0.6361	-21.580509	0.000649	6.492383	1.099839	0.000065
  66	6.4675e+00	0.6461	-21.568398	0.000122	1.217322	0.206220	0.000012
  67	6.5670e+00	0.6561	-21.568398	0.000000	0.000000	0.000000	0.000000
  68	6.6665e+00	0.6663	-21.519952	0.000487	4.869287	0.824880	0.000049
  69	6.7660e+00	0.6759	-21.491692	0.000284	2.840418	0.481180	0.000028
  70	6.8655e+00	0.6862	-21.471506	0.000203	2.028870	0.343700	0.000020
  71	6.9650e+00	0.6956	-21.463432	0.000081	0.811548	0.137480	0.000008
  72	7.0645e+00	0.7058	-21.431135	0.000325	3.246191	0.549920	0.000032
  73	7.1640e+00	0.7156	-21.410949	0.000203	2.028870	0.343700	0.000020
  74	7.2635e+00	0.7253	-21.423061	-0.000122	-1.217322	-0.206220	-0.000012
  75	7.3630e+00	0.7362	-21.350392	0.000730	7.303931	1.237319	0.000073
  76	7.4625e+00	0.7457	-21.350392	0.000000	0.000000	0.000000	0.000000
  77	7.5620e+00	0.7552	-21.330207	0.000203	2.028870	0.343700	0.000020
  78	7.6615e+00	0.7663	-21.297910	0.000325	3.246191	0.549920	0.000032
  79	7.7610e+00	0.7756	-21.229278	0.000690	6.898157	1.168579	0.000069
  80	7.8605e+00	0.7854	-21.237353	-0.000081	-0.811548	-0.137480	-0.000008
  81	7.9600e+00	0.7954	-21.217167	0.000203	2.028870	0.343700	0.000020
  82	8.0595e+00	0.8044	-21.196981	0.000203	2.028870	0.343700	0.000020
  83	8.1590e+00	0.8160	-21.156610	0.000406	4.057739	0.687400	0.000041
  84	8.2585e+00	0.8254	-21.120276	0.000365	3.651965	0.618660	0.000037
  85	8.3580e+00	0.8353	-21.136424	-0.000162	-1.623096	-0.274960	-0.000016
  86	8.4575e+00	0.8452	-21.092016	0.000446	4.463513	0.756140	0.000045
  87	8.5570e+00	0.8556	-21.067793	0.000243	2.434644	0.412440	0.000024
  88	8.6565e+00	0.8650	-21.031459	0.000365	3.651965	0.618660	0.000037
  89	8.7560e+00	0.8749	-21.031459	0.000000	0.000000	0.000000	0.000000
  90	8.8555e+00	0.8847	-20.966864	0.000649	6.492383	1.099839	0.000065
  91	8.9550e+00	0.8955	-20.966864	0.000000	0.000000	0.000000	0.000000
  92	9.0545e+00	0.9044	-20.950716	0.000162	1.623096	0.274960	0.000016
  93	9.1540e+00	0.9149	-20.930530	0.000203	2.028870	0.343700	0.000020
  94	9.2535e+00	0.9248	-20.894196	0.000365	3.651965	0.618660	0.000037
  95	9.3530e+00	0.9352	-20.869973	0.000243	2.434644	0.412440	0.000024
  96	9.4525e+00	0.9447	-20.861899	0.000081	0.811548	0.137480	0.000008
  97	9.5520e+00	0.9546	-20.809416	0.000528	5.275061	0.893620	0.000053
  98	9.6515e+00	0.9647	-20.797305	0.000122	1.217322	0.206220	0.000012
  99	9.7510e+00	0.9746	-20.813453	-0.000162	-1.623096	-0.274960	-0.000016
 100	9.8505e+00	0.9851	-20.765008	0.000487	4.869287	0.824880	0.000049
 101	9.9500e+00	0.9943	-20.704451	0.000609	6.086609	1.031099	0.000061
 102	1.0050e+01	1.0046	-20.728673	-0.000243	-2.434644	-0.412440	-0.000024
 103	1.0149e+01	1.0148	-20.672154	0.000568	5.680835	0.962360	0.000057
 104	1.0248e+01	1.0235	-20.651968	0.000203	2.028870	0.343700	0.000020
 105	1.0348e+01	1.0346	-20.676191	-0.000243	-2.434644	-0.412440	-0.000024
 106	1.0447e+01	1.0442	-20.619671	0.000568	5.680835	0.962360	0.000057
 107	1.0547e+01	1.0547	-20.631782	-0.000122	-1.217322	-0.206220	-0.000012
 108	1.0646e+01	1.0640	-20.587374	0.000446	4.463513	0.756140	0.000045
 109	1.0746e+01	1.0746	-20.559114	0.000284	2.840418	0.481180	0.000028
 110	1.0845e+01	1.0843	-20.555077	0.000041	0.405774	0.068740	0.000004
 111	1.0945e+01	1.0939	-20.542965	0.000122	1.217322	0.206220	0.000012
 112	1.1044e+01	1.1044	-20.502594	0.000406	4.057739	0.687400	0.000041
 113	1.1144e+01	1.1146	-20.502594	0.000000	0.000000	0.000000	0.000000
 114	1.1243e+01	1.1238	-20.466260	0.000365	3.651965	0.618660	0.000037
 115	1.1343e+01	1.1345	-20.438000	0.000284	2.840418	0.481180	0.000028
 116	1.1443e+01	1.1440	-20.417814	0.000203	2.028870	0.343700	0.000020
 117	1.1542e+01	1.1543	-20.349183	0.000690	6.898157	1.168579	0.000069
 118	1.1642e+01	1.1645	-20.353220	-0.000041	-0.405774	-0.068740	-0.000004
 119	1.1741e+01	1.1734	-20.353220	0.000000	0.000000	0.000000	0.000000
 120	1.1841e+01	1.1839	-20.349183	0.000041	0.405774	0.068740	0.000004
 121	1.1940e+01	1.1933	-20.320923	0.000284	2.840418	0.481180	0.000028
 122	1.2040e+01	1.2038	-20.296700	0.000243	2.434644	0.412440	0.000024
 123	1.2139e+01	1.2128	-20.248254	0.000487	4.869287	0.824880	0.000049
 124	1.2239e+01	1.2234	-20.280551	-0.000325	-3.246191	-0.549920	-0.000032
 125	1.2338e+01	1.2334	-20.224031	0.000568	5.680835	0.962360	0.000057
 126	1.2438e+01	1.2441	-20.203846	0.000203	2.028870	0.343700	0.000020
 127	1.2537e+01	1.2527	-20.175586	0.000284	2.840418	0.481180	0.000028
 128	1.2636e+01	1.2624	-20.155400	0.000203	2.028870	0.343700	0.000020
 129	1.2736e+01	1.2723	-20.147326	0.000081	0.811548	0.137480	0.000008
 130	1.2835e+01	1.2830	-20.123103	0.000243	2.434644	0.412440	0.000024
 131	1.2935e+01	1.2936	-20.074657	0.000487	4.869287	0.824880	0.000049
 132	1.3034e+01	1.3023	-20.106955	-0.000325	-3.246191	-0.549920	-0.000032
 133	1.3134e+01	1.3124	-20.062546	0.000446	4.463513	0.756140	0.000045
 134	1.3233e+01	1.3229	-20.030249	0.000325	3.246191	0.549920	0.000032
 135	1.3333e+01	1.3322	-19.985840	0.000446	4.463513	0.756140	0.000045
 136	1.3432e+01	1.3435	-19.981803	0.000041	0.405774	0.068740	0.000004
 137	1.3532e+01	1.3522	-19.929321	0.000528	5.275061	0.893620	0.000053
 138	1.3632e+01	1.3618	-19.953543	-0.000243	-2.434644	-0.412440	-0.000024
 139	1.3731e+01	1.3721	-19.953543	0.000000	0.000000	0.000000	0.000000
 140	1.3831e+01	1.3821	-19.929321	0.000243	2.434644	0.412440	0.000024
 141	1.3930e+01	1.3919	-19.888949	0.000406	4.057739	0.687400	0.000041
 142	1.4030e+01	1.4014	-19.888949	0.000000	0.000000	0.000000	0.000000
 143	1.4129e+01	1.4123	-19.852615	0.000365	3.651965	0.618660	0.000037
 144	1.4229e+01	1.4222	-19.844541	0.000081	0.811548	0.137480	0.000008
 145	1.4328e+01	1.4323	-19.820318	0.000243	2.434644	0.412440	0.000024
 146	1.4428e+01	1.4421	-19.820318	0.000000	0.000000	0.000000	0.000000
 147	1.4527e+01	1.4522	-19.816281	0.000041	0.405774	0.068740	0.000004
 148	1.4627e+01	1.4612	-19.747649	0.000690	6.898157	1.168579	0.000069
 149	1.4726e+01	1.4719	-19.739575	0.000081	0.811548	0.137480	0.000008
 150	1.4825e+01	1.4822	-19.719390	0.000203	2.028870	0.343700	0.000020
 151	1.4925e+01	1.4913	-19.674981	0.000446	4.463513	0.756140	0.000045
 152	1.5024e+01	1.5020	-19.679018	-0.000041	-0.405774	-0.068740	-0.000004
 153	1.5124e+01	1.5115	-19.683055	-0.000041	-0.405774	-0.068740	-0.000004
 154	1.5223e+01	1.5221	-19.658832	0.000243	2.434644	0.412440	0.000024
 155	1.5323e+01	1.5324	-19.638647	0.000203	2.028870	0.343700	0.000020
 156	1.5422e+01	1.5406	-19.602313	0.000365	3.651965	0.618660	0.000037
 157	1.5522e+01	1.5517	-19.578090	0.000243	2.434644	0.412440	0.000024
 158	1.5621e+01	1.5611	-19.570015	0.000081	0.811548	0.137480	0.000008
 159	1.5721e+01	1.5711	-19.549830	0.000203	2.028870	0.343700	0.000020
 160	1.5820e+01	1.5811	-19.537718	0.000122	1.217322	0.206220	0.000012
 161	1.5920e+01	1.5917	-19.517533	0.000203	2.028870	0.343700	0.000020
 162	1.6020e+01	1.6006	-19.469087	0.000487	4.869287	0.824880	0.000049
 163	1.6119e+01	1.6113	-19.489273	-0.000203	-2.028870	-0.343700	-0.000020
 164	1.6218e+01	1.6212	-19.461013	0.000284	2.840418	0.481180	0.000028
 165	1.6318e+01	1.6308	-19.428716	0.000325	3.246191	0.549920	0.000032
 166	1.6418e+01	1.6411	-19.412567	0.000162	1.623096	0.274960	0.000016
 167	1.6517e+01	1.6513	-19.408530	0.000041	0.405774	0.068740	0.000004
 168	1.6616e+01	1.6609	-19.364122	0.000446	4.463513	0.756140	0.000045
 169	1.6716e+01	1.6711	-19.396419	-0.000325	-3.246191	-0.549920	-0.000032
 170	1.6816e+01	1.6801	-19.347973	0.000487	4.869287	0.824880	0.000049
 171	1.6915e+01	1.6905	-19.360084	-0.000122	-1.217322	-0.206220	-0.000012
 172	1.7015e+01	1.7004	-19.287416	0.000730	7.303931	1.237319	0.000073
 173	1.7114e+01	1.7102	-19.267230	0.000203	2.028870	0.343700	0.000020
 174	1.7213e+01	1.7205	-19.275305	-0.000081	-0.811548	-0.137480	-0.000008
 175	1.7313e+01	1.7311	-19.243007	0.000325	3.246191	0.549920	0.000032
 176	1.7413e+01	1.7398	-19.234933	0.000081	0.811548	0.137480	0.000008
 177	1.7512e+01	1.7506	-19.194562	0.000406	4.057739	0.687400	0.000041
 178	1.7611e+01	1.7606	-19.186488	0.000081	0.811548	0.137480	0.000008
 179	1.7711e+01	1.7712	-19.182450	0.000041	0.405774	0.068740	0.000004
 180	1.7811e+01	1.7818	-19.150153	0.000325	3.246191	0.549920	0.000032
 181	1.7910e+01	1.7901	-19.134005	0.000162	1.623096	0.274960	0.000016
 182	1.8009e+01	1.8009	-19.093633	0.000406	4.057739	0.687400	0.000041
 183	1.8109e+01	1.8105	-19.105745	-0.000122	-1.217322	-0.206220	-0.000012
 184	1.8209e+01	1.8202	-19.065374	0.000406	4.057739	0.687400	0.000041
 185	1.8308e+01	1.8298	-19.057299	0.000081	0.811548	0.137480	0.000008
 186	1.8407e+01	1.8397	-19.049225	0.000081	0.811548	0.137480	0.000008
 187	1.8507e+01	1.8505	-19.000779	0.000487	4.869287	0.824880	0.000049
 188	1.8607e+01	1.8604	-18.968482	0.000325	3.246191	0.549920	0.000032
 189	1.8706e+01	1.8704	-18.968482	0.000000	0.000000	0.000000	0.000000
 190	1.8805e+01	1.8789	-18.924074	0.000446	4.463513	0.756140	0.000045
 191	1.8905e+01	1.8903	-18.920037	0.000041	0.405774	0.068740	0.000004
 192	1.9005e+01	1.8998	-18.899851	0.000203	2.028870	0.343700	0.000020
 193	1.9104e+01	1.9092	-18.895814	0.000041	0.405774	0.068740	0.000004
 194	1.9203e+01	1.9196	-18.863517	0.000325	3.246191	0.549920	0.000032
 195	1.9303e+01	1.9295	-18.855442	0.000081	0.811548	0.137480	0.000008
 196	1.9402e+01	1.9393	-18.794885	0.000609	6.086609	1.031099	0.000061
 197	1.9502e+01	1.9488	-18.790848	0.000041	0.405774	0.068740	0.000004
 198	1.9602e+01	1.9591	-18.790848	0.000000	0.000000	0.000000	0.000000
 199	1.9701e+01	1.9701	-18.758551	0.000325	3.246191	0.549920	0.000032
 200	1.9800e+01	1.9798	-18.726254	0.000325	3.246191	0.549920	0.000032
 201	1.9900e+01	1.9894	-18.697994	0.000284	2.840418	0.481180	0.000028
 202	2.0000e+01	1.9994	-18.681846	0.000162	1.623096	0.274960	0.000016
 203	2.0099e+01	2.0097	-18.693957	-0.000122	-1.217322	-0.206220	-0.000012
 204	2.0198e+01	2.0190	-18.629363	0.000649	6.492383	1.099839	0.000065
 205	2.0298e+01	2.0293	-18.617251	0.000122	1.217322	0.206220	0.000012
 206	2.0398e+01	2.0387	-18.621289	-0.000041	-0.405774	-0.068740	-0.000004
 207	2.0497e+01	2.0495	-18.580917	0.000406	4.057739	0.687400	0.000041
 208	2.0596e+01	2.0589	-18.548620	0.000325	3.246191	0.549920	0.000032
 209	2.0696e+01	2.0692	-18.512286	0.000365	3.651965	0.618660	0.000037
 210	2.0796e+01	2.0788	-18.512286	0.000000	0.000000	0.000000	0.000000
 211	2.0895e+01	2.0895	-18.500175	0.000122	1.217322	0.206220	0.000012
 212	2.0994e+01	2.0991	-18.467877	0.000325	3.246191	0.549920	0.000032
 213	2.1094e+01	2.1091	-18.403283	0.000649	6.492383	1.099839	0.000065
 214	2.1194e+01	2.1193	-18.471915	-0.000690	-6.898157	-1.168579	-0.000069
 215	2.1293e+01	2.1284	-18.350800	0.001217	12.173218	2.062199	0.000122
 216	2.1392e+01	2.1389	-18.330615	0.000203	2.028870	0.343700	0.000020
 217	2.1492e+01	2.1481	-18.358875	-0.000284	-2.840418	-0.481180	-0.000028
 218	2.1591e+01	2.1588	-18.334652	0.000243	2.434644	0.412440	0.000024
 219	2.1691e+01	2.1693	-18.326578	0.000081	0.811548	0.137480	0.000008
 220	2.1791e+01	2.1788	-18.286206	0.000406	4.057739	0.687400	0.000041
 221	2.1890e+01	2.1889	-18.257946	0.000284	2.840418	0.481180	0.000028
 222	2.1989e+01	2.1980	-18.245835	0.000122	1.217322	0.206220	0.000012
 223	2.2089e+01	2.2085	-18.213538	0.000325	3.246191	0.549920	0.000032
 224	2.2189e+01	2.2188	-18.173167	0.000406	4.057739	0.687400	0.000041
 225	2.2288e+01	2.2281	-18.152981	0.000203	2.028870	0.343700	0.000020
 226	2.2387e+01	2.2375	-18.140869	0.000122	1.217322	0.206220	0.000012
 227	2.2487e+01	2.2478	-18.140869	0.000000	0.000000	0.000000	0.000000
 228	2.2587e+01	2.2585	-18.108572	0.000325	3.246191	0.549920	0.000032
 229	2.2686e+01	2.2683	-18.052052	0.000568	5.680835	0.962360	0.000057
 230	2.2785e+01	2.2777	-18.068201	-0.000162	-1.623096	-0.274960	-0.000016
 231	2.2885e+01	2.2879	-18.035904	0.000325	3.246191	0.549920	0.000032
 232	2.2985e+01	2.2973	-17.995533	0.000406	4.057739	0.687400	0.000041
 233	2.3084e+01	2.3077	-17.979384	0.000162	1.623096	0.274960	0.000016
 234	2.3183e+01	2.3175	-17.971310	0.000081	0.811548	0.137480	0.000008
 235	2.3283e+01	2.3284	-17.955161	0.000162	1.623096	0.274960	0.000016
 236	2.3383e+01	2.3387	-17.918827	0.000365	3.651965	0.618660	0.000037
 237	2.3482e+01	2.3486	-17.906716	0.000122	1.217322	0.206220	0.000012
 238	2.3581e+01	2.3579	-17.862307	0.000446	4.463513	0.756140	0.000045
 239	2.3681e+01	2.3671	-17.850196	0.000122	1.217322	0.206220	0.000012
 240	2.3780e+01	2.3782	-17.838084	0.000122	1.217322	0.206220	0.000012
 241	2.3880e+01	2.3880	-17.793676	0.000446	4.463513	0.756140	0.000045
 242	2.3980e+01	2.3978	-17.765416	0.000284	2.840418	0.481180	0.000028
 243	2.4079e+01	2.4079	-17.745230	0.000203	2.028870	0.343700	0.000020
 244	2.4178e+01	2.4178	-17.729082	0.000162	1.623096	0.274960	0.000016
 245	2.4278e+01	2.4271	-17.704859	0.000243	2.434644	0.412440	0.000024
 246	2.4378e+01	2.4371	-17.680636	0.000243	2.434644	0.412440	0.000024
 247	2.4477e+01	2.4467	-17.688710	-0.000081	-0.811548	-0.137480	-0.000008
 248	2.4576e+01	2.4578	-17.644302	0.000446	4.463513	0.756140	0.000045
 249	2.4676e+01	2.4668	-17.571633	0.000730	7.303931	1.237319	0.000073
 250	2.4776e+01	2.4773	-17.571633	0.000000	0.000000	0.000000	0.000000
 251	2.4875e+01	2.4872	-17.595856	-0.000243	-2.434644	-0.412440	-0.000024
 252	2.4974e+01	2.4976	-17.539336	0.000568	5.680835	0.962360	0.000057
 253	2.5074e+01	2.5066	-17.507039	0.000325	3.246191	0.549920	0.000032
 254	2.5174e+01	2.5169	-17.482816	0.000243	2.434644	0.412440	0.000024
 255	2.5273e+01	2.5271	-17.450519	0.000325	3.246191	0.549920	0.000032
 256	2.5372e+01	2.5363	-17.430334	0.000203	2.028870	0.343700	0.000020
 257	2.5472e+01	2.5452	-17.410148	0.000203	2.028870	0.343700	0.000020
 258	2.5572e+01	2.5565	-17.398036	0.000122	1.217322	0.206220	0.000012
 259	2.5671e+01	2.5678	-17.377851	0.000203	2.028870	0.343700	0.000020
 260	2.5770e+01	2.5758	-17.373814	0.000041	0.405774	0.068740	0.000004
 261	2.5870e+01	2.5864	-17.268848	0.001055	10.550122	1.787239	0.000105
 262	2.5970e+01	2.5960	-17.309219	-0.000406	-4.057739	-0.687400	-0.000041
 263	2.6069e+01	2.6060	-17.264811	0.000446	4.463513	0.756140	0.000045
 264	2.6169e+01	2.6157	-17.248662	0.000162	1.623096	0.274960	0.000016
 265	2.6268e+01	2.6272	-17.212328	0.000365	3.651965	0.618660	0.000037
 266	2.6367e+01	2.6363	-17.224440	-0.000122	-1.217322	-0.206220	-0.000012
 267	2.6467e+01	2.6466	-17.175994	0.000487	4.869287	0.824880	0.000049
 268	2.6567e+01	2.6556	-17.196180	-0.000203	-2.028870	-0.343700	-0.000020
 269	2.6666e+01	2.6654	-17.135623	0.000609	6.086609	1.031099	0.000061
 270	2.6765e+01	2.6769	-17.131586	0.000041	0.405774	0.068740	0.000004
 271	2.6865e+01	2.6859	-17.103326	0.000284	2.840418	0.481180	0.000028
 272	2.6965e+01	2.6958	-17.079103	0.000243	2.434644	0.412440	0.000024
 273	2.7064e+01	2.7056	-17.083140	-0.000041	-0.405774	-0.068740	-0.000004
 274	2.7163e+01	2.7153	-17.042769	0.000406	4.057739	0.687400	0.000041
 275	2.7263e+01	2.7254	-17.042769	0.000000	0.000000	0.000000	0.000000
 276	2.7363e+01	2.7363	-16.982211	0.000609	6.086609	1.031099	0.000061
 277	2.7462e+01	2.7457	-16.974137	0.000081	0.811548	0.137480	0.000008
 278	2.7561e+01	2.7555	-16.962026	0.000122	1.217322	0.206220	0.000012
 279	2.7661e+01	2.7654	-16.921654	0.000406	4.057739	0.687400	0.000041
 280	2.7761e+01	2.7750	-16.913580	0.000081	0.811548	0.137480	0.000008
 281	2.7860e+01	2.7854	-16.873209	0.000406	4.057739	0.687400	0.000041
 282	2.7959e+01	2.7959	-16.857060	0.000162	1.623096	0.274960	0.000016
 283	2.8059e+01	2.8059	-16.853023	0.000041	0.405774	0.068740	0.000004
 284	2.8159e+01	2.8153	-16.832837	0.000203	2.028870	0.343700	0.000020
 285	2.8258e+01	2.8254	-16.784392	0.000487	4.869287	0.824880	0.000049
 286	2.8358e+01	2.8350	-16.796503	-0.000122	-1.217322	-0.206220	-0.000012
 287	2.8457e+01	2.8455	-16.788429	0.000081	0.811548	0.137480	0.000008
 288	2.8556e+01	2.8544	-16.748058	0.000406	4.057739	0.687400	0.000041
 289	2.8656e+01	2.8654	-16.739983	0.000081	0.811548	0.137480	0.000008
 290	2.8756e+01	2.8755	-16.719798	0.000203	2.028870	0.343700	0.000020
 291	2.8855e+01	2.8860	-16.683463	0.000365	3.651965	0.618660	0.000037
 292	2.8954e+01	2.8943	-16.671352	0.000122	1.217322	0.206220	0.000012
 293	2.9054e+01	2.9053	-16.667315	0.000041	0.405774	0.068740	0.000004
 294	2.9154e+01	2.9144	-16.626944	0.000406	4.057739	0.687400	0.000041
 295	2.9253e+01	2.9250	-16.606758	0.000203	2.028870	0.343700	0.000020
 296	2.9352e+01	2.9349	-16.558312	0.000487	4.869287	0.824880	0.000049
 297	2.9452e+01	2.9444	-16.558312	0.000000	0.000000	0.000000	0.000000
 298	2.9552e+01	2.9544	-16.554275	0.000041	0.405774	0.068740	0.000004
 299	2.9651e+01	2.9647	-16.546201	0.000081	0.811548	0.137480	0.000008
 300	2.9750e+01	2.9741	-16.546201	0.000000	0.000000	0.000000	0.000000
 301	2.9850e+01	2.9847	-16.497755	0.000487	4.869287	0.824880	0.000049
 302	2.9950e+01	2.9955	-16.477570	0.000203	2.028870	0.343700	0.000020
 303	3.0049e+01	3.0048	-16.477570	0.000000	0.000000	0.000000	0.000000
 304	3.0148e+01	3.0145	-16.465458	0.000122	1.217322	0.206220	0.000012
 305	3.0248e+01	3.0241	-16.384715	0.000812	8.115479	1.374799	0.000081
 306	3.0348e+01	3.0349	-16.392790	-0.000081	-0.811548	-0.137480	-0.000008
 307	3.0447e+01	3.0444	-16.368567	0.000243	2.434644	0.412440	0.000024
 308	3.0547e+01	3.0543	-16.320121	0.000487	4.869287	0.824880	0.000049
 309	3.0646e+01	3.0636	-16.320121	0.000000	0.000000	0.000000	0.000000
 310	3.0745e+01	3.0742	-16.332233	-0.000122	-1.217322	-0.206220	-0.000012
 311	3.0845e+01	3.0843	-16.308010	0.000243	2.434644	0.412440	0.000024
 312	3.0945e+01	3.0944	-16.299936	0.000081	0.811548	0.137480	0.000008
 313	3.1044e+01	3.1035	-16.255527	0.000446	4.463513	0.756140	0.000045
 314	3.1143e+01	3.1142	-16.231304	0.000243	2.434644	0.412440	0.000024
 315	3.1243e+01	3.1237	-16.219193	0.000122	1.217322	0.206220	0.000012
 316	3.1343e+01	3.1344	-16.219193	0.000000	0.000000	0.000000	0.000000
 317	3.1442e+01	3.1436	-16.170747	0.000487	4.869287	0.824880	0.000049
 318	3.1541e+01	3.1533	-16.207081	-0.000365	-3.651965	-0.618660	-0.000037
 319	3.1641e+01	3.1646	-16.154599	0.000528	5.275061	0.893620	0.000053
 320	3.1741e+01	3.1733	-16.130376	0.000243	2.434644	0.412440	0.000024
 321	3.1840e+01	3.1831	-16.122302	0.000081	0.811548	0.137480	0.000008
 322	3.1939e+01	3.1934	-16.094042	0.000284	2.840418	0.481180	0.000028
 323	3.2039e+01	3.2040	-16.085967	0.000081	0.811548	0.137480	0.000008
 324	3.2139e+01	3.2133	-16.077893	0.000081	0.811548	0.137480	0.000008
 325	3.2238e+01	3.2233	-16.049633	0.000284	2.840418	0.481180	0.000028
 326	3.2337e+01	3.2334	-16.033485	0.000162	1.623096	0.274960	0.000016
 327	3.2437e+01	3.2431	-15.997150	0.000365	3.651965	0.618660	0.000037
 328	3.2536e+01	3.2526	-15.997150	0.000000	0.000000	0.000000	0.000000
 329	3.2636e+01	3.2632	-15.968890	0.000284	2.840418	0.481180	0.000028
 330	3.2736e+01	3.2727	-15.976965	-0.000081	-0.811548	-0.137480	-0.000008
 331	3.2835e+01	3.2837	-15.952742	0.000243	2.434644	0.412440	0.000024
 332	3.2934e+01	3.2928	-15.900259	0.000528	5.275061	0.893620	0.000053
 333	3.3034e+01	3.3028	-15.888148	0.000122	1.217322	0.206220	0.000012
 334	3.3133e+01	3.3131	-15.888148	0.000000	0.000000	0.000000	0.000000
 335	3.3233e+01	3.3233	-15.859888	0.000284	2.840418	0.481180	0.000028
 336	3.3333e+01	3.3324	-15.867962	-0.000081	-0.811548	-0.137480	-0.000008
 337	3.3432e+01	3.3432	-15.839702	0.000284	2.840418	0.481180	0.000028
 338	3.3532e+01	3.3534	-15.823554	0.000162	1.623096	0.274960	0.000016
 339	3.3631e+01	3.3627	-15.775108	0.000487	4.869287	0.824880	0.000049
 340	3.3730e+01	3.3728	-15.771071	0.000041	0.405774	0.068740	0.000004
 341	3.3830e+01	3.3838	-15.754922	0.000162	1.623096	0.274960	0.000016
 342	3.3929e+01	3.3922	-15.714551	0.000406	4.057739	0.687400	0.000041
 343	3.4029e+01	3.4026	-15.742811	-0.000284	-2.840418	-0.481180	-0.000028
 344	3.4129e+01	3.4122	-15.666105	0.000771	7.709705	1.306059	0.000077
 345	3.4228e+01	3.4230	-15.714551	-0.000487	-4.869287	-0.824880	-0.000049
 346	3.4328e+01	3.4312	-15.666105	0.000487	4.869287	0.824880	0.000049
 347	3.4427e+01	3.4425	-15.621697	0.000446	4.463513	0.756140	0.000045
 348	3.4526e+01	3.4515	-15.593437	0.000284	2.840418	0.481180	0.000028
 349	3.4626e+01	3.4625	-15.593437	0.000000	0.000000	0.000000	0.000000
 350	3.4725e+01	3.4714	-15.573251	0.000203	2.028870	0.343700	0.000020
 351	3.4825e+01	3.4825	-15.565177	0.000081	0.811548	0.137480	0.000008
 352	3.4925e+01	3.4919	-15.540954	0.000243	2.434644	0.412440	0.000024
 353	3.5024e+01	3.5022	-15.504620	0.000365	3.651965	0.618660	0.000037
 354	3.5123e+01	3.5126	-15.504620	0.000000	0.000000	0.000000	0.000000
 355	3.5223e+01	3.5210	-15.480397	0.000243	2.434644	0.412440	0.000024
 356	3.5322e+01	3.5319	-15.468286	0.000122	1.217322	0.206220	0.000012
 357	3.5422e+01	3.5411	-15.435988	0.000325	3.246191	0.549920	0.000032
 358	3.5522e+01	3.5520	-15.391580	0.000446	4.463513	0.756140	0.000045
 359	3.5621e+01	3.5622	-15.375431	0.000162	1.623096	0.274960	0.000016
 360	3.5721e+01	3.5708	-15.367357	0.000081	0.811548	0.137480	0.000008
 361	3.5820e+01	3.5819	-15.351209	0.000162	1.623096	0.274960	0.000016
 362	3.5919e+01	3.5911	-15.335060	0.000162	1.623096	0.274960	0.000016
 363	3.6019e+01	3.6016	-15.282577	0.000528	5.275061	0.893620	0.000053
 364	3.6118e+01	3.6115	-15.306800	-0.000243	-2.434644	-0.412440	-0.000024
 365	3.6218e+01	3.6214	-15.278540	0.000284	2.840418	0.481180	0.000028
 366	3.6318e+01	3.6315	-15.266429	0.000122	1.217322	0.206220	0.000012
 367	3.6417e+01	3.6411	-15.230095	0.000365	3.651965	0.618660	0.000037
 368	3.6517e+01	3.6514	-15.181649	0.000487	4.869287	0.824880	0.000049
 369	3.6616e+01	3.6617	-15.165500	0.000162	1.623096	0.274960	0.000016
 370	3.6715e+01	3.6713	-15.145315	0.000203	2.028870	0.343700	0.000020
 371	3.6815e+01	3.6813	-15.125129	0.000203	2.028870	0.343700	0.000020
 372	3.6914e+01	3.6906	-15.113018	0.000122	1.217322	0.206220	0.000012
 373	3.7014e+01	3.7008	-15.072646	0.000406	4.057739	0.687400	0.000041
 374	3.7114e+01	3.7117	-15.121092	-0.000487	-4.869287	-0.824880	-0.000049
 375	3.7213e+01	3.7214	-15.032275	0.000893	8.927027	1.512279	0.000089
 376	3.7313e+01	3.7308	-15.016126	0.000162	1.623096	0.274960	0.000016
 377	3.7412e+01	3.7408	-15.020164	-0.000041	-0.405774	-0.068740	-0.000004
 378	3.7511e+01	3.7508	-15.028238	-0.000081	-0.811548	-0.137480	-0.000008
 379	3.7611e+01	3.7610	-14.967681	0.000609	6.086609	1.031099	0.000061
 380	3.7711e+01	3.7711	-14.911161	0.000568	5.680835	0.962360	0.000057
 381	3.7810e+01	3.7816	-14.947495	-0.000365	-3.651965	-0.618660	-0.000037
 382	3.7910e+01	3.7905	-14.899049	0.000487	4.869287	0.824880	0.000049
 383	3.8009e+01	3.8007	-14.866752	0.000325	3.246191	0.549920	0.000032
 384	3.8108e+01	3.8101	-14.826381	0.000406	4.057739	0.687400	0.000041
 385	3.8208e+01	3.8203	-14.830418	-0.000041	-0.405774	-0.068740	-0.000004
 386	3.8307e+01	3.8296	-14.834455	-0.000041	-0.405774	-0.068740	-0.000004
 387	3.8407e+01	3.8398	-14.818307	0.000162	1.623096	0.274960	0.000016
 388	3.8507e+01	3.8503	-14.790047	0.000284	2.840418	0.481180	0.000028
 389	3.8606e+01	3.8601	-14.737564	0.000528	5.275061	0.893620	0.000053
 390	3.8706e+01	3.8701	-14.713341	0.000243	2.434644	0.412440	0.000024
 391	3.8805e+01	3.8799	-14.709304	0.000041	0.405774	0.068740	0.000004
 392	3.8904e+01	3.8900	-14.693156	0.000162	1.623096	0.274960	0.000016
 393	3.9004e+01	3.9001	-14.660858	0.000325	3.246191	0.549920	0.000032
 394	3.9103e+01	3.9091	-14.628561	0.000325	3.246191	0.549920	0.000032
 395	3.9203e+01	3.9196	-14.584153	0.000446	4.463513	0.756140	0.000045
 396	3.9303e+01	3.9309	-14.563967	0.000203	2.028870	0.343700	0.000020
 397	3.9402e+01	3.9388	-14.539744	0.000243	2.434644	0.412440	0.000024
 398	3.9502e+01	3.9495	-14.551856	-0.000122	-1.217322	-0.206220	-0.000012
 399	3.9601e+01	3.9599	-14.503410	0.000487	4.869287	0.824880	0.000049
 400	3.9700e+01	3.9692	-14.483224	0.000203	2.028870	0.343700	0.000020
 401	3.9800e+01	3.9791	-14.499373	-0.000162	-1.623096	-0.274960	-0.000016
 402	3.9900e+01	3.9895	-14.454965	0.000446	4.463513	0.756140	0.000045
 403	3.9999e+01	4.0002	-14.402482	0.000528	5.275061	0.893620	0.000053
 404	4.0099e+01	4.0096	-14.414593	-0.000122	-1.217322	-0.206220	-0.000012
 405	4.0198e+01	4.0195	-14.394407	0.000203	2.028870	0.343700	0.000020
 406	4.0297e+01	4.0300	-14.386333	0.000081	0.811548	0.137480	0.000008
 407	4.0397e+01	4.0406	-14.337888	0.000487	4.869287	0.824880	0.000049
 408	4.0496e+01	4.0488	-14.329813	0.000081	0.811548	0.137480	0.000008
 409	4.0596e+01	4.0594	-14.285405	0.000446	4.463513	0.756140	0.000045
 410	4.0696e+01	4.0694	-14.297516	-0.000122	-1.217322	-0.206220	-0.000012
 411	4.0795e+01	4.0795	-14.240996	0.000568	5.680835	0.962360	0.000057
 412	4.0895e+01	4.0893	-14.188514	0.000528	5.275061	0.893620	0.000053
 413	4.0994e+01	4.0978	-14.220811	-0.000325	-3.246191	-0.549920	-0.000032
 414	4.1093e+01	4.1093	-14.168328	0.000528	5.275061	0.893620	0.000053
 415	4.1193e+01	4.1183	-14.164291	0.000041	0.405774	0.068740	0.000004
 416	4.1292e+01	4.1287	-14.119882	0.000446	4.463513	0.756140	0.000045
 417	4.1392e+01	4.1392	-14.111808	0.000081	0.811548	0.137480	0.000008
 418	4.1492e+01	4.1487	-14.095659	0.000162	1.623096	0.274960	0.000016
 419	4.1591e+01	4.1590	-14.055288	0.000406	4.057739	0.687400	0.000041
 420	4.1691e+01	4.1687	-14.018954	0.000365	3.651965	0.618660	0.000037
 421	4.1790e+01	4.1779	-14.018954	0.000000	0.000000	0.000000	0.000000
 422	4.1889e+01	4.1894	-13.978582	0.000406	4.057739	0.687400	0.000041
 423	4.1989e+01	4.1992	-13.938211	0.000406	4.057739	0.687400	0.000041
 424	4.2089e+01	4.2094	-13.946285	-0.000081	-0.811548	-0.137480	-0.000008
 425	4.2188e+01	4.2184	-13.934174	0.000122	1.217322	0.206220	0.000012
 426	4.2288e+01	4.2286	-13.885728	0.000487	4.869287	0.824880	0.000049
 427	4.2387e+01	4.2383	-13.889766	-0.000041	-0.405774	-0.068740	-0.000004
 428	4.2486e+01	4.2475	-13.837283	0.000528	5.275061	0.893620	0.000053
 429	4.2586e+01	4.2587	-13.833246	0.000041	0.405774	0.068740	0.000004
 430	4.2685e+01	4.2677	-13.821134	0.000122	1.217322	0.206220	0.000012
 431	4.2785e+01	4.2776	-13.764614	0.000568	5.680835	0.962360	0.000057
 432	4.2885e+01	4.2877	-13.768651	-0.000041	-0.405774	-0.068740	-0.000004
 433	4.2984e+01	4.2977	-13.712132	0.000568	5.680835	0.962360	0.000057
 434	4.3084e+01	4.3079	-13.708094	0.000041	0.405774	0.068740	0.000004
 435	4.3183e+01	4.3176	-13.695983	0.000122	1.217322	0.206220	0.000012
 436	4.3282e+01	4.3285	-13.671760	0.000243	2.434644	0.412440	0.000024
 437	4.3382e+01	4.3380	-13.671760	0.000000	0.000000	0.000000	0.000000
 438	4.3481e+01	4.3487	-13.619277	0.000528	5.275061	0.893620	0.000053
 439	4.3581e+01	4.3582	-13.619277	0.000000	0.000000	0.000000	0.000000
 440	4.3681e+01	4.3681	-13.591017	0.000284	2.840418	0.481180	0.000028
 441	4.3780e+01	4.3784	-13.595055	-0.000041	-0.405774	-0.068740	-0.000004
 442	4.3880e+01	4.3866	-13.558720	0.000365	3.651965	0.618660	0.000037
 443	4.3979e+01	4.3977	-13.522386	0.000365	3.651965	0.618660	0.000037
 444	4.4078e+01	4.4077	-13.490089	0.000325	3.246191	0.549920	0.000032
 445	4.4178e+01	4.4178	-13.477978	0.000122	1.217322	0.206220	0.000012
 446	4.4278e+01	4.4270	-13.441643	0.000365	3.651965	0.618660	0.000037
 447	4.4377e+01	4.4380	-13.437606	0.000041	0.405774	0.068740	0.000004
 448	4.4477e+01	4.4473	-13.429532	0.000081	0.811548	0.137480	0.000008
 449	4.4576e+01	4.4573	-13.397235	0.000325	3.246191	0.549920	0.000032
 450	4.4675e+01	4.4662	-13.360901	0.000365	3.651965	0.618660	0.000037
 451	4.4775e+01	4.4780	-13.360901	0.000000	0.000000	0.000000	0.000000
 452	4.4874e+01	4.4870	-13.356864	0.000041	0.405774	0.068740	0.000004
 453	4.4974e+01	4.4971	-13.308418	0.000487	4.869287	0.824880	0.000049
 454	4.5074e+01	4.5078	-13.316492	-0.000081	-0.811548	-0.137480	-0.000008
 455	4.5173e+01	4.5168	-13.255935	0.000609	6.086609	1.031099	0.000061
 456	4.5273e+01	4.5266	-13.235750	0.000203	2.028870	0.343700	0.000020
 457	4.5372e+01	4.5364	-13.247861	-0.000122	-1.217322	-0.206220	-0.000012
 458	4.5471e+01	4.5466	-13.207490	0.000406	4.057739	0.687400	0.000041
 459	4.5571e+01	4.5568	-13.183267	0.000243	2.434644	0.412440	0.000024
 460	4.5670e+01	4.5670	-13.183267	0.000000	0.000000	0.000000	0.000000
 461	4.5770e+01	4.5780	-13.163081	0.000203	2.028870	0.343700	0.000020
 462	4.5870e+01	4.5858	-13.171155	-0.000081	-0.811548	-0.137480	-0.000008
 463	4.5969e+01	4.5972	-13.122710	0.000487	4.869287	0.824880	0.000049
 464	4.6069e+01	4.6066	-13.094450	0.000284	2.840418	0.481180	0.000028
 465	4.6168e+01	4.6169	-13.074264	0.000203	2.028870	0.343700	0.000020
 466	4.6267e+01	4.6261	-13.050041	0.000243	2.434644	0.412440	0.000024
 467	4.6367e+01	4.6368	-13.037930	0.000122	1.217322	0.206220	0.000012
 468	4.6467e+01	4.6458	-13.025818	0.000122	1.217322	0.206220	0.000012
 469	4.6566e+01	4.6568	-13.001596	0.000243	2.434644	0.412440	0.000024
 470	4.6666e+01	4.6655	-12.949113	0.000528	5.275061	0.893620	0.000053
 471	4.6765e+01	4.6754	-12.945076	0.000041	0.405774	0.068740	0.000004
 472	4.6864e+01	4.6860	-12.924890	0.000203	2.028870	0.343700	0.000020
 473	4.6964e+01	4.6960	-12.908742	0.000162	1.623096	0.274960	0.000016
 474	4.7063e+01	4.7061	-12.941039	-0.000325	-3.246191	-0.549920	-0.000032
 475	4.7163e+01	4.7165	-12.880482	0.000609	6.086609	1.031099	0.000061
 476	4.7263e+01	4.7257	-12.848184	0.000325	3.246191	0.549920	0.000032
 477	4.7362e+01	4.7354	-12.844147	0.000041	0.405774	0.068740	0.000004
 478	4.7462e+01	4.7459	-12.787627	0.000568	5.680835	0.962360	0.000057
 479	4.7561e+01	4.7559	-12.763405	0.000243	2.434644	0.412440	0.000024
 480	4.7660e+01	4.7662	-12.795702	-0.000325	-3.246191	-0.549920	-0.000032
 481	4.7760e+01	4.7755	-12.755330	0.000406	4.057739	0.687400	0.000041
 482	4.7859e+01	4.7858	-12.735145	0.000203	2.028870	0.343700	0.000020
 483	4.7959e+01	4.7961	-12.718996	0.000162	1.623096	0.274960	0.000016
 484	4.8059e+01	4.8055	-12.718996	0.000000	0.000000	0.000000	0.000000
 485	4.8158e+01	4.8156	-12.694773	0.000243	2.434644	0.412440	0.000024
 486	4.8258e+01	4.8260	-12.638253	0.000568	5.680835	0.962360	0.000057
 487	4.8357e+01	4.8354	-12.646328	-0.000081	-0.811548	-0.137480	-0.000008
 488	4.8456e+01	4.8450	-12.634216	0.000122	1.217322	0.206220	0.000012
 489	4.8556e+01	4.8553	-12.618068	0.000162	1.623096	0.274960	0.000016
 490	4.8656e+01	4.8658	-12.589808	0.000284	2.840418	0.481180	0.000028
 491	4.8755e+01	4.8756	-12.581734	0.000081	0.811548	0.137480	0.000008
 492	4.8855e+01	4.8850	-12.553474	0.000284	2.840418	0.481180	0.000028
 493	4.8954e+01	4.8948	-12.553474	0.000000	0.000000	0.000000	0.000000
 494	4.9053e+01	4.9052	-12.488879	0.000649	6.492383	1.099839	0.000065
 495	4.9153e+01	4.9150	-12.468694	0.000203	2.028870	0.343700	0.000020
 496	4.9252e+01	4.9252	-12.484842	-0.000162	-1.623096	-0.274960	-0.000016
 497	4.9352e+01	4.9349	-12.452545	0.000325	3.246191	0.549920	0.000032
 498	4.9452e+01	4.9451	-12.440434	0.000122	1.217322	0.206220	0.000012
 499	4.9551e+01	4.9549	-12.424285	0.000162	1.623096	0.274960	0.000016
 500	4.9651e+01	4.9641	-12.420248	0.000041	0.405774	0.068740	0.000004
 501	4.9750e+01	4.9746	-12.379877	0.000406	4.057739	0.687400	0.000041
 502	4.9849e+01	4.9844	-12.379877	0.000000	0.000000	0.000000	0.000000
 503	4.9949e+01	4.9947	-12.339505	0.000406	4.057739	0.687400	0.000041
 504	5.0048e+01	5.0042	-12.339505	0.000000	0.000000	0.000000	0.000000
 505	5.0148e+01	5.0146	-12.287023	0.000528	5.275061	0.893620	0.000053
 506	5.0248e+01	5.0245	-12.282985	0.000041	0.405774	0.068740	0.000004
 507	5.0347e+01	5.0344	-12.266837	0.000162	1.623096	0.274960	0.000016
 508	5.0447e+01	5.0442	-12.282985	-0.000162	-1.623096	-0.274960	-0.000016
 509	5.0546e+01	5.0539	-12.250688	0.000325	3.246191	0.549920	0.000032
 510	5.0645e+01	5.0638	-12.218391	0.000325	3.246191	0.549920	0.000032
 511	5.0745e+01	5.0797	-12.194168	0.000243	2.434644	0.412440	0.000024
 512	5.0844e+01	5.0831	-12.202243	-0.000081	-0.811548	-0.137480	-0.000008
 513	5.0944e+01	5.0939	-12.173983	0.000284	2.840418	0.481180	0.000028
 514	5.1044e+01	5.1037	-12.129574	0.000446	4.463513	0.756140	0.000045
 515	5.1143e+01	5.1139	-12.101314	0.000284	2.840418	0.481180	0.000028
 516	5.1242e+01	5.1237	-12.089203	0.000122	1.217322	0.206220	0.000012
 517	5.1342e+01	5.1334	-12.093240	-0.000041	-0.405774	-0.068740	-0.000004
 518	5.1441e+01	5.1434	-12.069017	0.000243	2.434644	0.412440	0.000024
 519	5.1541e+01	5.1533	-12.032683	0.000365	3.651965	0.618660	0.000037
 520	5.1641e+01	5.1637	-11.996349	0.000365	3.651965	0.618660	0.000037
 521	5.1740e+01	5.1731	-11.992312	0.000041	0.405774	0.068740	0.000004
 522	5.1840e+01	5.1826	-12.000386	-0.000081	-0.811548	-0.137480	-0.000008
 523	5.1939e+01	5.1936	-11.951940	0.000487	4.869287	0.824880	0.000049
 524	5.2038e+01	5.2036	-11.907532	0.000446	4.463513	0.756140	0.000045
 525	5.2138e+01	5.2126	-11.883309	0.000243	2.434644	0.412440	0.000024
 526	5.2237e+01	5.2238	-11.887346	-0.000041	-0.405774	-0.068740	-0.000004
 527	5.2337e+01	5.2332	-11.879272	0.000081	0.811548	0.137480	0.000008
 528	5.2437e+01	5.2426	-11.826789	0.000528	5.275061	0.893620	0.000053
 529	5.2536e+01	5.2535	-11.855049	-0.000284	-2.840418	-0.481180	-0.000028
 530	5.2636e+01	5.2633	-11.822752	0.000325	3.246191	0.549920	0.000032
 531	5.2735e+01	5.2731	-11.770269	0.000528	5.275061	0.893620	0.000053
 532	5.2834e+01	5.2814	-11.750084	0.000203	2.028870	0.343700	0.000020
 533	5.2934e+01	5.2923	-11.725861	0.000243	2.434644	0.412440	0.000024
 534	5.3033e+01	5.3020	-11.717786	0.000081	0.811548	0.137480	0.000008
 535	5.3133e+01	5.3125	-11.721824	-0.000041	-0.405774	-0.068740	-0.000004
 536	5.3233e+01	5.3235	-11.645118	0.000771	7.709705	1.306059	0.000077
 537	5.3332e+01	5.3326	-11.661267	-0.000162	-1.623096	-0.274960	-0.000016
 538	5.3431e+01	5.3425	-11.572450	0.000893	8.927027	1.512279	0.000089
 539	5.3531e+01	5.3530	-11.600710	-0.000284	-2.840418	-0.481180	-0.000028
 540	5.3630e+01	5.3622	-11.532078	0.000690	6.898157	1.168579	0.000069
 541	5.3730e+01	5.3725	-11.564375	-0.000325	-3.246191	-0.549920	-0.000032
 542	5.3830e+01	5.3828	-11.524004	0.000406	4.057739	0.687400	0.000041
 543	5.3929e+01	5.3933	-11.495744	0.000284	2.840418	0.481180	0.000028
 544	5.4029e+01	5.4027	-11.471521	0.000243	2.434644	0.412440	0.000024
 545	5.4128e+01	5.4129	-11.419038	0.000528	5.275061	0.893620	0.000053
 546	5.4227e+01	5.4219	-11.443261	-0.000243	-2.434644	-0.412440	-0.000024
 547	5.4327e+01	5.4331	-11.402890	0.000406	4.057739	0.687400	0.000041
 548	5.4426e+01	5.4417	-11.394816	0.000081	0.811548	0.137480	0.000008
 549	5.4526e+01	5.4520	-11.398853	-0.000041	-0.405774	-0.068740	-0.000004
 550	5.4626e+01	5.4616	-11.322147	0.000771	7.709705	1.306059	0.000077
 551	5.4725e+01	5.4721	-11.293887	0.000284	2.840418	0.481180	0.000028
 552	5.4825e+01	5.4827	-11.285813	0.000081	0.811548	0.137480	0.000008
 553	5.4924e+01	5.4926	-11.217182	0.000690	6.898157	1.168579	0.000069
 554	5.5023e+01	5.5018	-11.261590	-0.000446	-4.463513	-0.756140	-0.000045
 555	5.5123e+01	5.5123	-11.217182	0.000446	4.463513	0.756140	0.000045
 556	5.5222e+01	5.5213	-11.196996	0.000203	2.028870	0.343700	0.000020
 557	5.5322e+01	5.5322	-11.156625	0.000406	4.057739	0.687400	0.000041
 558	5.5422e+01	5.5413	-11.128365	0.000284	2.840418	0.481180	0.000028
 559	5.5521e+01	5.5515	-11.116253	0.000122	1.217322	0.206220	0.000012
 560	5.5620e+01	5.5614	-11.100105	0.000162	1.623096	0.274960	0.000016
 561	5.5720e+01	5.5718	-11.071845	0.000284	2.840418	0.481180	0.000028
 562	5.5819e+01	5.5817	-11.031473	0.000406	4.057739	0.687400	0.000041
 563	5.5919e+01	5.5911	-11.035511	-0.000041	-0.405774	-0.068740	-0.000004
 564	5.6019e+01	5.6023	-11.031473	0.000041	0.405774	0.068740	0.000004
 565	5.6118e+01	5.6110	-10.962842	0.000690	6.898157	1.168579	0.000069
 566	5.6218e+01	5.6222	-10.914396	0.000487	4.869287	0.824880	0.000049
 567	5.6317e+01	5.6315	-10.898248	0.000162	1.623096	0.274960	0.000016
 568	5.6416e+01	5.6414	-10.890174	0.000081	0.811548	0.137480	0.000008
 569	5.6516e+01	5.6518	-10.853839	0.000365	3.651965	0.618660	0.000037
 570	5.6615e+01	5.6606	-10.837691	0.000162	1.623096	0.274960	0.000016
 571	5.6715e+01	5.6724	-10.777134	0.000609	6.086609	1.031099	0.000061
 572	5.6815e+01	5.6805	-10.797320	-0.000203	-2.028870	-0.343700	-0.000020
 573	5.6914e+01	5.6907	-10.760985	0.000365	3.651965	0.618660	0.000037
 574	5.7014e+01	5.7007	-10.744837	0.000162	1.623096	0.274960	0.000016
 575	5.7113e+01	5.7113	-10.712540	0.000325	3.246191	0.549920	0.000032
 576	5.7212e+01	5.7220	-10.656020	0.000568	5.680835	0.962360	0.000057
 577	5.7312e+01	5.7310	-10.647946	0.000081	0.811548	0.137480	0.000008
 578	5.7411e+01	5.7406	-10.631797	0.000162	1.623096	0.274960	0.000016
 579	5.7511e+01	5.7507	-10.631797	0.000000	0.000000	0.000000	0.000000
 580	5.7611e+01	5.7601	-10.607574	0.000243	2.434644	0.412440	0.000024
 581	5.7710e+01	5.7703	-10.563166	0.000446	4.463513	0.756140	0.000045
 582	5.7809e+01	5.7800	-10.518757	0.000446	4.463513	0.756140	0.000045
 583	5.7909e+01	5.7906	-10.490497	0.000284	2.840418	0.481180	0.000028
 584	5.8008e+01	5.8006	-10.482423	0.000081	0.811548	0.137480	0.000008
 585	5.8108e+01	5.8097	-10.438014	0.000446	4.463513	0.756140	0.000045
 586	5.8208e+01	5.8199	-10.389569	0.000487	4.869287	0.824880	0.000049
 587	5.8307e+01	5.8302	-10.397643	-0.000081	-0.811548	-0.137480	-0.000008
 588	5.8407e+01	5.8404	-10.365346	0.000325	3.246191	0.549920	0.000032
 589	5.8506e+01	5.8501	-10.304789	0.000609	6.086609	1.031099	0.000061
 590	5.8605e+01	5.8599	-10.324975	-0.000203	-2.028870	-0.343700	-0.000020
 591	5.8705e+01	5.8706	-10.304789	0.000203	2.028870	0.343700	0.000020
 592	5.8804e+01	5.8804	-10.268455	0.000365	3.651965	0.618660	0.000037
 593	5.8904e+01	5.8901	-10.256343	0.000122	1.217322	0.206220	0.000012
 594	5.9004e+01	5.9007	-10.211935	0.000446	4.463513	0.756140	0.000045
 595	5.9103e+01	5.9101	-10.195786	0.000162	1.623096	0.274960	0.000016
 596	5.9203e+01	5.9197	-10.175601	0.000203	2.028870	0.343700	0.000020
 597	5.9302e+01	5.9293	-10.143304	0.000325	3.246191	0.549920	0.000032
 598	5.9401e+01	5.9406	-10.131192	0.000122	1.217322	0.206220	0.000012
 599	5.9501e+01	5.9502	-10.106969	0.000243	2.434644	0.412440	0.000024
 600	5.9600e+01	5.9599	-10.058524	0.000487	4.869287	0.824880	0.000049
 601	5.9700e+01	5.9693	-10.050449	0.000081	0.811548	0.137480	0.000008
 602	5.9800e+01	5.9795	-10.018152	0.000325	3.246191	0.549920	0.000032
 603	5.9899e+01	5.9898	-10.010078	0.000081	0.811548	0.137480	0.000008
 604	5.9998e+01	5.9986	-9.969707	0.000406	4.057739	0.687400	0.000041
 605	6.0098e+01	6.0099	-9.933372	0.000365	3.651965	0.618660	0.000037
 606	6.0197e+01	6.0193	-9.933372	0.000000	0.000000	0.000000	0.000000
 607	6.0297e+01	6.0299	-9.901075	0.000325	3.246191	0.549920	0.000032
 608	6.0397e+01	6.0394	-9.836481	0.000649	6.492383	1.099839	0.000065
 609	6.0496e+01	6.0500	-9.844555	-0.000081	-0.811548	-0.137480	-0.000008
 610	6.0596e+01	6.0601	-9.796110	0.000487	4.869287	0.824880	0.000049
 611	6.0695e+01	6.0697	-9.779961	0.000162	1.623096	0.274960	0.000016
 612	6.0794e+01	6.0793	-9.771887	0.000081	0.811548	0.137480	0.000008
 613	6.0894e+01	6.0889	-9.759776	0.000122	1.217322	0.206220	0.000012
 614	6.0993e+01	6.0995	-9.699219	0.000609	6.086609	1.031099	0.000061
 615	6.1093e+01	6.1080	-9.687107	0.000122	1.217322	0.206220	0.000012
 616	6.1193e+01	6.1193	-9.670959	0.000162	1.623096	0.274960	0.000016
 617	6.1292e+01	6.1289	-9.662884	0.000081	0.811548	0.137480	0.000008
 618	6.1392e+01	6.1388	-9.598290	0.000649	6.492383	1.099839	0.000065
 619	6.1491e+01	6.1487	-9.602327	-0.000041	-0.405774	-0.068740	-0.000004
 620	6.1590e+01	6.1590	-9.574067	0.000284	2.840418	0.481180	0.000028
 621	6.1690e+01	6.1686	-9.541770	0.000325	3.246191	0.549920	0.000032
 622	6.1789e+01	6.1779	-9.545807	-0.000041	-0.405774	-0.068740	-0.000004
 623	6.1889e+01	6.1884	-9.513510	0.000325	3.246191	0.549920	0.000032
 624	6.1989e+01	6.1979	-9.513510	0.000000	0.000000	0.000000	0.000000
 625	6.2088e+01	6.2098	-9.473139	0.000406	4.057739	0.687400	0.000041
 626	6.2188e+01	6.2181	-9.428731	0.000446	4.463513	0.756140	0.000045
 627	6.2287e+01	6.2292	-9.396433	0.000325	3.246191	0.549920	0.000032
 628	6.2386e+01	6.2376	-9.372211	0.000243	2.434644	0.412440	0.000024
 629	6.2486e+01	6.2478	-9.347988	0.000243	2.434644	0.412440	0.000024
 630	6.2586e+01	6.2580	-9.360099	-0.000122	-1.217322	-0.206220	-0.000012
 631	6.2685e+01	6.2682	-9.303579	0.000568	5.680835	0.962360	0.000057
 632	6.2785e+01	6.2785	-9.230911	0.000730	7.303931	1.237319	0.000073
 633	6.2884e+01	6.2876	-9.251097	-0.000203	-2.028870	-0.343700	-0.000020
 634	6.2983e+01	6.2978	-9.234948	0.000162	1.623096	0.274960	0.000016
 635	6.3083e+01	6.3078	-9.226874	0.000081	0.811548	0.137480	0.000008
 636	6.3182e+01	6.3174	-9.170354	0.000568	5.680835	0.962360	0.000057
 637	6.3282e+01	6.3284	-9.150168	0.000203	2.028870	0.343700	0.000020
 638	6.3382e+01	6.3375	-9.154205	-0.000041	-0.405774	-0.068740	-0.000004
 639	6.3481e+01	6.3477	-9.105760	0.000487	4.869287	0.824880	0.000049
 640	6.3581e+01	6.3574	-9.089611	0.000162	1.623096	0.274960	0.000016
 641	6.3680e+01	6.3670	-9.061351	0.000284	2.840418	0.481180	0.000028
 642	6.3779e+01	6.3770	-9.033091	0.000284	2.840418	0.481180	0.000028
 643	6.3879e+01	6.3874	-9.016943	0.000162	1.623096	0.274960	0.000016
 644	6.3978e+01	6.3966	-8.980608	0.000365	3.651965	0.618660	0.000037
 645	6.4078e+01	6.4063	-8.948311	0.000325	3.246191	0.549920	0.000032
 646	6.4177e+01	6.4159	-8.960423	-0.000122	-1.217322	-0.206220	-0.000012
 647	6.4277e+01	6.4271	-8.911977	0.000487	4.869287	0.824880	0.000049
 648	6.4376e+01	6.4370	-8.924089	-0.000122	-1.217322	-0.206220	-0.000012
 649	6.4476e+01	6.4466	-8.859494	0.000649	6.492383	1.099839	0.000065
 650	6.4576e+01	6.4571	-8.855457	0.000041	0.405774	0.068740	0.000004
 651	6.4675e+01	6.4668	-8.827197	0.000284	2.840418	0.481180	0.000028
 652	6.4775e+01	6.4764	-8.786826	0.000406	4.057739	0.687400	0.000041
 653	6.4874e+01	6.4864	-8.794900	-0.000081	-0.811548	-0.137480	-0.000008
 654	6.4974e+01	6.4968	-8.770677	0.000243	2.434644	0.412440	0.000024
 655	6.5073e+01	6.5060	-8.754529	0.000162	1.623096	0.274960	0.000016
 656	6.5172e+01	6.5160	-8.714157	0.000406	4.057739	0.687400	0.000041
 657	6.5272e+01	6.5259	-8.677823	0.000365	3.651965	0.618660	0.000037
 658	6.5371e+01	6.5356	-8.653600	0.000243	2.434644	0.412440	0.000024
 659	6.5471e+01	6.5471	-8.637452	0.000162	1.623096	0.274960	0.000016
 660	6.5570e+01	6.5557	-8.593043	0.000446	4.463513	0.756140	0.000045
 661	6.5670e+01	6.5662	-8.609192	-0.000162	-1.623096	-0.274960	-0.000016
 662	6.5769e+01	6.5781	-8.548635	0.000609	6.086609	1.031099	0.000061
 663	6.5869e+01	6.5870	-8.532486	0.000162	1.623096	0.274960	0.000016
 664	6.5969e+01	6.5958	-8.532486	0.000000	0.000000	0.000000	0.000000
 665	6.6068e+01	6.6059	-8.484041	0.000487	4.869287	0.824880	0.000049
 666	6.6168e+01	6.6156	-8.435595	0.000487	4.869287	0.824880	0.000049
 667	6.6267e+01	6.6268	-8.439632	-0.000041	-0.405774	-0.068740	-0.000004
 668	6.6367e+01	6.6358	-8.411372	0.000284	2.840418	0.481180	0.000028
 669	6.6466e+01	6.6456	-8.379075	0.000325	3.246191	0.549920	0.000032
 670	6.6566e+01	6.6556	-8.354852	0.000243	2.434644	0.412440	0.000024
 671	6.6665e+01	6.6648	-8.350815	0.000041	0.405774	0.068740	0.000004
 672	6.6764e+01	6.6758	-8.298333	0.000528	5.275061	0.893620	0.000053
 673	6.6864e+01	6.6859	-8.298333	0.000000	0.000000	0.000000	0.000000
 674	6.6963e+01	6.6960	-8.241813	0.000568	5.680835	0.962360	0.000057
 675	6.7063e+01	6.7065	-8.249887	-0.000081	-0.811548	-0.137480	-0.000008
 676	6.7162e+01	6.7153	-8.237775	0.000122	1.217322	0.206220	0.000012
 677	6.7262e+01	6.7257	-8.177218	0.000609	6.086609	1.031099	0.000061
 678	6.7362e+01	6.7356	-8.140884	0.000365	3.651965	0.618660	0.000037
 679	6.7461e+01	6.7457	-8.144921	-0.000041	-0.405774	-0.068740	-0.000004
 680	6.7561e+01	6.7554	-8.100513	0.000446	4.463513	0.756140	0.000045
 681	6.7660e+01	6.7641	-8.092439	0.000081	0.811548	0.137480	0.000008
 682	6.7760e+01	6.7760	-8.056104	0.000365	3.651965	0.618660	0.000037
 683	6.7859e+01	6.7842	-8.048030	0.000081	0.811548	0.137480	0.000008
 684	6.7959e+01	6.7956	-8.019770	0.000284	2.840418	0.481180	0.000028
 685	6.8058e+01	6.8056	-7.987473	0.000325	3.246191	0.549920	0.000032
 686	6.8157e+01	6.8153	-7.975362	0.000122	1.217322	0.206220	0.000012
 687	6.8257e+01	6.8253	-7.922879	0.000528	5.275061	0.893620	0.000053
 688	6.8356e+01	6.8351	-7.910767	0.000122	1.217322	0.206220	0.000012
 689	6.8456e+01	6.8452	-7.874433	0.000365	3.651965	0.618660	0.000037
 690	6.8555e+01	6.8544	-7.850210	0.000243	2.434644	0.412440	0.000024
 691	6.8655e+01	6.8645	-7.834062	0.000162	1.623096	0.274960	0.000016
 692	6.8754e+01	6.8751	-7.777542	0.000568	5.680835	0.962360	0.000057
 693	6.8854e+01	6.8848	-7.769468	0.000081	0.811548	0.137480	0.000008
 694	6.8954e+01	6.8946	-7.733134	0.000365	3.651965	0.618660	0.000037
 695	6.9053e+01	6.9040	-7.725059	0.000081	0.811548	0.137480	0.000008
 696	6.9153e+01	6.9146	-7.729096	-0.000041	-0.405774	-0.068740	-0.000004
 697	6.9252e+01	6.9252	-7.644317	0.000852	8.521253	1.443539	0.000085
 698	6.9352e+01	6.9349	-7.612019	0.000325	3.246191	0.549920	0.000032
 699	6.9451e+01	6.9448	-7.620094	-0.000081	-0.811548	-0.137480	-0.000008
 700	6.9550e+01	6.9540	-7.587797	0.000325	3.246191	0.549920	0.000032
 701	6.9650e+01	6.9640	-7.551462	0.000365	3.651965	0.618660	0.000037
 702	6.9749e+01	6.9747	-7.466683	0.000852	8.521253	1.443539	0.000085
 703	6.9849e+01	6.9846	-7.446497	0.000203	2.028870	0.343700	0.000020
 704	6.9948e+01	6.9944	-7.402088	0.000446	4.463513	0.756140	0.000045
 705	7.0048e+01	7.0043	-7.414200	-0.000122	-1.217322	-0.206220	-0.000012
 706	7.0147e+01	7.0142	-7.365754	0.000487	4.869287	0.824880	0.000049
 707	7.0247e+01	7.0251	-7.369791	-0.000041	-0.405774	-0.068740	-0.000004
 708	7.0347e+01	7.0337	-7.345568	0.000243	2.434644	0.412440	0.000024
 709	7.0446e+01	7.0438	-7.321346	0.000243	2.434644	0.412440	0.000024
 710	7.0546e+01	7.0537	-7.252714	0.000690	6.898157	1.168579	0.000069
 711	7.0645e+01	7.0638	-7.236566	0.000162	1.623096	0.274960	0.000016
 712	7.0745e+01	7.0741	-7.200232	0.000365	3.651965	0.618660	0.000037
 713	7.0844e+01	7.0837	-7.192157	0.000081	0.811548	0.137480	0.000008
 714	7.0944e+01	7.0937	-7.167935	0.000243	2.434644	0.412440	0.000024
 715	7.1043e+01	7.1033	-7.147749	0.000203	2.028870	0.343700	0.000020
 716	7.1142e+01	7.1134	-7.083155	0.000649	6.492383	1.099839	0.000065
 717	7.1242e+01	7.1227	-7.054895	0.000284	2.840418	0.481180	0.000028
 718	7.1341e+01	7.1325	-7.030672	0.000243	2.434644	0.412440	0.000024
 719	7.1441e+01	7.1426	-7.006449	0.000243	2.434644	0.412440	0.000024
 720	7.1540e+01	7.1529	-6.953966	0.000528	5.275061	0.893620	0.000053
 721	7.1640e+01	7.1632	-6.909558	0.000446	4.463513	0.756140	0.000045
 722	7.1740e+01	7.1729	-6.925706	-0.000162	-1.623096	-0.274960	-0.000016
 723	7.1839e+01	7.1832	-6.861112	0.000649	6.492383	1.099839	0.000065
 724	7.1939e+01	7.1926	-6.828815	0.000325	3.246191	0.549920	0.000032
 725	7.2038e+01	7.2026	-6.800555	0.000284	2.840418	0.481180	0.000028
 726	7.2138e+01	7.2138	-6.816704	-0.000162	-1.623096	-0.274960	-0.000016
 727	7.2237e+01	7.2234	-6.748072	0.000690	6.898157	1.168579	0.000069
 728	7.2337e+01	7.2329	-6.719812	0.000284	2.840418	0.481180	0.000028
 729	7.2436e+01	7.2433	-6.683478	0.000365	3.651965	0.618660	0.000037
 730	7.2535e+01	7.2523	-6.635033	0.000487	4.869287	0.824880	0.000049
 731	7.2635e+01	7.2631	-6.618884	0.000162	1.623096	0.274960	0.000016
 732	7.2734e+01	7.2725	-6.602735	0.000162	1.623096	0.274960	0.000016
 733	7.2834e+01	7.2822	-6.513919	0.000893	8.927027	1.512279	0.000089
 734	7.2933e+01	7.2921	-6.513919	0.000000	0.000000	0.000000	0.000000
 735	7.3033e+01	7.3021	-6.449324	0.000649	6.492383	1.099839	0.000065
 736	7.3132e+01	7.3123	-6.421064	0.000284	2.840418	0.481180	0.000028
 737	7.3232e+01	7.3223	-6.392804	0.000284	2.840418	0.481180	0.000028
 738	7.3332e+01	7.3317	-6.392804	0.000000	0.000000	0.000000	0.000000
 739	7.3431e+01	7.3425	-6.312062	0.000812	8.115479	1.374799	0.000081
 740	7.3531e+01	7.3527	-6.308025	0.000041	0.405774	0.068740	0.000004
 741	7.3630e+01	7.3619	-6.255542	0.000528	5.275061	0.893620	0.000053
 742	7.3730e+01	7.3729	-6.203059	0.000528	5.275061	0.893620	0.000053
 743	7.3829e+01	7.3820	-6.178836	0.000243	2.434644	0.412440	0.000024
 744	7.3928e+01	7.3926	-6.154613	0.000243	2.434644	0.412440	0.000024
 745	7.4028e+01	7.4023	-6.126353	0.000284	2.840418	0.481180	0.000028
 746	7.4127e+01	7.4121	-6.090019	0.000365	3.651965	0.618660	0.000037
 747	7.4227e+01	7.4227	-6.094056	-0.000041	-0.405774	-0.068740	-0.000004
 748	7.4326e+01	7.4319	-6.013314	0.000812	8.115479	1.374799	0.000081
 749	7.4426e+01	7.4415	-6.005239	0.000081	0.811548	0.137480	0.000008
 750	7.4525e+01	7.4517	-5.968905	0.000365	3.651965	0.618660	0.000037
 751	7.4625e+01	7.4615	-5.944682	0.000243	2.434644	0.412440	0.000024
 752	7.4725e+01	7.4722	-5.880088	0.000649	6.492383	1.099839	0.000065
 753	7.4824e+01	7.4818	-5.863940	0.000162	1.623096	0.274960	0.000016
 754	7.4924e+01	7.4924	-5.791271	0.000730	7.303931	1.237319	0.000073
 755	7.5023e+01	7.5017	-5.807420	-0.000162	-1.623096	-0.274960	-0.000016
 756	7.5123e+01	7.5116	-5.750900	0.000568	5.680835	0.962360	0.000057
 757	7.5222e+01	7.5224	-5.706491	0.000446	4.463513	0.756140	0.000045
 758	7.5322e+01	7.5307	-5.662083	0.000446	4.463513	0.756140	0.000045
 759	7.5421e+01	7.5411	-5.654009	0.000081	0.811548	0.137480	0.000008
 760	7.5520e+01	7.5508	-5.654009	0.000000	0.000000	0.000000	0.000000
 761	7.5620e+01	7.5617	-5.601526	0.000528	5.275061	0.893620	0.000053
 762	7.5719e+01	7.5712	-5.545006	0.000568	5.680835	0.962360	0.000057
 763	7.5819e+01	7.5813	-5.512709	0.000325	3.246191	0.549920	0.000032
 764	7.5918e+01	7.5916	-5.456189	0.000568	5.680835	0.962360	0.000057
 765	7.6018e+01	7.6006	-5.452152	0.000041	0.405774	0.068740	0.000004
 766	7.6118e+01	7.6105	-5.415818	0.000365	3.651965	0.618660	0.000037
 767	7.6217e+01	7.6212	-5.363335	0.000528	5.275061	0.893620	0.000053
 768	7.6317e+01	7.6315	-5.351223	0.000122	1.217322	0.206220	0.000012
 769	7.6416e+01	7.6407	-5.298741	0.000528	5.275061	0.893620	0.000053
 770	7.6516e+01	7.6509	-5.270481	0.000284	2.840418	0.481180	0.000028
 771	7.6615e+01	7.6614	-5.217998	0.000528	5.275061	0.893620	0.000053
 772	7.6715e+01	7.6710	-5.201849	0.000162	1.623096	0.274960	0.000016
 773	7.6814e+01	7.6800	-5.165515	0.000365	3.651965	0.618660	0.000037
 774	7.6913e+01	7.6913	-5.072661	0.000933	9.332801	1.581019	0.000093
 775	7.7013e+01	7.7004	-5.044401	0.000284	2.840418	0.481180	0.000028
 776	7.7112e+01	7.7097	-5.060550	-0.000162	-1.623096	-0.274960	-0.000016
 777	7.7212e+01	7.7200	-5.048438	0.000122	1.217322	0.206220	0.000012
 778	7.7311e+01	7.7303	-4.991918	0.000568	5.680835	0.962360	0.000057
 779	7.7411e+01	7.7397	-4.947510	0.000446	4.463513	0.756140	0.000045
 780	7.7510e+01	7.7503	-4.903101	0.000446	4.463513	0.756140	0.000045
 781	7.7610e+01	7.7602	-4.870804	0.000325	3.246191	0.549920	0.000032
 782	7.7710e+01	7.7703	-4.850619	0.000203	2.028870	0.343700	0.000020
 783	7.7809e+01	7.7798	-4.790062	0.000609	6.086609	1.031099	0.000061
 784	7.7909e+01	7.7891	-4.794099	-0.000041	-0.405774	-0.068740	-0.000004
 785	7.8008e+01	7.8002	-4.757764	0.000365	3.651965	0.618660	0.000037
 786	7.8108e+01	7.8101	-4.701245	0.000568	5.680835	0.962360	0.000057
 787	7.8207e+01	7.8199	-4.660873	0.000406	4.057739	0.687400	0.000041
 788	7.8306e+01	7.8294	-4.624539	0.000365	3.651965	0.618660	0.000037
 789	7.8406e+01	7.8399	-4.620502	0.000041	0.405774	0.068740	0.000004
 790	7.8505e+01	7.8502	-4.535722	0.000852	8.521253	1.443539	0.000085
 791	7.8605e+01	7.8595	-4.523611	0.000122	1.217322	0.206220	0.000012
 792	7.8704e+01	7.8705	-4.515536	0.000081	0.811548	0.137480	0.000008
 793	7.8804e+01	7.8789	-4.430756	0.000852	8.521253	1.443539	0.000085
 794	7.8903e+01	7.8896	-4.422682	0.000081	0.811548	0.137480	0.000008
 795	7.9003e+01	7.8996	-4.406534	0.000162	1.623096	0.274960	0.000016
 796	7.9103e+01	7.9099	-4.358088	0.000487	4.869287	0.824880	0.000049
 797	7.9202e+01	7.9185	-4.317717	0.000406	4.057739	0.687400	0.000041
 798	7.9302e+01	7.9297	-4.273308	0.000446	4.463513	0.756140	0.000045
 799	7.9401e+01	7.9400	-4.257160	0.000162	1.623096	0.274960	0.000016
 800	7.9501e+01	7.9492	-4.172380	0.000852	8.521253	1.443539	0.000085
 801	7.9600e+01	7.9600	-4.176417	-0.000041	-0.405774	-0.068740	-0.000004
 802	7.9700e+01	7.9691	-4.136046	0.000406	4.057739	0.687400	0.000041
 803	7.9799e+01	7.9796	-4.095674	0.000406	4.057739	0.687400	0.000041
 804	7.9898e+01	7.9887	-4.059340	0.000365	3.651965	0.618660	0.000037
 805	7.9998e+01	7.9996	-4.047229	0.000122	1.217322	0.206220	0.000012
 806	8.0097e+01	8.0098	-3.978597	0.000690	6.898157	1.168579	0.000069
 807	8.0197e+01	8.0191	-3.942263	0.000365	3.651965	0.618660	0.000037
 808	8.0296e+01	8.0283	-3.922077	0.000203	2.028870	0.343700	0.000020
 809	8.0396e+01	8.0383	-3.877669	0.000446	4.463513	0.756140	0.000045
 810	8.0496e+01	8.0486	-3.849409	0.000284	2.840418	0.481180	0.000028
 811	8.0595e+01	8.0589	-3.809038	0.000406	4.057739	0.687400	0.000041
 812	8.0695e+01	8.0732	-3.776740	0.000325	3.246191	0.549920	0.000032
 813	8.0794e+01	8.0787	-3.724258	0.000528	5.275061	0.893620	0.000053
 814	8.0894e+01	8.0885	-3.728295	-0.000041	-0.405774	-0.068740	-0.000004
 815	8.0993e+01	8.0991	-3.663701	0.000649	6.492383	1.099839	0.000065
 816	8.1093e+01	8.1078	-3.631404	0.000325	3.246191	0.549920	0.000032
 817	8.1192e+01	8.1188	-3.582958	0.000487	4.869287	0.824880	0.000049
 818	8.1291e+01	8.1280	-3.538549	0.000446	4.463513	0.756140	0.000045
 819	8.1391e+01	8.1387	-3.473955	0.000649	6.492383	1.099839	0.000065
 820	8.1490e+01	8.1483	-3.461844	0.000122	1.217322	0.206220	0.000012
 821	8.1590e+01	8.1577	-3.409361	0.000528	5.275061	0.893620	0.000053
 822	8.1689e+01	8.1679	-3.368990	0.000406	4.057739	0.687400	0.000041
 823	8.1789e+01	8.1787	-3.360916	0.000081	0.811548	0.137480	0.000008
 824	8.1888e+01	8.1925	-3.276136	0.000852	8.521253	1.443539	0.000085
 825	8.1988e+01	8.1982	-3.292284	-0.000162	-1.623096	-0.274960	-0.000016
 826	8.2088e+01	8.2076	-3.251913	0.000406	4.057739	0.687400	0.000041
 827	8.2187e+01	8.2178	-3.211541	0.000406	4.057739	0.687400	0.000041
 828	8.2287e+01	8.2281	-3.146947	0.000649	6.492383	1.099839	0.000065
 829	8.2386e+01	8.2362	-3.102539	0.000446	4.463513	0.756140	0.000045
 830	8.2486e+01	8.2472	-3.050056	0.000528	5.275061	0.893620	0.000053
 831	8.2585e+01	8.2578	-3.046019	0.000041	0.405774	0.068740	0.000004
 832	8.2684e+01	8.2670	-3.021796	0.000243	2.434644	0.412440	0.000024
 833	8.2784e+01	8.2769	-2.973350	0.000487	4.869287	0.824880	0.000049
 834	8.2883e+01	8.2869	-2.904719	0.000690	6.898157	1.168579	0.000069
 835	8.2983e+01	8.2976	-2.896645	0.000081	0.811548	0.137480	0.000008
 836	8.3082e+01	8.3073	-2.844162	0.000528	5.275061	0.893620	0.000053
 837	8.3182e+01	8.3179	-2.767457	0.000771	7.709705	1.306059	0.000077
 838	8.3281e+01	8.3275	-2.759382	0.000081	0.811548	0.137480	0.000008
 839	8.3381e+01	8.3370	-2.694788	0.000649	6.492383	1.099839	0.000065
 840	8.3481e+01	8.3481	-2.654417	0.000406	4.057739	0.687400	0.000041
 841	8.3580e+01	8.3572	-2.601934	0.000528	5.275061	0.893620	0.000053
 842	8.3680e+01	8.3678	-2.581748	0.000203	2.028870	0.343700	0.000020
 843	8.3779e+01	8.3773	-2.525228	0.000568	5.680835	0.962360	0.000057
 844	8.3879e+01	8.3878	-2.480820	0.000446	4.463513	0.756140	0.000045
 845	8.3978e+01	8.3972	-2.420263	0.000609	6.086609	1.031099	0.000061
 846	8.4078e+01	8.4071	-2.379892	0.000406	4.057739	0.687400	0.000041
 847	8.4177e+01	8.4173	-2.335483	0.000446	4.463513	0.756140	0.000045
 848	8.4276e+01	8.4267	-2.299149	0.000365	3.651965	0.618660	0.000037
 849	8.4376e+01	8.4370	-2.230517	0.000690	6.898157	1.168579	0.000069
 850	8.4475e+01	8.4467	-2.210332	0.000203	2.028870	0.343700	0.000020
 851	8.4575e+01	8.4570	-2.169960	0.000406	4.057739	0.687400	0.000041
 852	8.4674e+01	8.4660	-2.109403	0.000609	6.086609	1.031099	0.000061
 853	8.4774e+01	8.4766	-2.056921	0.000528	5.275061	0.893620	0.000053
 854	8.4874e+01	8.4855	-2.036735	0.000203	2.028870	0.343700	0.000020
 855	8.4973e+01	8.4967	-1.955992	0.000812	8.115479	1.374799	0.000081
 856	8.5073e+01	8.5064	-1.891398	0.000649	6.492383	1.099839	0.000065
 857	8.5172e+01	8.5159	-1.879287	0.000122	1.217322	0.206220	0.000012
 858	8.5272e+01	8.5268	-1.855064	0.000243	2.434644	0.412440	0.000024
 859	8.5371e+01	8.5359	-1.782395	0.000730	7.303931	1.237319	0.000073
 860	8.5471e+01	8.5464	-1.746061	0.000365	3.651965	0.618660	0.000037
 861	8.5570e+01	8.5565	-1.697616	0.000487	4.869287	0.824880	0.000049
 862	8.5669e+01	8.5667	-1.661281	0.000365	3.651965	0.618660	0.000037
 863	8.5769e+01	8.5755	-1.540167	0.001217	12.173218	2.062199	0.000122
 864	8.5868e+01	8.5853	-1.511907	0.000284	2.840418	0.481180	0.000028
 865	8.5968e+01	8.5951	-1.491722	0.000203	2.028870	0.343700	0.000020
 866	8.6067e+01	8.6053	-1.427127	0.000649	6.492383	1.099839	0.000065
 867	8.6167e+01	8.6158	-1.398868	0.000284	2.840418	0.481180	0.000028
 868	8.6266e+01	8.6256	-1.301976	0.000974	9.738574	1.649759	0.000097
 869	8.6366e+01	8.6362	-1.245456	0.000568	5.680835	0.962360	0.000057
 870	8.6466e+01	8.6457	-1.229308	0.000162	1.623096	0.274960	0.000016
 871	8.6565e+01	8.6554	-1.176825	0.000528	5.275061	0.893620	0.000053
 872	8.6665e+01	8.6652	-1.096082	0.000812	8.115479	1.374799	0.000081
 873	8.6764e+01	8.6758	-1.019377	0.000771	7.709705	1.306059	0.000077
 874	8.6864e+01	8.6855	-0.995154	0.000243	2.434644	0.412440	0.000024
 875	8.6963e+01	8.6956	-0.918448	0.000771	7.709705	1.306059	0.000077
 876	8.7063e+01	8.7047	-0.898263	0.000203	2.028870	0.343700	0.000020
 877	8.7162e+01	8.7158	-0.817520	0.000812	8.115479	1.374799	0.000081
 878	8.7261e+01	8.7256	-0.732740	0.000852	8.521253	1.443539	0.000085
 879	8.7361e+01	8.7363	-0.684295	0.000487	4.869287	0.824880	0.000049
 880	8.7460e+01	8.7451	-0.635849	0.000487	4.869287	0.824880	0.000049
 881	8.7560e+01	8.7560	-0.579329	0.000568	5.680835	0.962360	0.000057
 882	8.7659e+01	8.7652	-0.510698	0.000690	6.898157	1.168579	0.000069
 883	8.7759e+01	8.7746	-0.425918	0.000852	8.521253	1.443539	0.000085
 884	8.7859e+01	8.7850	-0.357287	0.000690	6.898157	1.168579	0.000069
 885	8.7958e+01	8.7949	-0.324989	0.000325	3.246191	0.549920	0.000032
 886	8.8058e+01	8.8043	-0.248284	0.000771	7.709705	1.306059	0.000077
 887	8.8157e+01	8.8149	-0.199838	0.000487	4.869287	0.824880	0.000049
 888	8.8257e+01	8.8245	-0.143318	0.000568	5.680835	0.962360	0.000057
 889	8.8356e+01	8.8341	-0.054501	0.000893	8.927027	1.512279	0.000089
 890	8.8456e+01	8.8442	0.014130	0.000690	6.898157	1.168579	0.000069
 891	8.8555e+01	8.8550	0.042390	0.000284	2.840418	0.481180	0.000028
 892	8.8654e+01	8.8642	0.147355	0.001055	10.550122	1.787239	0.000105
 893	8.8754e+01	8.8738	0.159467	0.000122	1.217322	0.206220	0.000012
 894	8.8853e+01	8.8843	0.232135	0.000730	7.303931	1.237319	0.000073
 895	8.8953e+01	8.8936	0.357287	0.001258	12.578992	2.130939	0.000126
 896	8.9052e+01	8.9043	0.365361	0.000081	0.811548	0.137480	0.000008
 897	8.9152e+01	8.9145	0.474363	0.001096	10.955896	1.855979	0.000110
 898	8.9251e+01	8.9235	0.538958	0.000649	6.492383	1.099839	0.000065
 899	8.9351e+01	8.9346	0.583366	0.000446	4.463513	0.756140	0.000045
 900	8.9451e+01	8.9445	0.660072	0.000771	7.709705	1.306059	0.000077
 901	8.9550e+01	8.9536	0.744852	0.000852	8.521253	1.443539	0.000085
 902	8.9650e+01	8.9645	0.817520	0.000730	7.303931	1.237319	0.000073
 903	8.9749e+01	8.9730	0.906337	0.000893	8.927027	1.512279	0.000089
 904	8.9849e+01	8.9828	0.946708	0.000406	4.057739	0.687400	0.000041
 905	8.9948e+01	8.9927	1.023414	0.000771	7.709705	1.306059	0.000077
 906	9.0047e+01	9.0041	1.108194	0.000852	8.521253	1.443539	0.000085
 907	9.0147e+01	9.0138	1.168751	0.000609	6.086609	1.031099	0.000061
 908	9.0246e+01	9.0234	1.241419	0.000730	7.303931	1.237319	0.000073
 909	9.0346e+01	9.0337	1.342348	0.001014	10.144348	1.718499	0.000101
 910	9.0445e+01	9.0434	1.406942	0.000649	6.492383	1.099839	0.000065
 911	9.0545e+01	9.0528	1.507870	0.001014	10.144348	1.718499	0.000101
 912	9.0644e+01	9.0633	1.560353	0.000528	5.275061	0.893620	0.000053
 913	9.0744e+01	9.0726	1.612836	0.000528	5.275061	0.893620	0.000053
 914	9.0844e+01	9.0833	1.713764	0.001014	10.144348	1.718499	0.000101
 915	9.0943e+01	9.0924	1.794507	0.000812	8.115479	1.374799	0.000081
 916	9.1043e+01	9.1022	1.863138	0.000690	6.898157	1.168579	0.000069
 917	9.1142e+01	9.1132	1.935807	0.000730	7.303931	1.237319	0.000073
 918	9.1242e+01	9.1225	2.012512	0.000771	7.709705	1.306059	0.000077
 919	9.1341e+01	9.1323	2.109403	0.000974	9.738574	1.649759	0.000097
 920	9.1441e+01	9.1421	2.198220	0.000893	8.927027	1.512279	0.000089
 921	9.1540e+01	9.1529	2.291075	0.000933	9.332801	1.581019	0.000093
 922	9.1639e+01	9.1626	2.383929	0.000933	9.332801	1.581019	0.000093
 923	9.1739e+01	9.1727	2.452560	0.000690	6.898157	1.168579	0.000069
 924	9.1838e+01	9.1827	2.545414	0.000933	9.332801	1.581019	0.000093
 925	9.1938e+01	9.1919	2.630194	0.000852	8.521253	1.443539	0.000085
 926	9.2037e+01	9.2020	2.735159	0.001055	10.550122	1.787239	0.000105
 927	9.2137e+01	9.2131	2.771494	0.000365	3.651965	0.618660	0.000037
 928	9.2237e+01	9.2222	2.872422	0.001014	10.144348	1.718499	0.000101
 929	9.2336e+01	9.2316	2.965276	0.000933	9.332801	1.581019	0.000093
 930	9.2436e+01	9.2420	3.033908	0.000690	6.898157	1.168579	0.000069
 931	9.2535e+01	9.2529	3.150984	0.001177	11.767444	1.993459	0.000118
 932	9.2635e+01	9.2613	3.235764	0.000852	8.521253	1.443539	0.000085
 933	9.2734e+01	9.2725	3.328618	0.000933	9.332801	1.581019	0.000093
 934	9.2834e+01	9.2822	3.405324	0.000771	7.709705	1.306059	0.000077
 935	9.2933e+01	9.2921	3.514327	0.001096	10.955896	1.855979	0.000110
 936	9.3032e+01	9.3018	3.631404	0.001177	11.767444	1.993459	0.000118
 937	9.3132e+01	9.3122	3.740406	0.001096	10.955896	1.855979	0.000110
 938	9.3231e+01	9.3213	3.833260	0.000933	9.332801	1.581019	0.000093
 939	9.3331e+01	9.3317	3.938226	0.001055	10.550122	1.787239	0.000105
 940	9.3430e+01	9.3421	4.051266	0.001136	11.361670	1.924719	0.000114
 941	9.3530e+01	9.3517	4.132008	0.000812	8.115479	1.374799	0.000081
 942	9.3629e+01	9.3623	4.265234	0.001339	13.390540	2.268419	0.000134
 943	9.3729e+01	9.3708	4.374237	0.001096	10.955896	1.855979	0.000110
 944	9.3829e+01	9.3823	4.487276	0.001136	11.361670	1.924719	0.000114
 945	9.3928e+01	9.3916	4.612428	0.001258	12.578992	2.130939	0.000126
 946	9.4028e+01	9.4003	4.713356	0.001014	10.144348	1.718499	0.000101
 947	9.4127e+01	9.4117	4.878879	0.001664	16.636731	2.818339	0.000166
 948	9.4227e+01	9.4211	4.991918	0.001136	11.361670	1.924719	0.000114
 949	9.4326e+01	9.4312	5.117070	0.001258	12.578992	2.130939	0.000126
 950	9.4425e+01	9.4411	5.314889	0.001988	19.882923	3.368258	0.000199
 951	9.4525e+01	9.4514	5.403706	0.000893	8.927027	1.512279	0.000089
 952	9.4624e+01	9.4610	5.524820	0.001217	12.173218	2.062199	0.000122
 953	9.4724e+01	9.4704	5.662083	0.001380	13.796314	2.337159	0.000138
 954	9.4823e+01	9.4804	5.807420	0.001461	14.607862	2.474639	0.000146
 955	9.4923e+01	9.4907	5.989091	0.001826	18.259827	3.093298	0.000183
 956	9.5022e+01	9.4999	6.102131	0.001136	11.361670	1.924719	0.000114
 957	9.5122e+01	9.5104	6.219208	0.001177	11.767444	1.993459	0.000118
 958	9.5222e+01	9.5209	6.396842	0.001785	17.854053	3.024558	0.000179
 959	9.5321e+01	9.5300	6.534104	0.001380	13.796314	2.337159	0.000138
 960	9.5421e+01	9.5411	6.703664	0.001704	17.042505	2.887079	0.000170
 961	9.5520e+01	9.5508	6.816704	0.001136	11.361670	1.924719	0.000114
 962	9.5620e+01	9.5594	6.994338	0.001785	17.854053	3.024558	0.000179
 963	9.5719e+01	9.5707	7.111415	0.001177	11.767444	1.993459	0.000118
 964	9.5819e+01	9.5801	7.276937	0.001664	16.636731	2.818339	0.000166
 965	9.5918e+01	9.5899	7.418237	0.001420	14.202088	2.405899	0.000142
 966	9.6017e+01	9.5996	7.575685	0.001583	15.825183	2.680859	0.000158
 967	9.6117e+01	9.6094	7.692762	0.001177	11.767444	1.993459	0.000118
 968	9.6216e+01	9.6198	7.838099	0.001461	14.607862	2.474639	0.000146
 969	9.6316e+01	9.6305	7.951139	0.001136	11.361670	1.924719	0.000114
 970	9.6415e+01	9.6412	8.100513	0.001501	15.013636	2.543379	0.000150
 971	9.6515e+01	9.6503	8.233738	0.001339	13.390540	2.268419	0.000134
 972	9.6615e+01	9.6606	8.391187	0.001583	15.825183	2.680859	0.000158
 973	9.6714e+01	9.6700	8.576895	0.001867	18.665601	3.162038	0.000187
 974	9.6814e+01	9.6802	8.706083	0.001298	12.984766	2.199679	0.000130
 975	9.6913e+01	9.6899	8.899866	0.001948	19.477149	3.299518	0.000195
 976	9.7013e+01	9.6992	9.045203	0.001461	14.607862	2.474639	0.000146
 977	9.7112e+01	9.7101	9.202651	0.001583	15.825183	2.680859	0.000158
 978	9.7212e+01	9.7194	9.368173	0.001664	16.636731	2.818339	0.000166
 979	9.7311e+01	9.7293	9.485250	0.001177	11.767444	1.993459	0.000118
 980	9.7410e+01	9.7388	9.646736	0.001623	16.230957	2.749599	0.000162
 981	9.7510e+01	9.7496	9.824370	0.001785	17.854053	3.024558	0.000179
 982	9.7609e+01	9.7598	9.925298	0.001014	10.144348	1.718499	0.000101
 983	9.7709e+01	9.7688	10.106969	0.001826	18.259827	3.093298	0.000183
 984	9.7808e+01	9.7791	10.244232	0.001380	13.796314	2.337159	0.000138
 985	9.7908e+01	9.7889	10.393606	0.001501	15.013636	2.543379	0.000150
 986	9.8007e+01	9.7987	10.555091	0.001623	16.230957	2.749599	0.000162
 987	9.8107e+01	9.8087	10.748874	0.001948	19.477149	3.299518	0.000195
 988	9.8207e+01	9.8193	10.902285	0.001542	15.419410	2.612119	0.000154
 989	9.8306e+01	9.8293	11.075882	0.001745	17.448279	2.955819	0.000174
 990	9.8406e+01	9.8401	11.233330	0.001583	15.825183	2.680859	0.000158
 991	9.8505e+01	9.8486	11.390778	0.001583	15.825183	2.680859	0.000158
 992	9.8605e+01	9.8584	11.596672	0.002069	20.694471	3.505738	0.000207
 993	9.8704e+01	9.8682	11.737972	0.001420	14.202088	2.405899	0.000142
 994	9.8803e+01	9.8773	11.939829	0.002029	20.288697	3.436998	0.000203
 995	9.8903e+01	9.8877	12.117463	0.001785	17.854053	3.024558	0.000179
 996	9.9002e+01	9.8981	12.250688	0.001339	13.390540	2.268419	0.000134
 997	9.9102e+01	9.9078	12.444471	0.001948	19.477149	3.299518	0.000195
 998	9.9201e+01	9.9184	12.622105	0.001785	17.854053	3.024558	0.000179
 999	9.9301e+01	9.9296	12.815887	0.001948	19.477149	3.299518	0.000195
1000	9.9400e+01	9.9390	12.973336	0.001583	15.825183	2.680859	0.000158
1001	9.9500e+01	9.9480	13.150970	0.001785	17.854053	3.024558	0.000179
1002	9.9600e+01	9.9583	13.348789	0.001988	19.882923	3.368258	0.000199
1003	9.9699e+01	9.9683	13.550646	0.002029	20.288697	3.436998	0.000203
1004	9.9799e+01	9.9783	13.687909	0.001380	13.796314	2.337159	0.000138
1005	9.9898e+01	9.9881	13.918025	0.002313	23.129114	3.918178	0.000231
1006	9.9998e+01	9.9978	14.059325	0.001420	14.202088	2.405899	0.000142
1007	1.0010e+02	9.9884	14.208699	-0.001501	-15.013636	-2.543379	0.000150
1008	1.0020e+02	9.9801	14.394407	-0.001867	-18.665601	-3.162038	0.000187
1009	1.0030e+02	9.9691	14.527633	-0.001339	-13.390540	-2.268419	0.000134
1010	1.0040e+02	9.9580	14.636636	-0.001096	-10.955896	-1.855979	0.000110
1011	1.0050e+02	9.9487	14.790047	-0.001542	-15.419410	-2.612119	0.000154
1012	1.0059e+02	9.9384	14.959606	-0.001704	-17.042505	-2.887079	0.000170
1013	1.0069e+02	9.9292	15.044386	-0.000852	-8.521253	-1.443539	0.000085
1014	1.0079e+02	9.9178	15.157426	-0.001136	-11.361670	-1.924719	0.000114
1015	1.0089e+02	9.9078	15.298726	-0.001420	-14.202088	-2.405899	0.000142
1016	1.0099e+02	9.8975	15.407729	-0.001096	-10.955896	-1.855979	0.000110
1017	1.0109e+02	9.8891	15.532880	-0.001258	-12.578992	-2.130939	0.000126
1018	1.0119e+02	9.8786	15.670142	-0.001380	-13.796314	-2.337159	0.000138
1019	1.0129e+02	9.8682	15.779145	-0.001096	-10.955896	-1.855979	0.000110
1020	1.0139e+02	9.8591	15.972928	-0.001948	-19.477149	-3.299518	0.000195
1021	1.0149e+02	9.8481	16.053670	-0.000812	-8.115479	-1.374799	0.000081
1022	1.0159e+02	9.8392	16.182859	-0.001298	-12.984766	-2.199679	0.000130
1023	1.0169e+02	9.8291	16.312047	-0.001298	-12.984766	-2.199679	0.000130
1024	1.0179e+02	9.8193	16.437198	-0.001258	-12.578992	-2.130939	0.000126
1025	1.0189e+02	9.8096	16.566387	-0.001298	-12.984766	-2.199679	0.000130
1026	1.0199e+02	9.7987	16.715761	-0.001501	-15.013636	-2.543379	0.000150
1027	1.0209e+02	9.7900	16.857060	-0.001420	-14.202088	-2.405899	0.000142
1028	1.0219e+02	9.7785	16.962026	-0.001055	-10.550122	-1.787239	0.000105
1029	1.0229e+02	9.7699	17.066991	-0.001055	-10.550122	-1.787239	0.000105
1030	1.0239e+02	9.7595	17.171957	-0.001055	-10.550122	-1.787239	0.000105
1031	1.0248e+02	9.7498	17.276922	-0.001055	-10.550122	-1.787239	0.000105
1032	1.0258e+02	9.7390	17.430334	-0.001542	-15.419410	-2.612119	0.000154
1033	1.0268e+02	9.7290	17.515113	-0.000852	-8.521253	-1.443539	0.000085
1034	1.0278e+02	9.7192	17.616042	-0.001014	-10.144348	-1.718499	0.000101
1035	1.0288e+02	9.7096	17.712933	-0.000974	-9.738574	-1.649759	0.000097
1036	1.0298e+02	9.6997	17.834047	-0.001217	-12.173218	-2.062199	0.000122
1037	1.0308e+02	9.6900	17.914790	-0.000812	-8.115479	-1.374799	0.000081
1038	1.0318e+02	9.6794	18.027830	-0.001136	-11.361670	-1.924719	0.000114
1039	1.0328e+02	9.6693	18.120684	-0.000933	-9.332801	-1.581019	0.000093
1040	1.0338e+02	9.6603	18.225649	-0.001055	-10.550122	-1.787239	0.000105
1041	1.0348e+02	9.6496	18.306392	-0.000812	-8.115479	-1.374799	0.000081
1042	1.0358e+02	9.6391	18.415395	-0.001096	-10.955896	-1.855979	0.000110
1043	1.0368e+02	9.6304	18.520360	-0.001055	-10.550122	-1.787239	0.000105
1044	1.0378e+02	9.6206	18.637437	-0.001177	-11.767444	-1.993459	0.000118
1045	1.0388e+02	9.6106	18.697994	-0.000609	-6.086609	-1.031099	0.000061
1046	1.0398e+02	9.5998	18.782774	-0.000852	-8.521253	-1.443539	0.000085
1047	1.0408e+02	9.5898	18.875628	-0.000933	-9.332801	-1.581019	0.000093
1048	1.0418e+02	9.5798	18.952334	-0.000771	-7.709705	-1.306059	0.000077
1049	1.0428e+02	9.5699	19.033076	-0.000812	-8.115479	-1.374799	0.000081
1050	1.0438e+02	9.5599	19.093633	-0.000609	-6.086609	-1.031099	0.000061
1051	1.0447e+02	9.5508	19.166302	-0.000730	-7.303931	-1.237319	0.000073
1052	1.0457e+02	9.5399	19.299527	-0.001339	-13.390540	-2.268419	0.000134
1053	1.0467e+02	9.5300	19.376233	-0.000771	-7.709705	-1.306059	0.000077
1054	1.0477e+02	9.5209	19.448901	-0.000730	-7.303931	-1.237319	0.000073
1055	1.0487e+02	9.5117	19.473124	-0.000243	-2.434644	-0.412440	0.000024
1056	1.0497e+02	9.5007	19.582127	-0.001096	-10.955896	-1.855979	0.000110
1057	1.0507e+02	9.4906	19.687092	-0.001055	-10.550122	-1.787239	0.000105
1058	1.0517e+02	9.4812	19.727464	-0.000406	-4.057739	-0.687400	0.000041
1059	1.0527e+02	9.4698	19.816281	-0.000893	-8.927027	-1.512279	0.000089
1060	1.0537e+02	9.4604	19.864726	-0.000487	-4.869287	-0.824880	0.000049
1061	1.0547e+02	9.4507	19.953543	-0.000893	-8.927027	-1.512279	0.000089
1062	1.0557e+02	9.4399	20.014100	-0.000609	-6.086609	-1.031099	0.000061
1063	1.0567e+02	9.4312	20.058509	-0.000446	-4.463513	-0.756140	0.000045
1064	1.0577e+02	9.4214	20.151363	-0.000933	-9.332801	-1.581019	0.000093
1065	1.0587e+02	9.4106	20.207883	-0.000568	-5.680835	-0.962360	0.000057
1066	1.0597e+02	9.4019	20.292663	-0.000852	-8.521253	-1.443539	0.000085
1067	1.0607e+02	9.3916	20.353220	-0.000609	-6.086609	-1.031099	0.000061
1068	1.0617e+02	9.3812	20.373406	-0.000203	-2.028870	-0.343700	0.000020
1069	1.0627e+02	9.3710	20.462222	-0.000893	-8.927027	-1.512279	0.000089
1070	1.0637e+02	9.3606	20.559114	-0.000974	-9.738574	-1.649759	0.000097
1071	1.0647e+02	9.3515	20.599485	-0.000406	-4.057739	-0.687400	0.000041
1072	1.0656e+02	9.3420	20.708488	-0.001096	-10.955896	-1.855979	0.000110
1073	1.0666e+02	9.3322	20.712525	-0.000041	-0.405774	-0.068740	0.000004
1074	1.0676e+02	9.3198	20.801342	-0.000893	-8.927027	-1.512279	0.000089
1075	1.0686e+02	9.3115	20.869973	-0.000690	-6.898157	-1.168579	0.000069
1076	1.0696e+02	9.3018	20.878047	-0.000081	-0.811548	-0.137480	0.000008
1077	1.0706e+02	9.2920	20.938605	-0.000609	-6.086609	-1.031099	0.000061
1078	1.0716e+02	9.2822	21.027421	-0.000893	-8.927027	-1.512279	0.000089
1079	1.0726e+02	9.2725	21.063756	-0.000365	-3.651965	-0.618660	0.000037
1080	1.0736e+02	9.2619	21.087979	-0.000243	-2.434644	-0.412440	0.000024
1081	1.0746e+02	9.2519	21.180833	-0.000933	-9.332801	-1.581019	0.000093
1082	1.0756e+02	9.2419	21.213130	-0.000325	-3.246191	-0.549920	0.000032
1083	1.0766e+02	9.2319	21.261575	-0.000487	-4.869287	-0.824880	0.000049
1084	1.0776e+02	9.2217	21.297910	-0.000365	-3.651965	-0.618660	0.000037
1085	1.0786e+02	9.2120	21.354429	-0.000568	-5.680835	-0.962360	0.000057
1086	1.0796e+02	9.2018	21.386727	-0.000325	-3.246191	-0.549920	0.000032
1087	1.0806e+02	9.1924	21.467469	-0.000812	-8.115479	-1.374799	0.000081
1088	1.0816e+02	9.1831	21.503804	-0.000365	-3.651965	-0.618660	0.000037
1089	1.0826e+02	9.1724	21.528026	-0.000243	-2.434644	-0.412440	0.000024
1090	1.0836e+02	9.1621	21.576472	-0.000487	-4.869287	-0.824880	0.000049
1091	1.0845e+02	9.1537	21.677400	-0.001014	-10.144348	-1.718499	0.000101
1092	1.0855e+02	9.1420	21.669326	0.000081	0.811548	0.137480	-0.000008
1093	1.0865e+02	9.1324	21.717772	-0.000487	-4.869287	-0.824880	0.000049
1094	1.0875e+02	9.1224	21.766217	-0.000487	-4.869287	-0.824880	0.000049
1095	1.0885e+02	9.1132	21.798514	-0.000325	-3.246191	-0.549920	0.000032
1096	1.0895e+02	9.1028	21.863109	-0.000649	-6.492383	-1.099839	0.000065
1097	1.0905e+02	9.0926	21.927703	-0.000649	-6.492383	-1.099839	0.000065
1098	1.0915e+02	9.0852	21.931740	-0.000041	-0.405774	-0.068740	0.000004
1099	1.0925e+02	9.0726	21.943851	-0.000122	-1.217322	-0.206220	0.000012
1100	1.0935e+02	9.0628	21.964037	-0.000203	-2.028870	-0.343700	0.000020
1101	1.0945e+02	9.0527	22.028631	-0.000649	-6.492383	-1.099839	0.000065
1102	1.0955e+02	9.0430	22.036705	-0.000081	-0.811548	-0.137480	0.000008
1103	1.0965e+02	9.0336	22.105337	-0.000690	-6.898157	-1.168579	0.000069
1104	1.0975e+02	9.0240	22.093225	0.000122	1.217322	0.206220	-0.000012
1105	1.0985e+02	9.0161	22.137634	-0.000446	-4.463513	-0.756140	0.000045
1106	1.0995e+02	9.0029	22.202228	-0.000649	-6.492383	-1.099839	0.000065
1107	1.1005e+02	8.9935	22.198191	0.000041	0.405774	0.068740	-0.000004
1108	1.1015e+02	8.9838	22.230488	-0.000325	-3.246191	-0.549920	0.000032
1109	1.1025e+02	8.9732	22.270859	-0.000406	-4.057739	-0.687400	0.000041
1110	1.1035e+02	8.9639	22.319305	-0.000487	-4.869287	-0.824880	0.000049
1111	1.1044e+02	8.9542	22.339491	-0.000203	-2.028870	-0.343700	0.000020
1112	1.1054e+02	8.9413	22.327379	0.000122	1.217322	0.206220	-0.000012
1113	1.1064e+02	8.9336	22.387936	-0.000609	-6.086609	-1.031099	0.000061
1114	1.1074e+02	8.9238	22.436382	-0.000487	-4.869287	-0.824880	0.000049
1115	1.1084e+02	8.9138	22.444456	-0.000081	-0.811548	-0.137480	0.000008
1116	1.1094e+02	8.9036	22.488865	-0.000446	-4.463513	-0.756140	0.000045
1117	1.1104e+02	8.8941	22.488865	-0.000000	-0.000000	-0.000000	0.000000
1118	1.1114e+02	8.8840	22.513087	-0.000243	-2.434644	-0.412440	0.000024
1119	1.1124e+02	8.8737	22.593830	-0.000812	-8.115479	-1.374799	0.000081
1120	1.1134e+02	8.8643	22.565570	0.000284	2.840418	0.481180	-0.000028
1121	1.1144e+02	8.8541	22.577682	-0.000122	-1.217322	-0.206220	0.000012
1122	1.1154e+02	8.8440	22.577682	-0.000000	-0.000000	-0.000000	0.000000
1123	1.1164e+02	8.8351	22.593830	-0.000162	-1.623096	-0.274960	0.000016
1124	1.1174e+02	8.8242	22.638239	-0.000446	-4.463513	-0.756140	0.000045
1125	1.1184e+02	8.8148	22.678610	-0.000406	-4.057739	-0.687400	0.000041
1126	1.1194e+02	8.8056	22.642276	0.000365	3.651965	0.618660	-0.000037
1127	1.1204e+02	8.7956	22.702833	-0.000609	-6.086609	-1.031099	0.000061
1128	1.1214e+02	8.7844	22.698796	0.000041	0.405774	0.068740	-0.000004
1129	1.1224e+02	8.7744	22.718981	-0.000203	-2.028870	-0.343700	0.000020
1130	1.1234e+02	8.7653	22.727056	-0.000081	-0.811548	-0.137480	0.000008
1131	1.1244e+02	8.7556	22.751278	-0.000243	-2.434644	-0.412440	0.000024
1132	1.1253e+02	8.7457	22.751278	-0.000000	-0.000000	-0.000000	0.000000
1133	1.1263e+02	8.7354	22.791650	-0.000406	-4.057739	-0.687400	0.000041
1134	1.1273e+02	8.7242	22.775501	0.000162	1.623096	0.274960	-0.000016
1135	1.1283e+02	8.7136	22.819910	-0.000446	-4.463513	-0.756140	0.000045
1136	1.1293e+02	8.7048	22.811835	0.000081	0.811548	0.137480	-0.000008
1137	1.1303e+02	8.6954	22.815873	-0.000041	-0.405774	-0.068740	0.000004
1138	1.1313e+02	8.6860	22.827984	-0.000122	-1.217322	-0.206220	0.000012
1139	1.1323e+02	8.6752	22.852207	-0.000243	-2.434644	-0.412440	0.000024
1140	1.1333e+02	8.6663	22.836058	0.000162	1.623096	0.274960	-0.000016
1141	1.1343e+02	8.6561	22.868355	-0.000325	-3.246191	-0.549920	0.000032
1142	1.1353e+02	8.6459	22.868355	-0.000000	-0.000000	-0.000000	0.000000
1143	1.1363e+02	8.6384	22.868355	-0.000000	-0.000000	-0.000000	0.000000
1144	1.1373e+02	8.6259	22.888541	-0.000203	-2.028870	-0.343700	0.000020
1145	1.1383e+02	8.6157	22.916801	-0.000284	-2.840418	-0.481180	0.000028
1146	1.1393e+02	8.6066	22.912764	0.000041	0.405774	0.068740	-0.000004
1147	1.1403e+02	8.5965	22.912764	-0.000000	-0.000000	-0.000000	0.000000
1148	1.1413e+02	8.5859	22.920838	-0.000081	-0.811548	-0.137480	0.000008
1149	1.1423e+02	8.5752	22.912764	0.000081	0.811548	0.137480	-0.000008
1150	1.1433e+02	8.5657	22.932950	-0.000203	-2.028870	-0.343700	0.000020
1151	1.1442e+02	8.5572	22.945061	-0.000122	-1.217322	-0.206220	0.000012
1152	1.1452e+02	8.5464	22.924875	0.000203	2.028870	0.343700	-0.000020
1153	1.1462e+02	8.5357	22.961210	-0.000365	-3.651965	-0.618660	0.000037
1154	1.1472e+02	8.5268	22.912764	0.000487	4.869287	0.824880	-0.000049
1155	1.1482e+02	8.5175	22.973321	-0.000609	-6.086609	-1.031099	0.000061
1156	1.1492e+02	8.5062	22.924875	0.000487	4.869287	0.824880	-0.000049
1157	1.1502e+02	8.4971	22.965247	-0.000406	-4.057739	-0.687400	0.000041
1158	1.1512e+02	8.4875	22.949098	0.000162	1.623096	0.274960	-0.000016
1159	1.1522e+02	8.4769	22.977358	-0.000284	-2.840418	-0.481180	0.000028
1160	1.1532e+02	8.4659	23.001581	-0.000243	-2.434644	-0.412440	0.000024
1161	1.1542e+02	8.4573	22.961210	0.000406	4.057739	0.687400	-0.000041
1162	1.1552e+02	8.4470	22.977358	-0.000162	-1.623096	-0.274960	0.000016
1163	1.1562e+02	8.4368	22.949098	0.000284	2.840418	0.481180	-0.000028
1164	1.1572e+02	8.4264	22.985432	-0.000365	-3.651965	-0.618660	0.000037
1165	1.1582e+02	8.4180	23.009655	-0.000243	-2.434644	-0.412440	0.000024
1166	1.1592e+02	8.4068	22.957172	0.000528	5.275061	0.893620	-0.000053
1167	1.1602e+02	8.3978	22.981395	-0.000243	-2.434644	-0.412440	0.000024
1168	1.1612e+02	8.3869	22.993507	-0.000122	-1.217322	-0.206220	0.000012
1169	1.1622e+02	8.3770	22.973321	0.000203	2.028870	0.343700	-0.000020
1170	1.1632e+02	8.3671	22.981395	-0.000081	-0.811548	-0.137480	0.000008
1171	1.1642e+02	8.3582	22.997544	-0.000162	-1.623096	-0.274960	0.000016
1172	1.1651e+02	8.3481	22.981395	0.000162	1.623096	0.274960	-0.000016
1173	1.1661e+02	8.3372	22.981395	-0.000000	-0.000000	-0.000000	0.000000
1174	1.1671e+02	8.3265	22.965247	0.000162	1.623096	0.274960	-0.000016
1175	1.1681e+02	8.3183	22.957172	0.000081	0.811548	0.137480	-0.000008
1176	1.1691e+02	8.3084	22.973321	-0.000162	-1.623096	-0.274960	0.000016
1177	1.1701e+02	8.2978	22.941024	0.000325	3.246191	0.549920	-0.000032
1178	1.1711e+02	8.2886	22.965247	-0.000243	-2.434644	-0.412440	0.000024
1179	1.1721e+02	8.2766	22.989469	-0.000243	-2.434644	-0.412440	0.000024
1180	1.1731e+02	8.2674	22.965247	0.000243	2.434644	0.412440	-0.000024
1181	1.1741e+02	8.2574	22.977358	-0.000122	-1.217322	-0.206220	0.000012
1182	1.1751e+02	8.2474	22.989469	-0.000122	-1.217322	-0.206220	0.000012
1183	1.1761e+02	8.2373	22.949098	0.000406	4.057739	0.687400	-0.000041
1184	1.1771e+02	8.2279	22.936987	0.000122	1.217322	0.206220	-0.000012
1185	1.1781e+02	8.2184	22.941024	-0.000041	-0.405774	-0.068740	0.000004
1186	1.1791e+02	8.2080	22.945061	-0.000041	-0.405774	-0.068740	0.000004
1187	1.1801e+02	8.1982	22.961210	-0.000162	-1.623096	-0.274960	0.000016
1188	1.1811e+02	8.1878	22.985432	-0.000243	-2.434644	-0.412440	0.000024
1189	1.1821e+02	8.1776	22.957172	0.000284	2.840418	0.481180	-0.000028
1190	1.1831e+02	8.1677	22.945061	0.000122	1.217322	0.206220	-0.000012
1191	1.1841e+02	8.1580	22.924875	0.000203	2.028870	0.343700	-0.000020
1192	1.1850e+02	8.1489	22.945061	-0.000203	-2.028870	-0.343700	0.000020
1193	1.1860e+02	8.1384	22.916801	0.000284	2.840418	0.481180	-0.000028
1194	1.1870e+02	8.1290	22.936987	-0.000203	-2.028870	-0.343700	0.000020
1195	1.1880e+02	8.1187	22.932950	0.000041	0.405774	0.068740	-0.000004
1196	1.1890e+02	8.1076	22.936987	-0.000041	-0.405774	-0.068740	0.000004
1197	1.1900e+02	8.0986	22.872393	0.000649	6.492383	1.099839	-0.000065
1198	1.1910e+02	8.0885	22.949098	-0.000771	-7.709705	-1.306059	0.000077
1199	1.1920e+02	8.0775	22.900652	0.000487	4.869287	0.824880	-0.000049
1200	1.1930e+02	8.0687	22.904690	-0.000041	-0.405774	-0.068740	0.000004
1201	1.1940e+02	8.0578	22.896615	0.000081	0.811548	0.137480	-0.000008
1202	1.1950e+02	8.0493	22.928912	-0.000325	-3.246191	-0.549920	0.000032
1203	1.1960e+02	8.0394	22.920838	0.000081	0.811548	0.137480	-0.000008
1204	1.1970e+02	8.0280	22.900652	0.000203	2.028870	0.343700	-0.000020
1205	1.1980e+02	8.0185	22.884504	0.000162	1.623096	0.274960	-0.000016
1206	1.1990e+02	8.0083	22.924875	-0.000406	-4.057739	-0.687400	0.000041
1207	1.2000e+02	7.9988	22.880467	0.000446	4.463513	0.756140	-0.000045
1208	1.2010e+02	7.9889	22.876430	0.000041	0.405774	0.068740	-0.000004
1209	1.2020e+02	7.9794	22.880467	-0.000041	-0.405774	-0.068740	0.000004
1210	1.2030e+02	7.9688	22.896615	-0.000162	-1.623096	-0.274960	0.000016
1211	1.2039e+02	7.9599	22.856244	0.000406	4.057739	0.687400	-0.000041
1212	1.2049e+02	7.9492	22.868355	-0.000122	-1.217322	-0.206220	0.000012
1213	1.2059e+02	7.9395	22.832021	0.000365	3.651965	0.618660	-0.000037
1214	1.2069e+02	7.9297	22.856244	-0.000243	-2.434644	-0.412440	0.000024
1215	1.2079e+02	7.9193	22.864318	-0.000081	-0.811548	-0.137480	0.000008
1216	1.2089e+02	7.9092	22.836058	0.000284	2.840418	0.481180	-0.000028
1217	1.2099e+02	7.8994	22.868355	-0.000325	-3.246191	-0.549920	0.000032
1218	1.2109e+02	7.8893	22.840095	0.000284	2.840418	0.481180	-0.000028
1219	1.2119e+02	7.8800	22.827984	0.000122	1.217322	0.206220	-0.000012
1220	1.2129e+02	7.8696	22.791650	0.000365	3.651965	0.618660	-0.000037
1221	1.2139e+02	7.8589	22.848170	-0.000568	-5.680835	-0.962360	0.000057
1222	1.2149e+02	7.8495	22.799724	0.000487	4.869287	0.824880	-0.000049
1223	1.2159e+02	7.8391	22.795687	0.000041	0.405774	0.068740	-0.000004
1224	1.2169e+02	7.8291	22.767427	0.000284	2.840418	0.481180	-0.000028
1225	1.2179e+02	7.8208	22.832021	-0.000649	-6.492383	-1.099839	0.000065
1226	1.2189e+02	7.8097	22.751278	0.000812	8.115479	1.374799	-0.000081
1227	1.2199e+02	7.8004	22.783576	-0.000325	-3.246191	-0.549920	0.000032
1228	1.2209e+02	7.7899	22.767427	0.000162	1.623096	0.274960	-0.000016
1229	1.2219e+02	7.7796	22.799724	-0.000325	-3.246191	-0.549920	0.000032
1230	1.2229e+02	7.7708	22.759353	0.000406	4.057739	0.687400	-0.000041
1231	1.2239e+02	7.7598	22.759353	-0.000000	-0.000000	-0.000000	0.000000
1232	1.2248e+02	7.7506	22.747241	0.000122	1.217322	0.206220	-0.000012
1233	1.2258e+02	7.7413	22.735130	0.000122	1.217322	0.206220	-0.000012
1234	1.2268e+02	7.7298	22.731093	0.000041	0.405774	0.068740	-0.000004
1235	1.2278e+02	7.7203	22.759353	-0.000284	-2.840418	-0.481180	0.000028
1236	1.2288e+02	7.7093	22.723019	0.000365	3.651965	0.618660	-0.000037
1237	1.2298e+02	7.7010	22.710907	0.000122	1.217322	0.206220	-0.000012
1238	1.2308e+02	7.6905	22.686684	0.000243	2.434644	0.412440	-0.000024
1239	1.2318e+02	7.6807	22.739167	-0.000528	-5.275061	-0.893620	0.000053
1240	1.2328e+02	7.6711	22.634202	0.001055	10.550122	1.787239	-0.000105
1241	1.2338e+02	7.6599	22.698796	-0.000649	-6.492383	-1.099839	0.000065
1242	1.2348e+02	7.6503	22.686684	0.000122	1.217322	0.206220	-0.000012
1243	1.2358e+02	7.6403	22.686684	-0.000000	-0.000000	-0.000000	0.000000
1244	1.2368e+02	7.6308	22.662461	0.000243	2.434644	0.412440	-0.000024
1245	1.2378e+02	7.6205	22.654387	0.000081	0.811548	0.137480	-0.000008
1246	1.2388e+02	7.6105	22.654387	-0.000000	-0.000000	-0.000000	0.000000
1247	1.2398e+02	7.6007	22.666499	-0.000122	-1.217322	-0.206220	0.000012
1248	1.2408e+02	7.5903	22.630164	0.000365	3.651965	0.618660	-0.000037
1249	1.2418e+02	7.5817	22.626127	0.000041	0.405774	0.068740	-0.000004
1250	1.2428e+02	7.5710	22.638239	-0.000122	-1.217322	-0.206220	0.000012
1251	1.2438e+02	7.5618	22.638239	-0.000000	-0.000000	-0.000000	0.000000
1252	1.2447e+02	7.5513	22.634202	0.000041	0.405774	0.068740	-0.000004
1253	1.2457e+02	7.5413	22.626127	0.000081	0.811548	0.137480	-0.000008
1254	1.2467e+02	7.5315	22.609979	0.000162	1.623096	0.274960	-0.000016
1255	1.2477e+02	7.5220	22.642276	-0.000325	-3.246191	-0.549920	0.000032
1256	1.2487e+02	7.5114	22.541347	0.001014	10.144348	1.718499	-0.000101
1257	1.2497e+02	7.5025	22.585756	-0.000446	-4.463513	-0.756140	0.000045
1258	1.2507e+02	7.4920	22.577682	0.000081	0.811548	0.137480	-0.000008
1259	1.2517e+02	7.4812	22.581719	-0.000041	-0.405774	-0.068740	0.000004
1260	1.2527e+02	7.4722	22.565570	0.000162	1.623096	0.274960	-0.000016
1261	1.2537e+02	7.4617	22.537310	0.000284	2.840418	0.481180	-0.000028
1262	1.2547e+02	7.4516	22.533273	0.000041	0.405774	0.068740	-0.000004
1263	1.2557e+02	7.4416	22.521162	0.000122	1.217322	0.206220	-0.000012
1264	1.2567e+02	7.4317	22.509050	0.000122	1.217322	0.206220	-0.000012
1265	1.2577e+02	7.4225	22.496939	0.000122	1.217322	0.206220	-0.000012
1266	1.2587e+02	7.4123	22.505013	-0.000081	-0.811548	-0.137480	0.000008
1267	1.2597e+02	7.4026	22.476753	0.000284	2.840418	0.481180	-0.000028
1268	1.2607e+02	7.3923	22.517125	-0.000406	-4.057739	-0.687400	0.000041
1269	1.2617e+02	7.3814	22.488865	0.000284	2.840418	0.481180	-0.000028
1270	1.2627e+02	7.3727	22.444456	0.000446	4.463513	0.756140	-0.000045
1271	1.2636e+02	7.3622	22.464642	-0.000203	-2.028870	-0.343700	0.000020
1272	1.2646e+02	7.3516	22.448493	0.000162	1.623096	0.274960	-0.000016
1273	1.2656e+02	7.3417	22.428308	0.000203	2.028870	0.343700	-0.000020
1274	1.2666e+02	7.3328	22.371788	0.000568	5.680835	0.962360	-0.000057
1275	1.2676e+02	7.3221	22.440419	-0.000690	-6.898157	-1.168579	0.000069
1276	1.2686e+02	7.3129	22.363713	0.000771	7.709705	1.306059	-0.000077
1277	1.2696e+02	7.3019	22.391973	-0.000284	-2.840418	-0.481180	0.000028
1278	1.2706e+02	7.2933	22.375825	0.000162	1.623096	0.274960	-0.000016
1279	1.2716e+02	7.2837	22.355639	0.000203	2.028870	0.343700	-0.000020
1280	1.2726e+02	7.2727	22.347565	0.000081	0.811548	0.137480	-0.000008
1281	1.2736e+02	7.2627	22.335453	0.000122	1.217322	0.206220	-0.000012
1282	1.2746e+02	7.2528	22.323342	0.000122	1.217322	0.206220	-0.000012
1283	1.2756e+02	7.2431	22.319305	0.000041	0.405774	0.068740	-0.000004
1284	1.2766e+02	7.2323	22.347565	-0.000284	-2.840418	-0.481180	0.000028
1285	1.2776e+02	7.2227	22.299119	0.000487	4.869287	0.824880	-0.000049
1286	1.2786e+02	7.2134	22.295082	0.000041	0.405774	0.068740	-0.000004
1287	1.2796e+02	7.2035	22.262785	0.000325	3.246191	0.549920	-0.000032
1288	1.2806e+02	7.1932	22.250674	0.000122	1.217322	0.206220	-0.000012
1289	1.2816e+02	7.1830	22.230488	0.000203	2.028870	0.343700	-0.000020
1290	1.2826e+02	7.1733	22.206265	0.000243	2.434644	0.412440	-0.000024
1291	1.2835e+02	7.1631	22.202228	0.000041	0.405774	0.068740	-0.000004
1292	1.2845e+02	7.1529	22.169931	0.000325	3.246191	0.549920	-0.000032
1293	1.2855e+02	7.1438	22.190117	-0.000203	-2.028870	-0.343700	0.000020
1294	1.2865e+02	7.1332	22.129560	0.000609	6.086609	1.031099	-0.000061
1295	1.2875e+02	7.1234	22.153782	-0.000243	-2.434644	-0.412440	0.000024
1296	1.2885e+02	7.1134	22.149745	0.000041	0.405774	0.068740	-0.000004
1297	1.2895e+02	7.1036	22.121485	0.000284	2.840418	0.481180	-0.000028
1298	1.2905e+02	7.0931	22.093225	0.000284	2.840418	0.481180	-0.000028
1299	1.2915e+02	7.0843	22.101300	-0.000081	-0.811548	-0.137480	0.000008
1300	1.2925e+02	7.0742	22.060928	0.000406	4.057739	0.687400	-0.000041
1301	1.2935e+02	7.0609	22.064965	-0.000041	-0.405774	-0.068740	0.000004
1302	1.2945e+02	7.0541	22.056891	0.000081	0.811548	0.137480	-0.000008
1303	1.2955e+02	7.0438	22.036705	0.000203	2.028870	0.343700	-0.000020
1304	1.2965e+02	7.0339	22.016520	0.000203	2.028870	0.343700	-0.000020
1305	1.2975e+02	7.0235	21.996334	0.000203	2.028870	0.343700	-0.000020
1306	1.2985e+02	7.0132	22.012483	-0.000162	-1.623096	-0.274960	0.000016
1307	1.2995e+02	7.0040	21.968074	0.000446	4.463513	0.756140	-0.000045
1308	1.3005e+02	6.9939	21.960000	0.000081	0.811548	0.137480	-0.000008
1309	1.3015e+02	6.9840	21.943851	0.000162	1.623096	0.274960	-0.000016
1310	1.3025e+02	6.9790	21.943851	-0.000000	-0.000000	-0.000000	0.000000
1311	1.3034e+02	6.9642	21.907517	0.000365	3.651965	0.618660	-0.000037
1312	1.3044e+02	6.9545	21.919628	-0.000122	-1.217322	-0.206220	0.000012
1313	1.3054e+02	6.9446	21.911554	0.000081	0.811548	0.137480	-0.000008
1314	1.3064e+02	6.9348	21.875220	0.000365	3.651965	0.618660	-0.000037
1315	1.3074e+02	6.9250	21.879257	-0.000041	-0.405774	-0.068740	0.000004
1316	1.3084e+02	6.9141	21.834849	0.000446	4.463513	0.756140	-0.000045
1317	1.3094e+02	6.9044	21.826774	0.000081	0.811548	0.137480	-0.000008
1318	1.3104e+02	6.8947	21.782366	0.000446	4.463513	0.756140	-0.000045
1319	1.3114e+02	6.8845	21.802552	-0.000203	-2.028870	-0.343700	0.000020
1320	1.3124e+02	6.8734	21.810626	-0.000081	-0.811548	-0.137480	0.000008
1321	1.3134e+02	6.8652	21.754106	0.000568	5.680835	0.962360	-0.000057
1322	1.3144e+02	6.8547	21.741995	0.000122	1.217322	0.206220	-0.000012
1323	1.3154e+02	6.8453	21.721809	0.000203	2.028870	0.343700	-0.000020
1324	1.3164e+02	6.8353	21.701623	0.000203	2.028870	0.343700	-0.000020
1325	1.3174e+02	6.8249	21.673363	0.000284	2.840418	0.481180	-0.000028
1326	1.3184e+02	6.8157	21.657215	0.000162	1.623096	0.274960	-0.000016
1327	1.3194e+02	6.8053	21.657215	-0.000000	-0.000000	-0.000000	0.000000
1328	1.3204e+02	6.7953	21.645103	0.000122	1.217322	0.206220	-0.000012
1329	1.3214e+02	6.7848	21.632992	0.000122	1.217322	0.206220	-0.000012
1330	1.3224e+02	6.7751	21.608769	0.000243	2.434644	0.412440	-0.000024
1331	1.3234e+02	6.7651	21.612806	-0.000041	-0.405774	-0.068740	0.000004
1332	1.3243e+02	6.7554	21.548212	0.000649	6.492383	1.099839	-0.000065
1333	1.3253e+02	6.7460	21.536101	0.000122	1.217322	0.206220	-0.000012
1334	1.3263e+02	6.7352	21.540138	-0.000041	-0.405774	-0.068740	0.000004
1335	1.3273e+02	6.7255	21.523989	0.000162	1.623096	0.274960	-0.000016
1336	1.3283e+02	6.7149	21.487655	0.000365	3.651965	0.618660	-0.000037
1337	1.3293e+02	6.7054	21.479581	0.000081	0.811548	0.137480	-0.000008
1338	1.3303e+02	6.6960	21.443246	0.000365	3.651965	0.618660	-0.000037
1339	1.3313e+02	6.6858	21.427098	0.000162	1.623096	0.274960	-0.000016
1340	1.3323e+02	6.6758	21.435172	-0.000081	-0.811548	-0.137480	0.000008
1341	1.3333e+02	6.6663	21.398838	0.000365	3.651965	0.618660	-0.000037
1342	1.3343e+02	6.6566	21.386727	0.000122	1.217322	0.206220	-0.000012
1343	1.3353e+02	6.6456	21.374615	0.000122	1.217322	0.206220	-0.000012
1344	1.3363e+02	6.6354	21.378652	-0.000041	-0.405774	-0.068740	0.000004
1345	1.3373e+02	6.6253	21.342318	0.000365	3.651965	0.618660	-0.000037
1346	1.3383e+02	6.6165	21.362504	-0.000203	-2.028870	-0.343700	0.000020
1347	1.3393e+02	6.6068	21.285798	0.000771	7.709705	1.306059	-0.000077
1348	1.3403e+02	6.5957	21.305984	-0.000203	-2.028870	-0.343700	0.000020
1349	1.3413e+02	6.5869	21.301947	0.000041	0.405774	0.068740	-0.000004
1350	1.3423e+02	6.5759	21.241390	0.000609	6.086609	1.031099	-0.000061
1351	1.3432e+02	6.5659	21.233315	0.000081	0.811548	0.137480	-0.000008
1352	1.3442e+02	6.5553	21.237353	-0.000041	-0.405774	-0.068740	0.000004
1353	1.3452e+02	6.5451	21.176796	0.000609	6.086609	1.031099	-0.000061
1354	1.3462e+02	6.5365	21.192944	-0.000162	-1.623096	-0.274960	0.000016
1355	1.3472e+02	6.5272	21.184870	0.000081	0.811548	0.137480	-0.000008
1356	1.3482e+02	6.5160	21.136424	0.000487	4.869287	0.824880	-0.000049
1357	1.3492e+02	6.5035	21.188907	-0.000528	-5.275061	-0.893620	0.000053
1358	1.3502e+02	6.4970	21.087979	0.001014	10.144348	1.718499	-0.000101
1359	1.3512e+02	6.4869	21.100090	-0.000122	-1.217322	-0.206220	0.000012
1360	1.3522e+02	6.4766	21.071830	0.000284	2.840418	0.481180	-0.000028
1361	1.3532e+02	6.4651	21.079904	-0.000081	-0.811548	-0.137480	0.000008
1362	1.3542e+02	6.4568	21.035496	0.000446	4.463513	0.756140	-0.000045
1363	1.3552e+02	6.4474	21.067793	-0.000325	-3.246191	-0.549920	0.000032
1364	1.3562e+02	6.4364	21.015310	0.000528	5.275061	0.893620	-0.000053
1365	1.3572e+02	6.4260	21.011273	0.000041	0.405774	0.068740	-0.000004
1366	1.3582e+02	6.4156	20.995124	0.000162	1.623096	0.274960	-0.000016
1367	1.3592e+02	6.4069	20.983013	0.000122	1.217322	0.206220	-0.000012
1368	1.3602e+02	6.3973	20.983013	-0.000000	-0.000000	-0.000000	0.000000
1369	1.3612e+02	6.3872	20.966864	0.000162	1.623096	0.274960	-0.000016
1370	1.3622e+02	6.3775	20.954753	0.000122	1.217322	0.206220	-0.000012
1371	1.3631e+02	6.3681	20.926493	0.000284	2.840418	0.481180	-0.000028
1372	1.3641e+02	6.3561	20.910345	0.000162	1.623096	0.274960	-0.000016
1373	1.3651e+02	6.3467	20.898233	0.000122	1.217322	0.206220	-0.000012
1374	1.3661e+02	6.3363	20.837676	0.000609	6.086609	1.031099	-0.000061
1375	1.3671e+02	6.3277	20.849788	-0.000122	-1.217322	-0.206220	0.000012
1376	1.3681e+02	6.3184	20.874010	-0.000243	-2.434644	-0.412440	0.000024
1377	1.3691e+02	6.3079	20.793268	0.000812	8.115479	1.374799	-0.000081
1378	1.3701e+02	6.2993	20.825565	-0.000325	-3.246191	-0.549920	0.000032
1379	1.3711e+02	6.2883	20.809416	0.000162	1.623096	0.274960	-0.000016
1380	1.3721e+02	6.2783	20.809416	-0.000000	-0.000000	-0.000000	0.000000
1381	1.3731e+02	6.2681	20.777119	0.000325	3.246191	0.549920	-0.000032
1382	1.3741e+02	6.2579	20.773082	0.000041	0.405774	0.068740	-0.000004
1383	1.3751e+02	6.2484	20.736748	0.000365	3.651965	0.618660	-0.000037
1384	1.3761e+02	6.2376	20.744822	-0.000081	-0.811548	-0.137480	0.000008
1385	1.3771e+02	6.2289	20.680228	0.000649	6.492383	1.099839	-0.000065
1386	1.3781e+02	6.2186	20.708488	-0.000284	-2.840418	-0.481180	0.000028
1387	1.3791e+02	6.2086	20.680228	0.000284	2.840418	0.481180	-0.000028
1388	1.3801e+02	6.1978	20.623708	0.000568	5.680835	0.962360	-0.000057
1389	1.3811e+02	6.1892	20.676191	-0.000528	-5.275061	-0.893620	0.000053
1390	1.3821e+02	6.1790	20.639856	0.000365	3.651965	0.618660	-0.000037
1391	1.3831e+02	6.1689	20.639856	-0.000000	-0.000000	-0.000000	0.000000
1392	1.3840e+02	6.1593	20.635819	0.000041	0.405774	0.068740	-0.000004
1393	1.3850e+02	6.1501	20.587374	0.000487	4.869287	0.824880	-0.000049
1394	1.3860e+02	6.1385	20.575262	0.000122	1.217322	0.206220	-0.000012
1395	1.3870e+02	6.1285	20.563151	0.000122	1.217322	0.206220	-0.000012
1396	1.3880e+02	6.1182	20.542965	0.000203	2.028870	0.343700	-0.000020
1397	1.3890e+02	6.1091	20.502594	0.000406	4.057739	0.687400	-0.000041
1398	1.3900e+02	6.0995	20.530854	-0.000284	-2.840418	-0.481180	0.000028
1399	1.3910e+02	6.0889	20.502594	0.000284	2.840418	0.481180	-0.000028
1400	1.3920e+02	6.0793	20.530854	-0.000284	-2.840418	-0.481180	0.000028
1401	1.3930e+02	6.0694	20.470297	0.000609	6.086609	1.031099	-0.000061
1402	1.3940e+02	6.0596	20.442037	0.000284	2.840418	0.481180	-0.000028
1403	1.3950e+02	6.0499	20.421851	0.000203	2.028870	0.343700	-0.000020
1404	1.3960e+02	6.0390	20.433963	-0.000122	-1.217322	-0.206220	0.000012
1405	1.3970e+02	6.0297	20.425888	0.000081	0.811548	0.137480	-0.000008
1406	1.3980e+02	6.0192	20.409740	0.000162	1.623096	0.274960	-0.000016
1407	1.3990e+02	6.0093	20.397628	0.000122	1.217322	0.206220	-0.000012
1408	1.4000e+02	5.9998	20.393591	0.000041	0.405774	0.068740	-0.000004
1409	1.4010e+02	5.9893	20.373406	0.000203	2.028870	0.343700	-0.000020
1410	1.4020e+02	5.9801	20.357257	0.000162	1.623096	0.274960	-0.000016
1411	1.4029e+02	5.9698	20.369368	-0.000122	-1.217322	-0.206220	0.000012
1412	1.4039e+02	5.9602	20.264403	0.001055	10.550122	1.787239	-0.000105
1413	1.4049e+02	5.9495	20.292663	-0.000284	-2.840418	-0.481180	0.000028
1414	1.4059e+02	5.9402	20.260366	0.000325	3.246191	0.549920	-0.000032
1415	1.4069e+02	5.9301	20.264403	-0.000041	-0.405774	-0.068740	0.000004
1416	1.4079e+02	5.9205	20.276514	-0.000122	-1.217322	-0.206220	0.000012
1417	1.4089e+02	5.9092	20.284589	-0.000081	-0.811548	-0.137480	0.000008
1418	1.4099e+02	5.9005	20.224031	0.000609	6.086609	1.031099	-0.000061
1419	1.4109e+02	5.8901	20.215957	0.000081	0.811548	0.137480	-0.000008
1420	1.4119e+02	5.8807	20.191734	0.000243	2.434644	0.412440	-0.000024
1421	1.4129e+02	5.8706	20.191734	-0.000000	-0.000000	-0.000000	0.000000
1422	1.4139e+02	5.8594	20.179623	0.000122	1.217322	0.206220	-0.000012
1423	1.4149e+02	5.8503	20.155400	0.000243	2.434644	0.412440	-0.000024
1424	1.4159e+02	5.8398	20.106955	0.000487	4.869287	0.824880	-0.000049
1425	1.4169e+02	5.8301	20.115029	-0.000081	-0.811548	-0.137480	0.000008
1426	1.4179e+02	5.8200	20.115029	-0.000000	-0.000000	-0.000000	0.000000
1427	1.4189e+02	5.8107	20.110992	0.000041	0.405774	0.068740	-0.000004
1428	1.4199e+02	5.8000	20.078695	0.000325	3.246191	0.549920	-0.000032
1429	1.4209e+02	5.7903	20.066583	0.000122	1.217322	0.206220	-0.000012
1430	1.4219e+02	5.7809	20.066583	-0.000000	-0.000000	-0.000000	0.000000
1431	1.4228e+02	5.7707	20.046398	0.000203	2.028870	0.343700	-0.000020
1432	1.4238e+02	5.7595	20.022175	0.000243	2.434644	0.412440	-0.000024
1433	1.4248e+02	5.7516	20.001989	0.000203	2.028870	0.343700	-0.000020
1434	1.4258e+02	5.7406	20.018138	-0.000162	-1.623096	-0.274960	0.000016
1435	1.4268e+02	5.7301	19.977766	0.000406	4.057739	0.687400	-0.000041
1436	1.4278e+02	5.7204	19.985840	-0.000081	-0.811548	-0.137480	0.000008
1437	1.4288e+02	5.7111	19.969692	0.000162	1.623096	0.274960	-0.000016
1438	1.4298e+02	5.7012	19.965655	0.000041	0.405774	0.068740	-0.000004
1439	1.4308e+02	5.6901	19.884912	0.000812	8.115479	1.374799	-0.000081
1440	1.4318e+02	5.6812	19.909135	-0.000243	-2.434644	-0.412440	0.000024
1441	1.4328e+02	5.6702	19.872801	0.000365	3.651965	0.618660	-0.000037
1442	1.4338e+02	5.6604	19.840504	0.000325	3.246191	0.549920	-0.000032
1443	1.4348e+02	5.6516	19.860689	-0.000203	-2.028870	-0.343700	0.000020
1444	1.4358e+02	5.6413	19.832429	0.000284	2.840418	0.481180	-0.000028
1445	1.4368e+02	5.6318	19.848578	-0.000162	-1.623096	-0.274960	0.000016
1446	1.4378e+02	5.6211	19.800132	0.000487	4.869287	0.824880	-0.000049
1447	1.4388e+02	5.6118	19.783984	0.000162	1.623096	0.274960	-0.000016
1448	1.4398e+02	5.6019	19.763798	0.000203	2.028870	0.343700	-0.000020
1449	1.4408e+02	5.5917	19.731501	0.000325	3.246191	0.549920	-0.000032
1450	1.4418e+02	5.5822	19.699204	0.000325	3.246191	0.549920	-0.000032
1451	1.4428e+02	5.5724	19.719390	-0.000203	-2.028870	-0.343700	0.000020
1452	1.4437e+02	5.5618	19.695167	0.000243	2.434644	0.412440	-0.000024
1453	1.4447e+02	5.5520	19.662870	0.000325	3.246191	0.549920	-0.000032
1454	1.4457e+02	5.5429	19.642684	0.000203	2.028870	0.343700	-0.000020
1455	1.4467e+02	5.5328	19.634610	0.000081	0.811548	0.137480	-0.000008
1456	1.4477e+02	5.5227	19.614424	0.000203	2.028870	0.343700	-0.000020
1457	1.4487e+02	5.5121	19.578090	0.000365	3.651965	0.618660	-0.000037
1458	1.4497e+02	5.5022	19.586164	-0.000081	-0.811548	-0.137480	0.000008
1459	1.4507e+02	5.4925	19.537718	0.000487	4.869287	0.824880	-0.000049
1460	1.4517e+02	5.4818	19.549830	-0.000122	-1.217322	-0.206220	0.000012
1461	1.4527e+02	5.4714	19.513496	0.000365	3.651965	0.618660	-0.000037
1462	1.4537e+02	5.4623	19.517533	-0.000041	-0.405774	-0.068740	0.000004
1463	1.4547e+02	5.4520	19.485236	0.000325	3.246191	0.549920	-0.000032
1464	1.4557e+02	5.4426	19.465050	0.000203	2.028870	0.343700	-0.000020
1465	1.4567e+02	5.4327	19.424679	0.000406	4.057739	0.687400	-0.000041
1466	1.4577e+02	5.4215	19.424679	-0.000000	-0.000000	-0.000000	0.000000
1467	1.4587e+02	5.4134	19.384307	0.000406	4.057739	0.687400	-0.000041
1468	1.4597e+02	5.4020	19.400456	-0.000162	-1.623096	-0.274960	0.000016
1469	1.4607e+02	5.3914	19.360084	0.000406	4.057739	0.687400	-0.000041
1470	1.4617e+02	5.3822	19.360084	-0.000000	-0.000000	-0.000000	0.000000
1471	1.4626e+02	5.3729	19.339899	0.000203	2.028870	0.343700	-0.000020
1472	1.4636e+02	5.3623	19.291453	0.000487	4.869287	0.824880	-0.000049
1473	1.4646e+02	5.3527	19.307602	-0.000162	-1.623096	-0.274960	0.000016
1474	1.4656e+02	5.3431	19.291453	0.000162	1.623096	0.274960	-0.000016
1475	1.4666e+02	5.3332	19.279342	0.000122	1.217322	0.206220	-0.000012
1476	1.4676e+02	5.3220	19.263193	0.000162	1.623096	0.274960	-0.000016
1477	1.4686e+02	5.3126	19.170339	0.000933	9.332801	1.581019	-0.000093
1478	1.4696e+02	5.3028	19.198599	-0.000284	-2.840418	-0.481180	0.000028
1479	1.4706e+02	5.2930	19.178413	0.000203	2.028870	0.343700	-0.000020
1480	1.4716e+02	5.2825	19.142079	0.000365	3.651965	0.618660	-0.000037
1481	1.4726e+02	5.2743	19.154191	-0.000122	-1.217322	-0.206220	0.000012
1482	1.4736e+02	5.2628	19.061336	0.000933	9.332801	1.581019	-0.000093
1483	1.4746e+02	5.2534	19.089596	-0.000284	-2.840418	-0.481180	0.000028
1484	1.4756e+02	5.2428	19.053262	0.000365	3.651965	0.618660	-0.000037
1485	1.4766e+02	5.2337	19.057299	-0.000041	-0.405774	-0.068740	0.000004
1486	1.4776e+02	5.2241	19.033076	0.000243	2.434644	0.412440	-0.000024
1487	1.4786e+02	5.2126	19.004816	0.000284	2.840418	0.481180	-0.000028
1488	1.4796e+02	5.2029	18.972519	0.000325	3.246191	0.549920	-0.000032
1489	1.4806e+02	5.1929	18.988668	-0.000162	-1.623096	-0.274960	0.000016
1490	1.4816e+02	5.1832	18.936185	0.000528	5.275061	0.893620	-0.000053
1491	1.4825e+02	5.1733	18.911962	0.000243	2.434644	0.412440	-0.000024
1492	1.4835e+02	5.1633	18.948297	-0.000365	-3.651965	-0.618660	0.000037
1493	1.4845e+02	5.1544	18.916000	0.000325	3.246191	0.549920	-0.000032
1494	1.4855e+02	5.1438	18.843331	0.000730	7.303931	1.237319	-0.000073
1495	1.4865e+02	5.1344	18.875628	-0.000325	-3.246191	-0.549920	0.000032
1496	1.4875e+02	5.1233	18.811034	0.000649	6.492383	1.099839	-0.000065
1497	1.4885e+02	5.1131	18.786811	0.000243	2.434644	0.412440	-0.000024
1498	1.4895e+02	5.1038	18.811034	-0.000243	-2.434644	-0.412440	0.000024
1499	1.4905e+02	5.0941	18.770663	0.000406	4.057739	0.687400	-0.000041
1500	1.4915e+02	5.0835	18.738366	0.000325	3.246191	0.549920	-0.000032
1501	1.4925e+02	5.0736	18.738366	-0.000000	-0.000000	-0.000000	0.000000
1502	1.4935e+02	5.0645	18.706068	0.000325	3.246191	0.549920	-0.000032
1503	1.4945e+02	5.0549	18.649549	0.000568	5.680835	0.962360	-0.000057
1504	1.4955e+02	5.0439	18.645511	0.000041	0.405774	0.068740	-0.000004
1505	1.4965e+02	5.0344	18.625326	0.000203	2.028870	0.343700	-0.000020
1506	1.4975e+02	5.0249	18.637437	-0.000122	-1.217322	-0.206220	0.000012
1507	1.4985e+02	5.0149	18.584954	0.000528	5.275061	0.893620	-0.000053
1508	1.4995e+02	5.0050	18.584954	-0.000000	-0.000000	-0.000000	0.000000
1509	1.5005e+02	4.9951	18.564769	0.000203	2.028870	0.343700	-0.000020
1510	1.5015e+02	4.9850	18.536509	0.000284	2.840418	0.481180	-0.000028
1511	1.5025e+02	4.9743	18.528434	0.000081	0.811548	0.137480	-0.000008
1512	1.5034e+02	4.9650	18.512286	0.000162	1.623096	0.274960	-0.000016
1513	1.5044e+02	4.9554	18.463840	0.000487	4.869287	0.824880	-0.000049
1514	1.5054e+02	4.9448	18.451729	0.000122	1.217322	0.206220	-0.000012
1515	1.5064e+02	4.9352	18.427506	0.000243	2.434644	0.412440	-0.000024
1516	1.5074e+02	4.9252	18.407320	0.000203	2.028870	0.343700	-0.000020
1517	1.5084e+02	4.9154	18.370986	0.000365	3.651965	0.618660	-0.000037
1518	1.5094e+02	4.9050	18.387135	-0.000162	-1.623096	-0.274960	0.000016
1519	1.5104e+02	4.8948	18.338689	0.000487	4.869287	0.824880	-0.000049
1520	1.5114e+02	4.8852	18.298318	0.000406	4.057739	0.687400	-0.000041
1521	1.5124e+02	4.8753	18.310429	-0.000122	-1.217322	-0.206220	0.000012
1522	1.5134e+02	4.8651	18.298318	0.000122	1.217322	0.206220	-0.000012
1523	1.5144e+02	4.8556	18.241798	0.000568	5.680835	0.962360	-0.000057
1524	1.5154e+02	4.8454	18.229686	0.000122	1.217322	0.206220	-0.000012
1525	1.5164e+02	4.8348	18.217575	0.000122	1.217322	0.206220	-0.000012
1526	1.5174e+02	4.8255	18.237761	-0.000203	-2.028870	-0.343700	0.000020
1527	1.5184e+02	4.8159	18.201426	0.000365	3.651965	0.618660	-0.000037
1528	1.5194e+02	4.8055	18.193352	0.000081	0.811548	0.137480	-0.000008
1529	1.5204e+02	4.7955	18.148944	0.000446	4.463513	0.756140	-0.000045
1530	1.5214e+02	4.7857	18.140869	0.000081	0.811548	0.137480	-0.000008
1531	1.5224e+02	4.7761	18.124721	0.000162	1.623096	0.274960	-0.000016
1532	1.5233e+02	4.7659	18.092424	0.000325	3.246191	0.549920	-0.000032
1533	1.5243e+02	4.7558	18.039941	0.000528	5.275061	0.893620	-0.000053
1534	1.5253e+02	4.7454	18.092424	-0.000528	-5.275061	-0.893620	0.000053
1535	1.5263e+02	4.7356	18.043978	0.000487	4.869287	0.824880	-0.000049
1536	1.5273e+02	4.7266	18.003607	0.000406	4.057739	0.687400	-0.000041
1537	1.5283e+02	4.7163	18.007644	-0.000041	-0.405774	-0.068740	0.000004
1538	1.5293e+02	4.7061	18.011681	-0.000041	-0.405774	-0.068740	0.000004
1539	1.5303e+02	4.6952	17.939013	0.000730	7.303931	1.237319	-0.000073
1540	1.5313e+02	4.6862	17.951124	-0.000122	-1.217322	-0.206220	0.000012
1541	1.5323e+02	4.6763	17.922864	0.000284	2.840418	0.481180	-0.000028
1542	1.5333e+02	4.6656	17.914790	0.000081	0.811548	0.137480	-0.000008
1543	1.5343e+02	4.6564	17.882493	0.000325	3.246191	0.549920	-0.000032
1544	1.5353e+02	4.6462	17.894604	-0.000122	-1.217322	-0.206220	0.000012
1545	1.5363e+02	4.6363	17.850196	0.000446	4.463513	0.756140	-0.000045
1546	1.5373e+02	4.6264	17.830010	0.000203	2.028870	0.343700	-0.000020
1547	1.5383e+02	4.6162	17.821936	0.000081	0.811548	0.137480	-0.000008
1548	1.5393e+02	4.6066	17.805787	0.000162	1.623096	0.274960	-0.000016
1549	1.5403e+02	4.5960	17.805787	-0.000000	-0.000000	-0.000000	0.000000
1550	1.5413e+02	4.5875	17.753304	0.000528	5.275061	0.893620	-0.000053
1551	1.5422e+02	4.5770	17.725044	0.000284	2.840418	0.481180	-0.000028
1552	1.5432e+02	4.5666	17.737156	-0.000122	-1.217322	-0.206220	0.000012
1553	1.5442e+02	4.5562	17.688710	0.000487	4.869287	0.824880	-0.000049
1554	1.5452e+02	4.5473	17.692747	-0.000041	-0.405774	-0.068740	0.000004
1555	1.5462e+02	4.5365	17.684673	0.000081	0.811548	0.137480	-0.000008
1556	1.5472e+02	4.5271	17.676599	0.000081	0.811548	0.137480	-0.000008
1557	1.5482e+02	4.5173	17.664487	0.000122	1.217322	0.206220	-0.000012
1558	1.5492e+02	4.5071	17.612005	0.000528	5.275061	0.893620	-0.000053
1559	1.5502e+02	4.4971	17.616042	-0.000041	-0.405774	-0.068740	0.000004
1560	1.5512e+02	4.4875	17.599893	0.000162	1.623096	0.274960	-0.000016
1561	1.5522e+02	4.4782	17.579708	0.000203	2.028870	0.343700	-0.000020
1562	1.5532e+02	4.4669	17.567596	0.000122	1.217322	0.206220	-0.000012
1563	1.5542e+02	4.4564	17.555485	0.000122	1.217322	0.206220	-0.000012
1564	1.5552e+02	4.4470	17.486853	0.000690	6.898157	1.168579	-0.000069
1565	1.5562e+02	4.4371	17.490891	-0.000041	-0.405774	-0.068740	0.000004
1566	1.5572e+02	4.4274	17.442445	0.000487	4.869287	0.824880	-0.000049
1567	1.5582e+02	4.4176	17.458593	-0.000162	-1.623096	-0.274960	0.000016
1568	1.5592e+02	4.4086	17.438408	0.000203	2.028870	0.343700	-0.000020
1569	1.5602e+02	4.3970	17.438408	-0.000000	-0.000000	-0.000000	0.000000
1570	1.5612e+02	4.3877	17.430334	0.000081	0.811548	0.137480	-0.000008
1571	1.5622e+02	4.3782	17.422259	0.000081	0.811548	0.137480	-0.000008
1572	1.5631e+02	4.3676	17.385925	0.000365	3.651965	0.618660	-0.000037
1573	1.5641e+02	4.3570	17.345554	0.000406	4.057739	0.687400	-0.000041
1574	1.5651e+02	4.3474	17.349591	-0.000041	-0.405774	-0.068740	0.000004
1575	1.5661e+02	4.3372	17.309219	0.000406	4.057739	0.687400	-0.000041
1576	1.5671e+02	4.3272	17.321331	-0.000122	-1.217322	-0.206220	0.000012
1577	1.5681e+02	4.3177	17.289034	0.000325	3.246191	0.549920	-0.000032
1578	1.5691e+02	4.3079	17.276922	0.000122	1.217322	0.206220	-0.000012
1579	1.5701e+02	4.2983	17.232514	0.000446	4.463513	0.756140	-0.000045
1580	1.5711e+02	4.2879	17.256737	-0.000243	-2.434644	-0.412440	0.000024
1581	1.5721e+02	4.2788	17.252700	0.000041	0.405774	0.068740	-0.000004
1582	1.5731e+02	4.2673	17.192143	0.000609	6.086609	1.031099	-0.000061
1583	1.5741e+02	4.2579	17.228477	-0.000365	-3.651965	-0.618660	0.000037
1584	1.5751e+02	4.2493	17.171957	0.000568	5.680835	0.962360	-0.000057
1585	1.5761e+02	4.2381	17.188105	-0.000162	-1.623096	-0.274960	0.000016
1586	1.5771e+02	4.2278	17.119474	0.000690	6.898157	1.168579	-0.000069
1587	1.5781e+02	4.2187	17.119474	-0.000000	-0.000000	-0.000000	0.000000
1588	1.5791e+02	4.2082	17.119474	-0.000000	-0.000000	-0.000000	0.000000
1589	1.5801e+02	4.1984	17.095251	0.000243	2.434644	0.412440	-0.000024
1590	1.5811e+02	4.1885	17.095251	-0.000000	-0.000000	-0.000000	0.000000
1591	1.5821e+02	4.1788	17.087177	0.000081	0.811548	0.137480	-0.000008
1592	1.5830e+02	4.1684	17.050843	0.000365	3.651965	0.618660	-0.000037
1593	1.5840e+02	4.1584	17.030657	0.000203	2.028870	0.343700	-0.000020
1594	1.5850e+02	4.1482	17.022583	0.000081	0.811548	0.137480	-0.000008
1595	1.5860e+02	4.1389	16.998360	0.000243	2.434644	0.412440	-0.000024
1596	1.5870e+02	4.1290	16.990286	0.000081	0.811548	0.137480	-0.000008
1597	1.5880e+02	4.1187	16.982211	0.000081	0.811548	0.137480	-0.000008
1598	1.5890e+02	4.1088	16.937803	0.000446	4.463513	0.756140	-0.000045
1599	1.5900e+02	4.0997	16.929729	0.000081	0.811548	0.137480	-0.000008
1600	1.5910e+02	4.0889	16.889357	0.000406	4.057739	0.687400	-0.000041
1601	1.5920e+02	4.0783	16.889357	-0.000000	-0.000000	-0.000000	0.000000
1602	1.5930e+02	4.0694	16.857060	0.000325	3.246191	0.549920	-0.000032
1603	1.5940e+02	4.0595	16.853023	0.000041	0.405774	0.068740	-0.000004
1604	1.5950e+02	4.0487	16.840912	0.000122	1.217322	0.206220	-0.000012
1605	1.5960e+02	4.0387	16.812652	0.000284	2.840418	0.481180	-0.000028
1606	1.5970e+02	4.0302	16.828800	-0.000162	-1.623096	-0.274960	0.000016
1607	1.5980e+02	4.0188	16.784392	0.000446	4.463513	0.756140	-0.000045
1608	1.5990e+02	4.0093	16.735946	0.000487	4.869287	0.824880	-0.000049
1609	1.6000e+02	3.9993	16.735946	-0.000000	-0.000000	-0.000000	0.000000
1610	1.6010e+02	3.9895	16.695575	0.000406	4.057739	0.687400	-0.000041
1611	1.6019e+02	3.9806	16.687501	0.000081	0.811548	0.137480	-0.000008
1612	1.6029e+02	3.9693	16.683463	0.000041	0.405774	0.068740	-0.000004
1613	1.6039e+02	3.9597	16.639055	0.000446	4.463513	0.756140	-0.000045
1614	1.6049e+02	3.9491	16.659241	-0.000203	-2.028870	-0.343700	0.000020
1615	1.6059e+02	3.9393	16.639055	0.000203	2.028870	0.343700	-0.000020
1616	1.6069e+02	3.9288	16.643092	-0.000041	-0.405774	-0.068740	0.000004
1617	1.6079e+02	3.9201	16.594646	0.000487	4.869287	0.824880	-0.000049
1618	1.6089e+02	3.9098	16.586572	0.000081	0.811548	0.137480	-0.000008
1619	1.6099e+02	3.9007	16.558312	0.000284	2.840418	0.481180	-0.000028
1620	1.6109e+02	3.8891	16.509867	0.000487	4.869287	0.824880	-0.000049
1621	1.6119e+02	3.8798	16.489681	0.000203	2.028870	0.343700	-0.000020
1622	1.6129e+02	3.8696	16.509867	-0.000203	-2.028870	-0.343700	0.000020
1623	1.6139e+02	3.8601	16.465458	0.000446	4.463513	0.756140	-0.000045
1624	1.6149e+02	3.8511	16.457384	0.000081	0.811548	0.137480	-0.000008
1625	1.6159e+02	3.8406	16.417012	0.000406	4.057739	0.687400	-0.000041
1626	1.6169e+02	3.8306	16.404901	0.000122	1.217322	0.206220	-0.000012
1627	1.6179e+02	3.8201	16.388753	0.000162	1.623096	0.274960	-0.000016
1628	1.6189e+02	3.8102	16.348381	0.000406	4.057739	0.687400	-0.000041
1629	1.6199e+02	3.8014	16.364530	-0.000162	-1.623096	-0.274960	0.000016
1630	1.6209e+02	3.7904	16.360493	0.000041	0.405774	0.068740	-0.000004
1631	1.6219e+02	3.7803	16.308010	0.000528	5.275061	0.893620	-0.000053
1632	1.6228e+02	3.7707	16.320121	-0.000122	-1.217322	-0.206220	0.000012
1633	1.6238e+02	3.7615	16.235341	0.000852	8.521253	1.443539	-0.000085
1634	1.6248e+02	3.7513	16.239379	-0.000041	-0.405774	-0.068740	0.000004
1635	1.6258e+02	3.7409	16.207081	0.000325	3.246191	0.549920	-0.000032
1636	1.6268e+02	3.7320	16.207081	-0.000000	-0.000000	-0.000000	0.000000
1637	1.6278e+02	3.7217	16.203044	0.000041	0.405774	0.068740	-0.000004
1638	1.6288e+02	3.7121	16.182859	0.000203	2.028870	0.343700	-0.000020
1639	1.6298e+02	3.7016	16.130376	0.000528	5.275061	0.893620	-0.000053
1640	1.6308e+02	3.6910	16.114227	0.000162	1.623096	0.274960	-0.000016
1641	1.6318e+02	3.6813	16.126339	-0.000122	-1.217322	-0.206220	0.000012
1642	1.6328e+02	3.6712	16.069819	0.000568	5.680835	0.962360	-0.000057
1643	1.6338e+02	3.6616	16.041559	0.000284	2.840418	0.481180	-0.000028
1644	1.6348e+02	3.6515	16.041559	-0.000000	-0.000000	-0.000000	0.000000
1645	1.6358e+02	3.6414	16.037522	0.000041	0.405774	0.068740	-0.000004
1646	1.6368e+02	3.6324	15.989076	0.000487	4.869287	0.824880	-0.000049
1647	1.6378e+02	3.6225	15.989076	-0.000000	-0.000000	-0.000000	0.000000
1648	1.6388e+02	3.6119	15.936593	0.000528	5.275061	0.893620	-0.000053
1649	1.6398e+02	3.6008	15.892185	0.000446	4.463513	0.756140	-0.000045
1650	1.6408e+02	3.5912	15.896222	-0.000041	-0.405774	-0.068740	0.000004
1651	1.6418e+02	3.5821	15.880073	0.000162	1.623096	0.274960	-0.000016
1652	1.6427e+02	3.5715	15.843739	0.000365	3.651965	0.618660	-0.000037
1653	1.6437e+02	3.5622	15.827591	0.000162	1.623096	0.274960	-0.000016
1654	1.6447e+02	3.5513	15.835665	-0.000081	-0.811548	-0.137480	0.000008
1655	1.6457e+02	3.5421	15.767034	0.000690	6.898157	1.168579	-0.000069
1656	1.6467e+02	3.5329	15.750885	0.000162	1.623096	0.274960	-0.000016
1657	1.6477e+02	3.5233	15.771071	-0.000203	-2.028870	-0.343700	0.000020
1658	1.6487e+02	3.5114	15.730699	0.000406	4.057739	0.687400	-0.000041
1659	1.6497e+02	3.5024	15.726662	0.000041	0.405774	0.068740	-0.000004
1660	1.6507e+02	3.4916	15.694365	0.000325	3.246191	0.549920	-0.000032
1661	1.6517e+02	3.4820	15.653994	0.000406	4.057739	0.687400	-0.000041
1662	1.6527e+02	3.4721	15.601511	0.000528	5.275061	0.893620	-0.000053
1663	1.6537e+02	3.4615	15.637845	-0.000365	-3.651965	-0.618660	0.000037
1664	1.6547e+02	3.4521	15.601511	0.000365	3.651965	0.618660	-0.000037
1665	1.6557e+02	3.4420	15.601511	-0.000000	-0.000000	-0.000000	0.000000
1666	1.6567e+02	3.4326	15.569214	0.000325	3.246191	0.549920	-0.000032
1667	1.6577e+02	3.4229	15.536917	0.000325	3.246191	0.549920	-0.000032
1668	1.6587e+02	3.4123	15.504620	0.000325	3.246191	0.549920	-0.000032
1669	1.6597e+02	3.4040	15.456174	0.000487	4.869287	0.824880	-0.000049
1670	1.6607e+02	3.3920	15.464248	-0.000081	-0.811548	-0.137480	0.000008
1671	1.6616e+02	3.3831	15.456174	0.000081	0.811548	0.137480	-0.000008
1672	1.6626e+02	3.3724	15.391580	0.000649	6.492383	1.099839	-0.000065
1673	1.6636e+02	3.3628	15.387543	0.000041	0.405774	0.068740	-0.000004
1674	1.6646e+02	3.3526	15.359283	0.000284	2.840418	0.481180	-0.000028
1675	1.6656e+02	3.3428	15.359283	-0.000000	-0.000000	-0.000000	0.000000
1676	1.6666e+02	3.3330	15.302763	0.000568	5.680835	0.962360	-0.000057
1677	1.6676e+02	3.3221	15.322949	-0.000203	-2.028870	-0.343700	0.000020
1678	1.6686e+02	3.3134	15.238169	0.000852	8.521253	1.443539	-0.000085
1679	1.6696e+02	3.3026	15.258355	-0.000203	-2.028870	-0.343700	0.000020
1680	1.6706e+02	3.2925	15.234132	0.000243	2.434644	0.412440	-0.000024
1681	1.6716e+02	3.2821	15.234132	-0.000000	-0.000000	-0.000000	0.000000
1682	1.6726e+02	3.2732	15.177612	0.000568	5.680835	0.962360	-0.000057
1683	1.6736e+02	3.2633	15.161463	0.000162	1.623096	0.274960	-0.000016
1684	1.6746e+02	3.2538	15.141278	0.000203	2.028870	0.343700	-0.000020
1685	1.6756e+02	3.2433	15.096869	0.000446	4.463513	0.756140	-0.000045
1686	1.6766e+02	3.2323	15.113018	-0.000162	-1.623096	-0.274960	0.000016
1687	1.6776e+02	3.2225	15.092832	0.000203	2.028870	0.343700	-0.000020
1688	1.6786e+02	3.2135	15.048423	0.000446	4.463513	0.756140	-0.000045
1689	1.6796e+02	3.2040	15.024201	0.000243	2.434644	0.412440	-0.000024
1690	1.6806e+02	3.1931	14.999978	0.000243	2.434644	0.412440	-0.000024
1691	1.6816e+02	3.1841	14.983829	0.000162	1.623096	0.274960	-0.000016
1692	1.6825e+02	3.1736	14.955569	0.000284	2.840418	0.481180	-0.000028
1693	1.6835e+02	3.1634	14.915198	0.000406	4.057739	0.687400	-0.000041
1694	1.6845e+02	3.1524	14.899049	0.000162	1.623096	0.274960	-0.000016
1695	1.6855e+02	3.1440	14.923272	-0.000243	-2.434644	-0.412440	0.000024
1696	1.6865e+02	3.1338	14.882901	0.000406	4.057739	0.687400	-0.000041
1697	1.6875e+02	3.1232	14.838492	0.000446	4.463513	0.756140	-0.000045
1698	1.6885e+02	3.1135	14.834455	0.000041	0.405774	0.068740	-0.000004
1699	1.6895e+02	3.1037	14.826381	0.000081	0.811548	0.137480	-0.000008
1700	1.6905e+02	3.0943	14.806195	0.000203	2.028870	0.343700	-0.000020
1701	1.6915e+02	3.0842	14.765824	0.000406	4.057739	0.687400	-0.000041
1702	1.6925e+02	3.0743	14.761787	0.000041	0.405774	0.068740	-0.000004
1703	1.6935e+02	3.0641	14.741601	0.000203	2.028870	0.343700	-0.000020
1704	1.6945e+02	3.0538	14.733527	0.000081	0.811548	0.137480	-0.000008
1705	1.6955e+02	3.0438	14.668933	0.000649	6.492383	1.099839	-0.000065
1706	1.6965e+02	3.0344	14.664896	0.000041	0.405774	0.068740	-0.000004
1707	1.6975e+02	3.0241	14.656821	0.000081	0.811548	0.137480	-0.000008
1708	1.6985e+02	3.0149	14.656821	-0.000000	-0.000000	-0.000000	0.000000
1709	1.6995e+02	3.0047	14.600301	0.000568	5.680835	0.962360	-0.000057
1710	1.7005e+02	2.9939	14.588190	0.000122	1.217322	0.206220	-0.000012
1711	1.7015e+02	2.9836	14.588190	-0.000000	-0.000000	-0.000000	0.000000
1712	1.7024e+02	2.9742	14.563967	0.000243	2.434644	0.412440	-0.000024
1713	1.7034e+02	2.9648	14.531670	0.000325	3.246191	0.549920	-0.000032
1714	1.7044e+02	2.9543	14.543781	-0.000122	-1.217322	-0.206220	0.000012
1715	1.7054e+02	2.9445	14.499373	0.000446	4.463513	0.756140	-0.000045
1716	1.7064e+02	2.9346	14.483224	0.000162	1.623096	0.274960	-0.000016
1717	1.7074e+02	2.9244	14.475150	0.000081	0.811548	0.137480	-0.000008
1718	1.7084e+02	2.9146	14.450927	0.000243	2.434644	0.412440	-0.000024
1719	1.7094e+02	2.9050	14.442853	0.000081	0.811548	0.137480	-0.000008
1720	1.7104e+02	2.8941	14.386333	0.000568	5.680835	0.962360	-0.000057
1721	1.7114e+02	2.8849	14.394407	-0.000081	-0.811548	-0.137480	0.000008
1722	1.7124e+02	2.8750	14.349999	0.000446	4.463513	0.756140	-0.000045
1723	1.7134e+02	2.8650	14.329813	0.000203	2.028870	0.343700	-0.000020
1724	1.7144e+02	2.8549	14.297516	0.000325	3.246191	0.549920	-0.000032
1725	1.7154e+02	2.8447	14.297516	-0.000000	-0.000000	-0.000000	0.000000
1726	1.7164e+02	2.8350	14.293479	0.000041	0.405774	0.068740	-0.000004
1727	1.7174e+02	2.8256	14.249071	0.000446	4.463513	0.756140	-0.000045
1728	1.7184e+02	2.8155	14.224848	0.000243	2.434644	0.412440	-0.000024
1729	1.7194e+02	2.8058	14.224848	-0.000000	-0.000000	-0.000000	0.000000
1730	1.7204e+02	2.7954	14.212736	0.000122	1.217322	0.206220	-0.000012
1731	1.7213e+02	2.7862	14.180439	0.000325	3.246191	0.549920	-0.000032
1732	1.7223e+02	2.7752	14.164291	0.000162	1.623096	0.274960	-0.000016
1733	1.7233e+02	2.7658	14.152179	0.000122	1.217322	0.206220	-0.000012
1734	1.7243e+02	2.7547	14.119882	0.000325	3.246191	0.549920	-0.000032
1735	1.7253e+02	2.7456	14.115845	0.000041	0.405774	0.068740	-0.000004
1736	1.7263e+02	2.7361	14.095659	0.000203	2.028870	0.343700	-0.000020
1737	1.7273e+02	2.7259	14.063362	0.000325	3.246191	0.549920	-0.000032
1738	1.7283e+02	2.7158	14.079511	-0.000162	-1.623096	-0.274960	0.000016
1739	1.7293e+02	2.7059	14.018954	0.000609	6.086609	1.031099	-0.000061
1740	1.7303e+02	2.6951	14.043177	-0.000243	-2.434644	-0.412440	0.000024
1741	1.7313e+02	2.6864	13.998768	0.000446	4.463513	0.756140	-0.000045
1742	1.7323e+02	2.6757	13.990694	0.000081	0.811548	0.137480	-0.000008
1743	1.7333e+02	2.6656	13.990694	-0.000000	-0.000000	-0.000000	0.000000
1744	1.7343e+02	2.6556	13.978582	0.000122	1.217322	0.206220	-0.000012
1745	1.7353e+02	2.6461	13.918025	0.000609	6.086609	1.031099	-0.000061
1746	1.7363e+02	2.6365	13.926100	-0.000081	-0.811548	-0.137480	0.000008
1747	1.7373e+02	2.6270	13.885728	0.000406	4.057739	0.687400	-0.000041
1748	1.7383e+02	2.6156	13.853431	0.000325	3.246191	0.549920	-0.000032
1749	1.7393e+02	2.6052	13.853431	-0.000000	-0.000000	-0.000000	0.000000
1750	1.7403e+02	2.5965	13.833246	0.000203	2.028870	0.343700	-0.000020
1751	1.7413e+02	2.5863	13.817097	0.000162	1.623096	0.274960	-0.000016
1752	1.7422e+02	2.5755	13.772689	0.000446	4.463513	0.756140	-0.000045
1753	1.7432e+02	2.5661	13.780763	-0.000081	-0.811548	-0.137480	0.000008
1754	1.7442e+02	2.5562	13.776726	0.000041	0.405774	0.068740	-0.000004
1755	1.7452e+02	2.5469	13.752503	0.000243	2.434644	0.412440	-0.000024
1756	1.7462e+02	2.5365	13.716169	0.000365	3.651965	0.618660	-0.000037
1757	1.7472e+02	2.5270	13.716169	-0.000000	-0.000000	-0.000000	0.000000
1758	1.7482e+02	2.5170	13.720206	-0.000041	-0.405774	-0.068740	0.000004
1759	1.7492e+02	2.5072	13.687909	0.000325	3.246191	0.549920	-0.000032
1760	1.7502e+02	2.4977	13.659649	0.000284	2.840418	0.481180	-0.000028
1761	1.7512e+02	2.4879	13.659649	-0.000000	-0.000000	-0.000000	0.000000
1762	1.7522e+02	2.4772	13.586980	0.000730	7.303931	1.237319	-0.000073
1763	1.7532e+02	2.4670	13.603129	-0.000162	-1.623096	-0.274960	0.000016
1764	1.7542e+02	2.4577	13.566795	0.000365	3.651965	0.618660	-0.000037
1765	1.7552e+02	2.4483	13.534498	0.000325	3.246191	0.549920	-0.000032
1766	1.7562e+02	2.4380	13.522386	0.000122	1.217322	0.206220	-0.000012
1767	1.7572e+02	2.4265	13.506238	0.000162	1.623096	0.274960	-0.000016
1768	1.7582e+02	2.4173	13.502200	0.000041	0.405774	0.068740	-0.000004
1769	1.7592e+02	2.4070	13.457792	0.000446	4.463513	0.756140	-0.000045
1770	1.7602e+02	2.3980	13.494126	-0.000365	-3.651965	-0.618660	0.000037
1771	1.7612e+02	2.3879	13.457792	0.000365	3.651965	0.618660	-0.000037
1772	1.7621e+02	2.3769	13.425495	0.000325	3.246191	0.549920	-0.000032
1773	1.7631e+02	2.3676	13.429532	-0.000041	-0.405774	-0.068740	0.000004
1774	1.7641e+02	2.3583	13.389161	0.000406	4.057739	0.687400	-0.000041
1775	1.7651e+02	2.3481	13.352826	0.000365	3.651965	0.618660	-0.000037
1776	1.7661e+02	2.3379	13.373012	-0.000203	-2.028870	-0.343700	0.000020
1777	1.7671e+02	2.3283	13.340715	0.000325	3.246191	0.549920	-0.000032
1778	1.7681e+02	2.3178	13.296307	0.000446	4.463513	0.756140	-0.000045
1779	1.7691e+02	2.3083	13.259972	0.000365	3.651965	0.618660	-0.000037
1780	1.7701e+02	2.2979	13.243824	0.000162	1.623096	0.274960	-0.000016
1781	1.7711e+02	2.2881	13.251898	-0.000081	-0.811548	-0.137480	0.000008
1782	1.7721e+02	2.2780	13.215564	0.000365	3.651965	0.618660	-0.000037
1783	1.7731e+02	2.2683	13.175192	0.000406	4.057739	0.687400	-0.000041
1784	1.7741e+02	2.2580	13.199415	-0.000243	-2.434644	-0.412440	0.000024
1785	1.7751e+02	2.2480	13.150970	0.000487	4.869287	0.824880	-0.000049
1786	1.7761e+02	2.2385	13.110598	0.000406	4.057739	0.687400	-0.000041
1787	1.7771e+02	2.2287	13.090413	0.000203	2.028870	0.343700	-0.000020
1788	1.7781e+02	2.2182	13.090413	-0.000000	-0.000000	-0.000000	0.000000
1789	1.7791e+02	2.2076	13.062153	0.000284	2.840418	0.481180	-0.000028
1790	1.7801e+02	2.1977	13.037930	0.000243	2.434644	0.412440	-0.000024
1791	1.7810e+02	2.1886	13.021781	0.000162	1.623096	0.274960	-0.000016
1792	1.7820e+02	2.1790	13.029856	-0.000081	-0.811548	-0.137480	0.000008
1793	1.7830e+02	2.1680	13.001596	0.000284	2.840418	0.481180	-0.000028
1794	1.7840e+02	2.1575	12.953150	0.000487	4.869287	0.824880	-0.000049
1795	1.7850e+02	2.1495	12.916816	0.000365	3.651965	0.618660	-0.000037
1796	1.7860e+02	2.1387	12.892593	0.000243	2.434644	0.412440	-0.000024
1797	1.7870e+02	2.1283	12.884519	0.000081	0.811548	0.137480	-0.000008
1798	1.7880e+02	2.1181	12.860296	0.000243	2.434644	0.412440	-0.000024
1799	1.7890e+02	2.1087	12.823962	0.000365	3.651965	0.618660	-0.000037
1800	1.7900e+02	2.0989	12.791665	0.000325	3.246191	0.549920	-0.000032
1801	1.7910e+02	2.0882	12.803776	-0.000122	-1.217322	-0.206220	0.000012
1802	1.7920e+02	2.0785	12.775516	0.000284	2.840418	0.481180	-0.000028
1803	1.7930e+02	2.0689	12.755330	0.000203	2.028870	0.343700	-0.000020
1804	1.7940e+02	2.0591	12.710922	0.000446	4.463513	0.756140	-0.000045
1805	1.7950e+02	2.0496	12.714959	-0.000041	-0.405774	-0.068740	0.000004
1806	1.7960e+02	2.0392	12.686699	0.000284	2.840418	0.481180	-0.000028
1807	1.7970e+02	2.0288	12.626142	0.000609	6.086609	1.031099	-0.000061
1808	1.7980e+02	2.0186	12.630179	-0.000041	-0.405774	-0.068740	0.000004
1809	1.7990e+02	2.0087	12.626142	0.000041	0.405774	0.068740	-0.000004
1810	1.8000e+02	1.9990	12.597882	0.000284	2.840418	0.481180	-0.000028
1811	1.8009e+02	1.9888	12.557511	0.000406	4.057739	0.687400	-0.000041
1812	1.8019e+02	1.9794	12.541362	0.000162	1.623096	0.274960	-0.000016
1813	1.8029e+02	1.9694	12.521176	0.000203	2.028870	0.343700	-0.000020
1814	1.8039e+02	1.9594	12.500991	0.000203	2.028870	0.343700	-0.000020
1815	1.8049e+02	1.9492	12.452545	0.000487	4.869287	0.824880	-0.000049
1816	1.8059e+02	1.9391	12.472731	-0.000203	-2.028870	-0.343700	0.000020
1817	1.8069e+02	1.9302	12.444471	0.000284	2.840418	0.481180	-0.000028
1818	1.8079e+02	1.9198	12.416211	0.000284	2.840418	0.481180	-0.000028
1819	1.8089e+02	1.9108	12.371802	0.000446	4.463513	0.756140	-0.000045
1820	1.8099e+02	1.9005	12.351617	0.000203	2.028870	0.343700	-0.000020
1821	1.8109e+02	1.8898	12.359691	-0.000081	-0.811548	-0.137480	0.000008
1822	1.8119e+02	1.8801	12.307208	0.000528	5.275061	0.893620	-0.000053
1823	1.8129e+02	1.8701	12.278948	0.000284	2.840418	0.481180	-0.000028
1824	1.8139e+02	1.8598	12.278948	-0.000000	-0.000000	-0.000000	0.000000
1825	1.8149e+02	1.8498	12.238577	0.000406	4.057739	0.687400	-0.000041
1826	1.8159e+02	1.8401	12.206280	0.000325	3.246191	0.549920	-0.000032
1827	1.8169e+02	1.8298	12.173983	0.000325	3.246191	0.549920	-0.000032
1828	1.8179e+02	1.8201	12.165909	0.000081	0.811548	0.137480	-0.000008
1829	1.8189e+02	1.8105	12.173983	-0.000081	-0.811548	-0.137480	0.000008
1830	1.8199e+02	1.8002	12.101314	0.000730	7.303931	1.237319	-0.000073
1831	1.8209e+02	1.7910	12.085166	0.000162	1.623096	0.274960	-0.000016
1832	1.8218e+02	1.7801	12.069017	0.000162	1.623096	0.274960	-0.000016
1833	1.8228e+02	1.7705	12.060943	0.000081	0.811548	0.137480	-0.000008
1834	1.8238e+02	1.7596	12.012497	0.000487	4.869287	0.824880	-0.000049
1835	1.8248e+02	1.7501	11.972126	0.000406	4.057739	0.687400	-0.000041
1836	1.8258e+02	1.7412	12.020572	-0.000487	-4.869287	-0.824880	0.000049
1837	1.8268e+02	1.7310	11.939829	0.000812	8.115479	1.374799	-0.000081
1838	1.8278e+02	1.7205	11.915606	0.000243	2.434644	0.412440	-0.000024
1839	1.8288e+02	1.7110	11.899458	0.000162	1.623096	0.274960	-0.000016
1840	1.8298e+02	1.7022	11.895420	0.000041	0.405774	0.068740	-0.000004
1841	1.8308e+02	1.6904	11.871198	0.000243	2.434644	0.412440	-0.000024
1842	1.8318e+02	1.6802	11.826789	0.000446	4.463513	0.756140	-0.000045
1843	1.8328e+02	1.6702	11.790455	0.000365	3.651965	0.618660	-0.000037
1844	1.8338e+02	1.6616	11.754121	0.000365	3.651965	0.618660	-0.000037
1845	1.8348e+02	1.6495	11.774306	-0.000203	-2.028870	-0.343700	0.000020
1846	1.8358e+02	1.6413	11.750084	0.000243	2.434644	0.412440	-0.000024
1847	1.8368e+02	1.6315	11.717786	0.000325	3.246191	0.549920	-0.000032
1848	1.8378e+02	1.6203	11.669341	0.000487	4.869287	0.824880	-0.000049
1849	1.8388e+02	1.6122	11.645118	0.000243	2.434644	0.412440	-0.000024
1850	1.8398e+02	1.6013	11.633007	0.000122	1.217322	0.206220	-0.000012
1851	1.8407e+02	1.5914	11.588598	0.000446	4.463513	0.756140	-0.000045
1852	1.8417e+02	1.5813	11.580524	0.000081	0.811548	0.137480	-0.000008
1853	1.8427e+02	1.5705	11.572450	0.000081	0.811548	0.137480	-0.000008
1854	1.8437e+02	1.5613	11.540153	0.000325	3.246191	0.549920	-0.000032
1855	1.8447e+02	1.5508	11.511893	0.000284	2.840418	0.481180	-0.000028
1856	1.8457e+02	1.5418	11.511893	-0.000000	-0.000000	-0.000000	0.000000
1857	1.8467e+02	1.5308	11.471521	0.000406	4.057739	0.687400	-0.000041
1858	1.8477e+02	1.5217	11.406927	0.000649	6.492383	1.099839	-0.000065
1859	1.8487e+02	1.5125	11.406927	-0.000000	-0.000000	-0.000000	0.000000
1860	1.8497e+02	1.5018	11.358481	0.000487	4.869287	0.824880	-0.000049
1861	1.8507e+02	1.4919	11.358481	-0.000000	-0.000000	-0.000000	0.000000
1862	1.8517e+02	1.4818	11.362519	-0.000041	-0.405774	-0.068740	0.000004
1863	1.8527e+02	1.4716	11.354444	0.000081	0.811548	0.137480	-0.000008
1864	1.8537e+02	1.4621	11.326184	0.000284	2.840418	0.481180	-0.000028
1865	1.8547e+02	1.4511	11.257553	0.000690	6.898157	1.168579	-0.000069
1866	1.8557e+02	1.4413	11.281776	-0.000243	-2.434644	-0.412440	0.000024
1867	1.8567e+02	1.4316	11.237367	0.000446	4.463513	0.756140	-0.000045
1868	1.8577e+02	1.4211	11.221219	0.000162	1.623096	0.274960	-0.000016
1869	1.8587e+02	1.4111	11.201033	0.000203	2.028870	0.343700	-0.000020
1870	1.8597e+02	1.4021	11.180847	0.000203	2.028870	0.343700	-0.000020
1871	1.8606e+02	1.3922	11.152587	0.000284	2.840418	0.481180	-0.000028
1872	1.8616e+02	1.3818	11.128365	0.000243	2.434644	0.412440	-0.000024
1873	1.8626e+02	1.3726	11.071845	0.000568	5.680835	0.962360	-0.000057
1874	1.8636e+02	1.3622	11.087993	-0.000162	-1.623096	-0.274960	0.000016
1875	1.8646e+02	1.3523	11.043585	0.000446	4.463513	0.756140	-0.000045
1876	1.8656e+02	1.3419	11.051659	-0.000081	-0.811548	-0.137480	0.000008
1877	1.8666e+02	1.3323	10.991102	0.000609	6.086609	1.031099	-0.000061
1878	1.8676e+02	1.3222	10.999176	-0.000081	-0.811548	-0.137480	0.000008
1879	1.8686e+02	1.3130	10.991102	0.000081	0.811548	0.137480	-0.000008
1880	1.8696e+02	1.3014	10.954768	0.000365	3.651965	0.618660	-0.000037
1881	1.8706e+02	1.2933	10.910359	0.000446	4.463513	0.756140	-0.000045
1882	1.8716e+02	1.2827	10.914396	-0.000041	-0.405774	-0.068740	0.000004
1883	1.8726e+02	1.2726	10.898248	0.000162	1.623096	0.274960	-0.000016
1884	1.8736e+02	1.2629	10.882099	0.000162	1.623096	0.274960	-0.000016
1885	1.8746e+02	1.2534	10.853839	0.000284	2.840418	0.481180	-0.000028
1886	1.8756e+02	1.2437	10.837691	0.000162	1.623096	0.274960	-0.000016
1887	1.8766e+02	1.2338	10.793282	0.000446	4.463513	0.756140	-0.000045
1888	1.8776e+02	1.2245	10.785208	0.000081	0.811548	0.137480	-0.000008
1889	1.8786e+02	1.2141	10.773097	0.000122	1.217322	0.206220	-0.000012
1890	1.8796e+02	1.2033	10.773097	-0.000000	-0.000000	-0.000000	0.000000
1891	1.8806e+02	1.1948	10.716577	0.000568	5.680835	0.962360	-0.000057
1892	1.8815e+02	1.1843	10.700428	0.000162	1.623096	0.274960	-0.000016
1893	1.8825e+02	1.1727	10.696391	0.000041	0.405774	0.068740	-0.000004
1894	1.8835e+02	1.1642	10.660057	0.000365	3.651965	0.618660	-0.000037
1895	1.8845e+02	1.1547	10.635834	0.000243	2.434644	0.412440	-0.000024
1896	1.8855e+02	1.1439	10.623723	0.000122	1.217322	0.206220	-0.000012
1897	1.8865e+02	1.1338	10.615648	0.000081	0.811548	0.137480	-0.000008
1898	1.8875e+02	1.1242	10.603537	0.000122	1.217322	0.206220	-0.000012
1899	1.8885e+02	1.1143	10.563166	0.000406	4.057739	0.687400	-0.000041
1900	1.8895e+02	1.1038	10.510683	0.000528	5.275061	0.893620	-0.000053
1901	1.8905e+02	1.0938	10.542980	-0.000325	-3.246191	-0.549920	0.000032
1902	1.8915e+02	1.0847	10.486460	0.000568	5.680835	0.962360	-0.000057
1903	1.8925e+02	1.0735	10.470312	0.000162	1.623096	0.274960	-0.000016
1904	1.8935e+02	1.0640	10.446089	0.000243	2.434644	0.412440	-0.000024
1905	1.8945e+02	1.0552	10.442052	0.000041	0.405774	0.068740	-0.000004
1906	1.8955e+02	1.0448	10.429940	0.000122	1.217322	0.206220	-0.000012
1907	1.8965e+02	1.0347	10.405717	0.000243	2.434644	0.412440	-0.000024
1908	1.8975e+02	1.0243	10.357272	0.000487	4.869287	0.824880	-0.000049
1909	1.8985e+02	1.0146	10.349197	0.000081	0.811548	0.137480	-0.000008
1910	1.8995e+02	1.0044	10.320938	0.000284	2.840418	0.481180	-0.000028
1911	1.9004e+02	0.9947	10.316900	0.000041	0.405774	0.068740	-0.000004
1912	1.9014e+02	0.9856	10.280566	0.000365	3.651965	0.618660	-0.000037
1913	1.9024e+02	0.9743	10.252306	0.000284	2.840418	0.481180	-0.000028
1914	1.9034e+02	0.9645	10.232121	0.000203	2.028870	0.343700	-0.000020
1915	1.9044e+02	0.9548	10.240195	-0.000081	-0.811548	-0.137480	0.000008
1916	1.9054e+02	0.9454	10.236158	0.000041	0.405774	0.068740	-0.000004
1917	1.9064e+02	0.9341	10.215972	0.000203	2.028870	0.343700	-0.000020
1918	1.9074e+02	0.9251	10.191749	0.000243	2.434644	0.412440	-0.000024
1919	1.9084e+02	0.9156	10.163489	0.000284	2.840418	0.481180	-0.000028
1920	1.9094e+02	0.9053	10.098895	0.000649	6.492383	1.099839	-0.000065
1921	1.9104e+02	0.8952	10.135229	-0.000365	-3.651965	-0.618660	0.000037
1922	1.9114e+02	0.8844	10.090821	0.000446	4.463513	0.756140	-0.000045
1923	1.9124e+02	0.8752	10.074672	0.000162	1.623096	0.274960	-0.000016
1924	1.9134e+02	0.8642	10.062561	0.000122	1.217322	0.206220	-0.000012
1925	1.9144e+02	0.8550	10.050449	0.000122	1.217322	0.206220	-0.000012
1926	1.9154e+02	0.8459	10.030264	0.000203	2.028870	0.343700	-0.000020
1927	1.9164e+02	0.8355	10.014115	0.000162	1.623096	0.274960	-0.000016
1928	1.9174e+02	0.8249	9.969707	0.000446	4.463513	0.756140	-0.000045
1929	1.9184e+02	0.8152	9.969707	-0.000000	-0.000000	-0.000000	0.000000
1930	1.9194e+02	0.8054	9.941447	0.000284	2.840418	0.481180	-0.000028
1931	1.9203e+02	0.7955	9.925298	0.000162	1.623096	0.274960	-0.000016
1932	1.9213e+02	0.7858	9.897038	0.000284	2.840418	0.481180	-0.000028
1933	1.9223e+02	0.7756	9.840518	0.000568	5.680835	0.962360	-0.000057
1934	1.9233e+02	0.7667	9.844555	-0.000041	-0.405774	-0.068740	0.000004
1935	1.9243e+02	0.7559	9.808221	0.000365	3.651965	0.618660	-0.000037
1936	1.9253e+02	0.7462	9.836481	-0.000284	-2.840418	-0.481180	0.000028
1937	1.9263e+02	0.7360	9.755739	0.000812	8.115479	1.374799	-0.000081
1938	1.9273e+02	0.7253	9.767850	-0.000122	-1.217322	-0.206220	0.000012
1939	1.9283e+02	0.7169	9.719404	0.000487	4.869287	0.824880	-0.000049
1940	1.9293e+02	0.7057	9.751701	-0.000325	-3.246191	-0.549920	0.000032
1941	1.9303e+02	0.6962	9.670959	0.000812	8.115479	1.374799	-0.000081
1942	1.9313e+02	0.6853	9.654810	0.000162	1.623096	0.274960	-0.000016
1943	1.9323e+02	0.6767	9.654810	-0.000000	-0.000000	-0.000000	0.000000
1944	1.9333e+02	0.6667	9.614439	0.000406	4.057739	0.687400	-0.000041
1945	1.9343e+02	0.6561	9.606364	0.000081	0.811548	0.137480	-0.000008
1946	1.9353e+02	0.6466	9.590216	0.000162	1.623096	0.274960	-0.000016
1947	1.9363e+02	0.6357	9.582142	0.000081	0.811548	0.137480	-0.000008
1948	1.9373e+02	0.6258	9.537733	0.000446	4.463513	0.756140	-0.000045
1949	1.9383e+02	0.6168	9.517548	0.000203	2.028870	0.343700	-0.000020
1950	1.9393e+02	0.6057	9.517548	-0.000000	-0.000000	-0.000000	0.000000
1951	1.9403e+02	0.5968	9.485250	0.000325	3.246191	0.549920	-0.000032
1952	1.9412e+02	0.5859	9.452953	0.000325	3.246191	0.549920	-0.000032
1953	1.9422e+02	0.5768	9.469102	-0.000162	-1.623096	-0.274960	0.000016
1954	1.9432e+02	0.5659	9.404508	0.000649	6.492383	1.099839	-0.000065
1955	1.9442e+02	0.5568	9.392396	0.000122	1.217322	0.206220	-0.000012
1956	1.9452e+02	0.5468	9.380285	0.000122	1.217322	0.206220	-0.000012
1957	1.9462e+02	0.5362	9.323765	0.000568	5.680835	0.962360	-0.000057
1958	1.9472e+02	0.5263	9.307616	0.000162	1.623096	0.274960	-0.000016
1959	1.9482e+02	0.5166	9.291468	0.000162	1.623096	0.274960	-0.000016
1960	1.9492e+02	0.5070	9.255134	0.000365	3.651965	0.618660	-0.000037
1961	1.9502e+02	0.4974	9.174391	0.000812	8.115479	1.374799	-0.000081
1962	1.9512e+02	0.4881	9.194577	-0.000203	-2.028870	-0.343700	0.000020
1963	1.9522e+02	0.4779	9.202651	-0.000081	-0.811548	-0.137480	0.000008
1964	1.9532e+02	0.4666	9.142094	0.000609	6.086609	1.031099	-0.000061
1965	1.9542e+02	0.4572	9.154205	-0.000122	-1.217322	-0.206220	0.000012
1966	1.9552e+02	0.4470	9.097685	0.000568	5.680835	0.962360	-0.000057
1967	1.9562e+02	0.4375	9.093648	0.000041	0.405774	0.068740	-0.000004
1968	1.9572e+02	0.4273	9.033091	0.000609	6.086609	1.031099	-0.000061
1969	1.9582e+02	0.4173	9.045203	-0.000122	-1.217322	-0.206220	0.000012
1970	1.9592e+02	0.4082	9.012906	0.000325	3.246191	0.549920	-0.000032
1971	1.9601e+02	0.3973	9.016943	-0.000041	-0.405774	-0.068740	0.000004
1972	1.9611e+02	0.3871	8.952348	0.000649	6.492383	1.099839	-0.000065
1973	1.9621e+02	0.3765	8.940237	0.000122	1.217322	0.206220	-0.000012
1974	1.9631e+02	0.3678	8.891791	0.000487	4.869287	0.824880	-0.000049
1975	1.9641e+02	0.3583	8.863532	0.000284	2.840418	0.481180	-0.000028
1976	1.9651e+02	0.3479	8.871606	-0.000081	-0.811548	-0.137480	0.000008
1977	1.9661e+02	0.3378	8.835272	0.000365	3.651965	0.618660	-0.000037
1978	1.9671e+02	0.3273	8.815086	0.000203	2.028870	0.343700	-0.000020
1979	1.9681e+02	0.3187	8.794900	0.000203	2.028870	0.343700	-0.000020
1980	1.9691e+02	0.3072	8.766640	0.000284	2.840418	0.481180	-0.000028
1981	1.9701e+02	0.2975	8.730306	0.000365	3.651965	0.618660	-0.000037
1982	1.9711e+02	0.2879	8.710120	0.000203	2.028870	0.343700	-0.000020
1983	1.9721e+02	0.2777	8.714157	-0.000041	-0.405774	-0.068740	0.000004
1984	1.9731e+02	0.2682	8.673786	0.000406	4.057739	0.687400	-0.000041
1985	1.9741e+02	0.2578	8.661675	0.000122	1.217322	0.206220	-0.000012
1986	1.9751e+02	0.2483	8.613229	0.000487	4.869287	0.824880	-0.000049
1987	1.9761e+02	0.2380	8.572858	0.000406	4.057739	0.687400	-0.000041
1988	1.9771e+02	0.2289	8.564783	0.000081	0.811548	0.137480	-0.000008
1989	1.9781e+02	0.2179	8.548635	0.000162	1.623096	0.274960	-0.000016
1990	1.9791e+02	0.2074	8.496152	0.000528	5.275061	0.893620	-0.000053
1991	1.9800e+02	0.1985	8.512301	-0.000162	-1.623096	-0.274960	0.000016
1992	1.9810e+02	0.1881	8.467892	0.000446	4.463513	0.756140	-0.000045
1993	1.9820e+02	0.1786	8.403298	0.000649	6.492383	1.099839	-0.000065
1994	1.9830e+02	0.1678	8.423484	-0.000203	-2.028870	-0.343700	0.000020
1995	1.9840e+02	0.1598	8.362927	0.000609	6.086609	1.031099	-0.000061
1996	1.9850e+02	0.1488	8.330630	0.000325	3.246191	0.549920	-0.000032
1997	1.9860e+02	0.1390	8.290258	0.000406	4.057739	0.687400	-0.000041
1998	1.9870e+02	0.1283	8.318518	-0.000284	-2.840418	-0.481180	0.000028
1999	1.9880e+02	0.1177	8.266035	0.000528	5.275061	0.893620	-0.000053
2000	1.9890e+02	0.1088	8.274110	-0.000081	-0.811548	-0.137480	0.000008
2001	1.9900e+02	0.0990	8.221627	0.000528	5.275061	0.893620	-0.000053
2002	1.9910e+02	0.0888	8.193367	0.000284	2.840418	0.481180	-0.000028
2003	1.9920e+02	0.0793	8.193367	-0.000000	-0.000000	-0.000000	0.000000
2004	1.9930e+02	0.0689	8.177218	0.000162	1.623096	0.274960	-0.000016
2005	1.9940e+02	0.0588	8.112624	0.000649	6.492383	1.099839	-0.000065
2006	1.9950e+02	0.0481	8.096476	0.000162	1.623096	0.274960	-0.000016
2007	1.9960e+02	0.0394	8.068216	0.000284	2.840418	0.481180	-0.000028
2008	1.9970e+02	0.0284	8.011696	0.000568	5.680835	0.962360	-0.000057
2009	1.9980e+02	0.0195	8.039956	-0.000284	-2.840418	-0.481180	0.000028
2010	1.9990e+02	0.0082	7.987473	0.000528	5.275061	0.893620	-0.000053
2011	2.0000e+02	-0.0021	7.934990	0.000528	5.275061	0.893620	-0.000053

PMax (uC/cm2):	3.71e+01
Pr (uC/cm2):	3.09e+01
-Pr (uC/cm2):	0.00e+00
PLoss (uC/cm2):	0.00e+00
C (Max-Eff) (nF):	3.71e-01
K (Eff):	6.28e+02
Vert. (+/-Pr) Shift (uC/cm2):	1.55e+01
Offset (uC/cm2):	2.30e+01

A (Loop Area - uC/cm2·Volts):	-9.21e-02



Hysteresis Version: 5.48.1 - Radiant Technologies, Inc., 1999 - 9/12/24

