»»»»»»»»»»»»»»»»»»»»»»»»»»»»»»»»»»»» Hysteresis ««««««««««««««««««««««««««««««««««««
»»»  Executed Version:	5.48.1
»»»  Vision Version:	5.48.4 (R)
»»»  Vision Compiled:	9/18/24
»»»  Driver Version:	5.47.0
»»»  Windows Version:	Windows 8 or 8.1
»»»  Processor Information:	x86 (AMD or Intel) - 32 Processors
»»»  Tester Name:	PMF21124-494 (100V)
»»»  Tester S/N:	PMF21124-494
»»»  Internal Amp Type:	100V RevK 270k
»»»  Internal Amp S/N:	iAB2-596/K     
»»»  Execution Count:	1
»»»»»»»»»»»»»»»»»»»»»»»»»»»»»»»»»»»»»»»»»»««««««««««««««««««««««««««««««««««««««««««

Stored:	6/26/2025 - 14:26:42
Configured:	06/26/25 10:24:47 AM
Executed:	06/26/25 02:25:40 PM

»»»»»»»»»»»»»»»»»»»»»»»»»»»»»»»»»»» Sample Info ««««««««««««««««««««««««««««««««««««
Sample Name:	
Lot Name:	
Wafer Name:	
Die Row/Column:	0/0
Capacitor Number:	0
Sample Area (cm2):	1.00e-04
Sample Thickness (microns):	1.50e-01

Amplifier:	Internal

»»»»»»»»»»»»»»»»»»»»»»»»»»»»»»»»»»» Tester Info «««««««««««««««««««««««««««««««««««
Tester Name:	PMF21124-494 (100V)
Tester Serial Number:	PMF21124-494
Return Signal Amp. Level:	1.9 [Index: 2]

»»»»»»»»»»»»»»»»»»»»»»»»»»»»»»»» Hysteresis Info ««««««««««««««««««««««««««««««««««
Task Name:	Hyst-562
Volts:	10.00
Field:	666.67 (kV/cm)
DCBias:	0.00
DCField:	0.00 (kV/cm)
Hysteresis Period (ms):	2.00e+02
Preset:	Enabled
Preset Delay (ms):	1.00e+03
Profile:	Standard Monopolar

»»»»»»»»»»»»»»»»»»»»»»»»»»»»»»»»»»»»»» Data «««««««««««««««««««««««««««««««««««««««
Points:	2011

Valid Data

Point	Time (ms)	Drive Voltage	Measured Polarization (uC/cm2)	Capacitance (uF)	Normalized Capacitance (uF/cm2)	Dielectric Constant	Instantaneous Current (mA)
   1	0.0000e+00	-0.0032	-13.977145	0.000266	2.660864	0.450763	0.000027
   2	9.9500e-02	0.0025	-13.950668	0.000266	2.660864	0.450763	0.000027
   3	1.9900e-01	0.0137	-13.936411	0.000143	1.432773	0.242718	0.000014
   4	2.9850e-01	0.0246	-13.910341	0.000262	2.619927	0.443828	0.000026
   5	3.9800e-01	0.0336	-13.887937	0.000225	2.251500	0.381414	0.000023
   6	4.9750e-01	0.0455	-13.862682	0.000254	2.538055	0.429958	0.000025
   7	5.9700e-01	0.0590	-13.840278	0.000225	2.251500	0.381414	0.000023
   8	6.9650e-01	0.0661	-13.815430	0.000250	2.497118	0.423023	0.000025
   9	7.9600e-01	0.0754	-13.795878	0.000196	1.964946	0.332871	0.000020
  10	8.9550e-01	0.0830	-13.775510	0.000205	2.046818	0.346740	0.000020
  11	9.9500e-01	0.0942	-13.752699	0.000229	2.292436	0.388349	0.000023
  12	1.0945e+00	0.1044	-13.727444	0.000254	2.538055	0.429958	0.000025
  13	1.1940e+00	0.1164	-13.706670	0.000209	2.087755	0.353675	0.000021
  14	1.2935e+00	0.1260	-13.683451	0.000233	2.333373	0.395284	0.000023
  15	1.3930e+00	0.1345	-13.661862	0.000217	2.169627	0.367545	0.000022
  16	1.4925e+00	0.1442	-13.638236	0.000237	2.374309	0.402219	0.000024
  17	1.5920e+00	0.1544	-13.615832	0.000225	2.251500	0.381414	0.000023
  18	1.6915e+00	0.1656	-13.594650	0.000213	2.128691	0.360610	0.000021
  19	1.7910e+00	0.1756	-13.573876	0.000209	2.087755	0.353675	0.000021
  20	1.8905e+00	0.1846	-13.549435	0.000246	2.456182	0.416088	0.000025
  21	1.9900e+00	0.1939	-13.526624	0.000229	2.292436	0.388349	0.000023
  22	2.0895e+00	0.2070	-13.503813	0.000229	2.292436	0.388349	0.000023
  23	2.1890e+00	0.2131	-13.483038	0.000209	2.087755	0.353675	0.000021
  24	2.2885e+00	0.2219	-13.459005	0.000242	2.415246	0.409154	0.000024
  25	2.3880e+00	0.2309	-13.441897	0.000172	1.719327	0.291262	0.000017
  26	2.4875e+00	0.2431	-13.418271	0.000237	2.374309	0.402219	0.000024
  27	2.5870e+00	0.2539	-13.392201	0.000262	2.619927	0.443828	0.000026
  28	2.6865e+00	0.2657	-13.371427	0.000209	2.087755	0.353675	0.000021
  29	2.7860e+00	0.2750	-13.349430	0.000221	2.210564	0.374480	0.000022
  30	2.8855e+00	0.2839	-13.330285	0.000192	1.924009	0.325936	0.000019
  31	2.9850e+00	0.2950	-13.302586	0.000278	2.783673	0.471567	0.000028
  32	3.0845e+00	0.3057	-13.281404	0.000213	2.128691	0.360610	0.000021
  33	3.1840e+00	0.3159	-13.263481	0.000180	1.801200	0.305132	0.000018
  34	3.2835e+00	0.3228	-13.242299	0.000213	2.128691	0.360610	0.000021
  35	3.3830e+00	0.3342	-13.217044	0.000254	2.538055	0.429958	0.000025
  36	3.4825e+00	0.3460	-13.197899	0.000192	1.924009	0.325936	0.000019
  37	3.5820e+00	0.3548	-13.178754	0.000192	1.924009	0.325936	0.000019
  38	3.6815e+00	0.3648	-13.158386	0.000205	2.046818	0.346740	0.000020
  39	3.7810e+00	0.3735	-13.137205	0.000213	2.128691	0.360610	0.000021
  40	3.8805e+00	0.3866	-13.111135	0.000262	2.619927	0.443828	0.000026
  41	3.9800e+00	0.3935	-13.091990	0.000192	1.924009	0.325936	0.000019
  42	4.0795e+00	0.4040	-13.067549	0.000246	2.456182	0.416088	0.000025
  43	4.1790e+00	0.4135	-13.047997	0.000196	1.964946	0.332871	0.000020
  44	4.2785e+00	0.4248	-13.028852	0.000192	1.924009	0.325936	0.000019
  45	4.3780e+00	0.4332	-13.004004	0.000250	2.497118	0.423023	0.000025
  46	4.4775e+00	0.4450	-12.983636	0.000205	2.046818	0.346740	0.000020
  47	4.5770e+00	0.4551	-12.963677	0.000201	2.005882	0.339806	0.000020
  48	4.6765e+00	0.4623	-12.940458	0.000233	2.333373	0.395284	0.000023
  49	4.7760e+00	0.4759	-12.920498	0.000201	2.005882	0.339806	0.000020
  50	4.8755e+00	0.4838	-12.895650	0.000250	2.497118	0.423023	0.000025
  51	4.9750e+00	0.4909	-12.874061	0.000217	2.169627	0.367545	0.000022
  52	5.0745e+00	0.5008	-12.854102	0.000201	2.005882	0.339806	0.000020
  53	5.1740e+00	0.5100	-12.831698	0.000225	2.251500	0.381414	0.000023
  54	5.2735e+00	0.5244	-12.813367	0.000184	1.842136	0.312066	0.000018
  55	5.3730e+00	0.5356	-12.793000	0.000205	2.046818	0.346740	0.000020
  56	5.4725e+00	0.5438	-12.767745	0.000254	2.538055	0.429958	0.000025
  57	5.5720e+00	0.5536	-12.747785	0.000201	2.005882	0.339806	0.000020
  58	5.6715e+00	0.5619	-12.726603	0.000213	2.128691	0.360610	0.000021
  59	5.7710e+00	0.5710	-12.708680	0.000180	1.801200	0.305132	0.000018
  60	5.8705e+00	0.5838	-12.687498	0.000213	2.128691	0.360610	0.000021
  61	5.9700e+00	0.5936	-12.667946	0.000196	1.964946	0.332871	0.000020
  62	6.0695e+00	0.6059	-12.646764	0.000213	2.128691	0.360610	0.000021
  63	6.1690e+00	0.6153	-12.625582	0.000213	2.128691	0.360610	0.000021
  64	6.2685e+00	0.6242	-12.608474	0.000172	1.719327	0.291262	0.000017
  65	6.3680e+00	0.6337	-12.583219	0.000254	2.538055	0.429958	0.000025
  66	6.4675e+00	0.6430	-12.564481	0.000188	1.883073	0.319001	0.000019
  67	6.5670e+00	0.6508	-12.548595	0.000160	1.596518	0.270458	0.000016
  68	6.6665e+00	0.6659	-12.532301	0.000164	1.637455	0.277392	0.000016
  69	6.7660e+00	0.6695	-12.514785	0.000176	1.760264	0.298197	0.000018
  70	6.8655e+00	0.6816	-12.498084	0.000168	1.678391	0.284327	0.000017
  71	6.9650e+00	0.6947	-12.475273	0.000229	2.292436	0.388349	0.000023
  72	7.0645e+00	0.7027	-12.457757	0.000176	1.760264	0.298197	0.000018
  73	7.1640e+00	0.7109	-12.438612	0.000192	1.924009	0.325936	0.000019
  74	7.2635e+00	0.7201	-12.417023	0.000217	2.169627	0.367545	0.000022
  75	7.3630e+00	0.7348	-12.397063	0.000201	2.005882	0.339806	0.000020
  76	7.4625e+00	0.7425	-12.373845	0.000233	2.333373	0.395284	0.000023
  77	7.5620e+00	0.7528	-12.358366	0.000156	1.555582	0.263523	0.000016
  78	7.6615e+00	0.7619	-12.337591	0.000209	2.087755	0.353675	0.000021
  79	7.7610e+00	0.7723	-12.315595	0.000221	2.210564	0.374480	0.000022
  80	7.8605e+00	0.7813	-12.294820	0.000209	2.087755	0.353675	0.000021
  81	7.9600e+00	0.7944	-12.276897	0.000180	1.801200	0.305132	0.000018
  82	8.0595e+00	0.8030	-12.254901	0.000221	2.210564	0.374480	0.000022
  83	8.1590e+00	0.8131	-12.233719	0.000213	2.128691	0.360610	0.000021
  84	8.2585e+00	0.8226	-12.210908	0.000229	2.292436	0.388349	0.000023
  85	8.3580e+00	0.8320	-12.188911	0.000221	2.210564	0.374480	0.000022
  86	8.4575e+00	0.8410	-12.167729	0.000213	2.128691	0.360610	0.000021
  87	8.5570e+00	0.8499	-12.145733	0.000221	2.210564	0.374480	0.000022
  88	8.6565e+00	0.8613	-12.122514	0.000233	2.333373	0.395284	0.000023
  89	8.7560e+00	0.8705	-12.103777	0.000188	1.883073	0.319001	0.000019
  90	8.8555e+00	0.8836	-12.078929	0.000250	2.497118	0.423023	0.000025
  91	8.9550e+00	0.8904	-12.057747	0.000213	2.128691	0.360610	0.000021
  92	9.0545e+00	0.9007	-12.037380	0.000205	2.046818	0.346740	0.000020
  93	9.1540e+00	0.9105	-12.012532	0.000250	2.497118	0.423023	0.000025
  94	9.2535e+00	0.9194	-11.986055	0.000266	2.660864	0.450763	0.000027
  95	9.3530e+00	0.9307	-11.964058	0.000221	2.210564	0.374480	0.000022
  96	9.4525e+00	0.9422	-11.945320	0.000188	1.883073	0.319001	0.000019
  97	9.5520e+00	0.9526	-11.922102	0.000233	2.333373	0.395284	0.000023
  98	9.6515e+00	0.9621	-11.899291	0.000229	2.292436	0.388349	0.000023
  99	9.7510e+00	0.9698	-11.875257	0.000242	2.415246	0.409154	0.000024
 100	9.8505e+00	0.9805	-11.849595	0.000258	2.578991	0.436893	0.000026
 101	9.9500e+00	0.9917	-11.831264	0.000184	1.842136	0.312066	0.000018
 102	1.0050e+01	1.0008	-11.805602	0.000258	2.578991	0.436893	0.000026
 103	1.0149e+01	1.0071	-11.780347	0.000254	2.538055	0.429958	0.000025
 104	1.0248e+01	1.0197	-11.757943	0.000225	2.251500	0.381414	0.000023
 105	1.0348e+01	1.0309	-11.735132	0.000229	2.292436	0.388349	0.000023
 106	1.0447e+01	1.0381	-11.711098	0.000242	2.415246	0.409154	0.000024
 107	1.0547e+01	1.0500	-11.687065	0.000242	2.415246	0.409154	0.000024
 108	1.0646e+01	1.0601	-11.663847	0.000233	2.333373	0.395284	0.000023
 109	1.0746e+01	1.0703	-11.640221	0.000237	2.374309	0.402219	0.000024
 110	1.0845e+01	1.0817	-11.615780	0.000246	2.456182	0.416088	0.000025
 111	1.0945e+01	1.0927	-11.593784	0.000221	2.210564	0.374480	0.000022
 112	1.1044e+01	1.0989	-11.564862	0.000291	2.906482	0.492371	0.000029
 113	1.1144e+01	1.1107	-11.545717	0.000192	1.924009	0.325936	0.000019
 114	1.1243e+01	1.1200	-11.521277	0.000246	2.456182	0.416088	0.000025
 115	1.1343e+01	1.1298	-11.497244	0.000242	2.415246	0.409154	0.000024
 116	1.1443e+01	1.1396	-11.471581	0.000258	2.578991	0.436893	0.000026
 117	1.1542e+01	1.1496	-11.452028	0.000196	1.964946	0.332871	0.000020
 118	1.1642e+01	1.1604	-11.424737	0.000274	2.742736	0.464632	0.000027
 119	1.1741e+01	1.1713	-11.403147	0.000217	2.169627	0.367545	0.000022
 120	1.1841e+01	1.1787	-11.377485	0.000258	2.578991	0.436893	0.000026
 121	1.1940e+01	1.1902	-11.353044	0.000246	2.456182	0.416088	0.000025
 122	1.2040e+01	1.1996	-11.331862	0.000213	2.128691	0.360610	0.000021
 123	1.2139e+01	1.2096	-11.302941	0.000291	2.906482	0.492371	0.000029
 124	1.2239e+01	1.2177	-11.280130	0.000229	2.292436	0.388349	0.000023
 125	1.2338e+01	1.2285	-11.257726	0.000225	2.251500	0.381414	0.000023
 126	1.2438e+01	1.2397	-11.233693	0.000242	2.415246	0.409154	0.000024
 127	1.2537e+01	1.2489	-11.210474	0.000233	2.333373	0.395284	0.000023
 128	1.2636e+01	1.2577	-11.185626	0.000250	2.497118	0.423023	0.000025
 129	1.2736e+01	1.2708	-11.159557	0.000262	2.619927	0.443828	0.000026
 130	1.2835e+01	1.2804	-11.137967	0.000217	2.169627	0.367545	0.000022
 131	1.2935e+01	1.2895	-11.114749	0.000233	2.333373	0.395284	0.000023
 132	1.3034e+01	1.2971	-11.093160	0.000217	2.169627	0.367545	0.000022
 133	1.3134e+01	1.3083	-11.071163	0.000221	2.210564	0.374480	0.000022
 134	1.3233e+01	1.3227	-11.046315	0.000250	2.497118	0.423023	0.000025
 135	1.3333e+01	1.3300	-11.020245	0.000262	2.619927	0.443828	0.000026
 136	1.3432e+01	1.3390	-10.997027	0.000233	2.333373	0.395284	0.000023
 137	1.3532e+01	1.3493	-10.970550	0.000266	2.660864	0.450763	0.000027
 138	1.3632e+01	1.3585	-10.947738	0.000229	2.292436	0.388349	0.000023
 139	1.3731e+01	1.3696	-10.920446	0.000274	2.742736	0.464632	0.000027
 140	1.3831e+01	1.3772	-10.899672	0.000209	2.087755	0.353675	0.000021
 141	1.3930e+01	1.3873	-10.872380	0.000274	2.742736	0.464632	0.000027
 142	1.4030e+01	1.3992	-10.844273	0.000282	2.824609	0.478502	0.000028
 143	1.4129e+01	1.4108	-10.823499	0.000209	2.087755	0.353675	0.000021
 144	1.4229e+01	1.4155	-10.789690	0.000340	3.397718	0.575589	0.000034
 145	1.4328e+01	1.4277	-10.770544	0.000192	1.924009	0.325936	0.000019
 146	1.4428e+01	1.4366	-10.746104	0.000246	2.456182	0.416088	0.000025
 147	1.4527e+01	1.4484	-10.721256	0.000250	2.497118	0.423023	0.000025
 148	1.4627e+01	1.4590	-10.693964	0.000274	2.742736	0.464632	0.000027
 149	1.4726e+01	1.4687	-10.668709	0.000254	2.538055	0.429958	0.000025
 150	1.4825e+01	1.4745	-10.643454	0.000254	2.538055	0.429958	0.000025
 151	1.4925e+01	1.4891	-10.615754	0.000278	2.783673	0.471567	0.000028
 152	1.5024e+01	1.4956	-10.586833	0.000291	2.906482	0.492371	0.000029
 153	1.5124e+01	1.5076	-10.559134	0.000278	2.783673	0.471567	0.000028
 154	1.5223e+01	1.5174	-10.531434	0.000278	2.783673	0.471567	0.000028
 155	1.5323e+01	1.5295	-10.505364	0.000262	2.619927	0.443828	0.000026
 156	1.5422e+01	1.5408	-10.479702	0.000258	2.578991	0.436893	0.000026
 157	1.5522e+01	1.5479	-10.458113	0.000217	2.169627	0.367545	0.000022
 158	1.5621e+01	1.5560	-10.431228	0.000270	2.701800	0.457697	0.000027
 159	1.5721e+01	1.5680	-10.403121	0.000282	2.824609	0.478502	0.000028
 160	1.5820e+01	1.5771	-10.378274	0.000250	2.497118	0.423023	0.000025
 161	1.5920e+01	1.5904	-10.355055	0.000233	2.333373	0.395284	0.000023
 162	1.6020e+01	1.5956	-10.328985	0.000262	2.619927	0.443828	0.000026
 163	1.6119e+01	1.6070	-10.305359	0.000237	2.374309	0.402219	0.000024
 164	1.6218e+01	1.6161	-10.278475	0.000270	2.701800	0.457697	0.000027
 165	1.6318e+01	1.6241	-10.255663	0.000229	2.292436	0.388349	0.000023
 166	1.6418e+01	1.6391	-10.230408	0.000254	2.538055	0.429958	0.000025
 167	1.6517e+01	1.6476	-10.207190	0.000233	2.333373	0.395284	0.000023
 168	1.6616e+01	1.6574	-10.179898	0.000274	2.742736	0.464632	0.000027
 169	1.6716e+01	1.6683	-10.156679	0.000233	2.333373	0.395284	0.000023
 170	1.6816e+01	1.6778	-10.135090	0.000217	2.169627	0.367545	0.000022
 171	1.6915e+01	1.6873	-10.108613	0.000266	2.660864	0.450763	0.000027
 172	1.7015e+01	1.6994	-10.091504	0.000172	1.719327	0.291262	0.000017
 173	1.7114e+01	1.7056	-10.065027	0.000266	2.660864	0.450763	0.000027
 174	1.7213e+01	1.7156	-10.042623	0.000225	2.251500	0.381414	0.000023
 175	1.7313e+01	1.7249	-10.017368	0.000254	2.538055	0.429958	0.000025
 176	1.7413e+01	1.7348	-9.994150	0.000233	2.333373	0.395284	0.000023
 177	1.7512e+01	1.7455	-9.976634	0.000176	1.760264	0.298197	0.000018
 178	1.7611e+01	1.7581	-9.950564	0.000262	2.619927	0.443828	0.000026
 179	1.7711e+01	1.7643	-9.928567	0.000221	2.210564	0.374480	0.000022
 180	1.7811e+01	1.7767	-9.904941	0.000237	2.374309	0.402219	0.000024
 181	1.7910e+01	1.7861	-9.884574	0.000205	2.046818	0.346740	0.000020
 182	1.8009e+01	1.7965	-9.860541	0.000242	2.415246	0.409154	0.000024
 183	1.8109e+01	1.8093	-9.838137	0.000225	2.251500	0.381414	0.000023
 184	1.8209e+01	1.8154	-9.817770	0.000205	2.046818	0.346740	0.000020
 185	1.8308e+01	1.8248	-9.795774	0.000221	2.210564	0.374480	0.000022
 186	1.8407e+01	1.8357	-9.774185	0.000217	2.169627	0.367545	0.000022
 187	1.8507e+01	1.8465	-9.750559	0.000237	2.374309	0.402219	0.000024
 188	1.8607e+01	1.8547	-9.729377	0.000213	2.128691	0.360610	0.000021
 189	1.8706e+01	1.8665	-9.702900	0.000266	2.660864	0.450763	0.000027
 190	1.8805e+01	1.8763	-9.686606	0.000164	1.637455	0.277392	0.000016
 191	1.8905e+01	1.8872	-9.661351	0.000254	2.538055	0.429958	0.000025
 192	1.9005e+01	1.8963	-9.640169	0.000213	2.128691	0.360610	0.000021
 193	1.9104e+01	1.9061	-9.619394	0.000209	2.087755	0.353675	0.000021
 194	1.9203e+01	1.9159	-9.599842	0.000196	1.964946	0.332871	0.000020
 195	1.9303e+01	1.9257	-9.579475	0.000205	2.046818	0.346740	0.000020
 196	1.9402e+01	1.9319	-9.557071	0.000225	2.251500	0.381414	0.000023
 197	1.9502e+01	1.9511	-9.535074	0.000221	2.210564	0.374480	0.000022
 198	1.9602e+01	1.9549	-9.508190	0.000270	2.701800	0.457697	0.000027
 199	1.9701e+01	1.9656	-9.491896	0.000164	1.637455	0.277392	0.000016
 200	1.9800e+01	1.9743	-9.472344	0.000196	1.964946	0.332871	0.000020
 201	1.9900e+01	1.9855	-9.446274	0.000262	2.619927	0.443828	0.000026
 202	2.0000e+01	1.9938	-9.428758	0.000176	1.760264	0.298197	0.000018
 203	2.0099e+01	2.0078	-9.405540	0.000233	2.333373	0.395284	0.000023
 204	2.0198e+01	2.0181	-9.385580	0.000201	2.005882	0.339806	0.000020
 205	2.0298e+01	2.0267	-9.361139	0.000246	2.456182	0.416088	0.000025
 206	2.0398e+01	2.0375	-9.338735	0.000225	2.251500	0.381414	0.000023
 207	2.0497e+01	2.0456	-9.320405	0.000184	1.842136	0.312066	0.000018
 208	2.0596e+01	2.0549	-9.300038	0.000205	2.046818	0.346740	0.000020
 209	2.0696e+01	2.0671	-9.280893	0.000192	1.924009	0.325936	0.000019
 210	2.0796e+01	2.0744	-9.260118	0.000209	2.087755	0.353675	0.000021
 211	2.0895e+01	2.0879	-9.236492	0.000237	2.374309	0.402219	0.000024
 212	2.0994e+01	2.0940	-9.217755	0.000188	1.883073	0.319001	0.000019
 213	2.1094e+01	2.1051	-9.195351	0.000225	2.251500	0.381414	0.000023
 214	2.1194e+01	2.1156	-9.170910	0.000246	2.456182	0.416088	0.000025
 215	2.1293e+01	2.1245	-9.150543	0.000205	2.046818	0.346740	0.000020
 216	2.1392e+01	2.1339	-9.129361	0.000213	2.128691	0.360610	0.000021
 217	2.1492e+01	2.1442	-9.109401	0.000201	2.005882	0.339806	0.000020
 218	2.1591e+01	2.1555	-9.089034	0.000205	2.046818	0.346740	0.000020
 219	2.1691e+01	2.1636	-9.069075	0.000201	2.005882	0.339806	0.000020
 220	2.1791e+01	2.1738	-9.047893	0.000213	2.128691	0.360610	0.000021
 221	2.1890e+01	2.1841	-9.028748	0.000192	1.924009	0.325936	0.000019
 222	2.1989e+01	2.1988	-9.004714	0.000242	2.415246	0.409154	0.000024
 223	2.2089e+01	2.2060	-8.988421	0.000164	1.637455	0.277392	0.000016
 224	2.2189e+01	2.2121	-8.966017	0.000225	2.251500	0.381414	0.000023
 225	2.2288e+01	2.2261	-8.948909	0.000172	1.719327	0.291262	0.000017
 226	2.2387e+01	2.2357	-8.928541	0.000205	2.046818	0.346740	0.000020
 227	2.2487e+01	2.2440	-8.909804	0.000188	1.883073	0.319001	0.000019
 228	2.2587e+01	2.2527	-8.889844	0.000201	2.005882	0.339806	0.000020
 229	2.2686e+01	2.2628	-8.869884	0.000201	2.005882	0.339806	0.000020
 230	2.2785e+01	2.2759	-8.849517	0.000205	2.046818	0.346740	0.000020
 231	2.2885e+01	2.2842	-8.829964	0.000196	1.964946	0.332871	0.000020
 232	2.2985e+01	2.2946	-8.809597	0.000205	2.046818	0.346740	0.000020
 233	2.3084e+01	2.3080	-8.791267	0.000184	1.842136	0.312066	0.000018
 234	2.3183e+01	2.3158	-8.772529	0.000188	1.883073	0.319001	0.000019
 235	2.3283e+01	2.3251	-8.751347	0.000213	2.128691	0.360610	0.000021
 236	2.3383e+01	2.3340	-8.739534	0.000119	1.187155	0.201109	0.000012
 237	2.3482e+01	2.3449	-8.718353	0.000213	2.128691	0.360610	0.000021
 238	2.3581e+01	2.3543	-8.703281	0.000151	1.514645	0.256588	0.000015
 239	2.3681e+01	2.3637	-8.684136	0.000192	1.924009	0.325936	0.000019
 240	2.3780e+01	2.3741	-8.664991	0.000192	1.924009	0.325936	0.000019
 241	2.3880e+01	2.3820	-8.646660	0.000184	1.842136	0.312066	0.000018
 242	2.3980e+01	2.3943	-8.624664	0.000221	2.210564	0.374480	0.000022
 243	2.4079e+01	2.4055	-8.607963	0.000168	1.678391	0.284327	0.000017
 244	2.4178e+01	2.4123	-8.585559	0.000225	2.251500	0.381414	0.000023
 245	2.4278e+01	2.4235	-8.567229	0.000184	1.842136	0.312066	0.000018
 246	2.4378e+01	2.4337	-8.550120	0.000172	1.719327	0.291262	0.000017
 247	2.4477e+01	2.4473	-8.529753	0.000205	2.046818	0.346740	0.000020
 248	2.4576e+01	2.4568	-8.508571	0.000213	2.128691	0.360610	0.000021
 249	2.4676e+01	2.4657	-8.488611	0.000201	2.005882	0.339806	0.000020
 250	2.4776e+01	2.4757	-8.470281	0.000184	1.842136	0.312066	0.000018
 251	2.4875e+01	2.4860	-8.446248	0.000242	2.415246	0.409154	0.000024
 252	2.4974e+01	2.4915	-8.428325	0.000180	1.801200	0.305132	0.000018
 253	2.5074e+01	2.5010	-8.407550	0.000209	2.087755	0.353675	0.000021
 254	2.5174e+01	2.5148	-8.388813	0.000188	1.883073	0.319001	0.000019
 255	2.5273e+01	2.5245	-8.363965	0.000250	2.497118	0.423023	0.000025
 256	2.5372e+01	2.5301	-8.339117	0.000250	2.497118	0.423023	0.000025
 257	2.5472e+01	2.5414	-8.320786	0.000184	1.842136	0.312066	0.000018
 258	2.5572e+01	2.5548	-8.299604	0.000213	2.128691	0.360610	0.000021
 259	2.5671e+01	2.5642	-8.275979	0.000237	2.374309	0.402219	0.000024
 260	2.5770e+01	2.5718	-8.252353	0.000237	2.374309	0.402219	0.000024
 261	2.5870e+01	2.5819	-8.230764	0.000217	2.169627	0.367545	0.000022
 262	2.5970e+01	2.5922	-8.212433	0.000184	1.842136	0.312066	0.000018
 263	2.6069e+01	2.6041	-8.189215	0.000233	2.333373	0.395284	0.000023
 264	2.6169e+01	2.6123	-8.165589	0.000237	2.374309	0.402219	0.000024
 265	2.6268e+01	2.6228	-8.142778	0.000229	2.292436	0.388349	0.000023
 266	2.6367e+01	2.6311	-8.121188	0.000217	2.169627	0.367545	0.000022
 267	2.6467e+01	2.6411	-8.101229	0.000201	2.005882	0.339806	0.000020
 268	2.6567e+01	2.6511	-8.077195	0.000242	2.415246	0.409154	0.000024
 269	2.6666e+01	2.6612	-8.058865	0.000184	1.842136	0.312066	0.000018
 270	2.6765e+01	2.6736	-8.031166	0.000278	2.783673	0.471567	0.000028
 271	2.6865e+01	2.6835	-8.011613	0.000196	1.964946	0.332871	0.000020
 272	2.6965e+01	2.6885	-7.985543	0.000262	2.619927	0.443828	0.000026
 273	2.7064e+01	2.7039	-7.965991	0.000196	1.964946	0.332871	0.000020
 274	2.7163e+01	2.7117	-7.942365	0.000237	2.374309	0.402219	0.000024
 275	2.7263e+01	2.7203	-7.918332	0.000242	2.415246	0.409154	0.000024
 276	2.7363e+01	2.7299	-7.894706	0.000237	2.374309	0.402219	0.000024
 277	2.7462e+01	2.7416	-7.875154	0.000196	1.964946	0.332871	0.000020
 278	2.7561e+01	2.7502	-7.850306	0.000250	2.497118	0.423023	0.000025
 279	2.7661e+01	2.7630	-7.829531	0.000209	2.087755	0.353675	0.000021
 280	2.7761e+01	2.7731	-7.803869	0.000258	2.578991	0.436893	0.000026
 281	2.7860e+01	2.7805	-7.781872	0.000221	2.210564	0.374480	0.000022
 282	2.7959e+01	2.7914	-7.758654	0.000233	2.333373	0.395284	0.000023
 283	2.8059e+01	2.8029	-7.735435	0.000233	2.333373	0.395284	0.000023
 284	2.8159e+01	2.8107	-7.713846	0.000217	2.169627	0.367545	0.000022
 285	2.8258e+01	2.8226	-7.690220	0.000237	2.374309	0.402219	0.000024
 286	2.8358e+01	2.8333	-7.667409	0.000229	2.292436	0.388349	0.000023
 287	2.8457e+01	2.8393	-7.643376	0.000242	2.415246	0.409154	0.000024
 288	2.8556e+01	2.8531	-7.623009	0.000205	2.046818	0.346740	0.000020
 289	2.8656e+01	2.8616	-7.594902	0.000282	2.824609	0.478502	0.000028
 290	2.8756e+01	2.8712	-7.572498	0.000225	2.251500	0.381414	0.000023
 291	2.8855e+01	2.8813	-7.549280	0.000233	2.333373	0.395284	0.000023
 292	2.8954e+01	2.8896	-7.525654	0.000237	2.374309	0.402219	0.000024
 293	2.9054e+01	2.9006	-7.505287	0.000205	2.046818	0.346740	0.000020
 294	2.9154e+01	2.9082	-7.481661	0.000237	2.374309	0.402219	0.000024
 295	2.9253e+01	2.9254	-7.458442	0.000233	2.333373	0.395284	0.000023
 296	2.9352e+01	2.9298	-7.434409	0.000242	2.415246	0.409154	0.000024
 297	2.9452e+01	2.9404	-7.412005	0.000225	2.251500	0.381414	0.000023
 298	2.9552e+01	2.9509	-7.389601	0.000225	2.251500	0.381414	0.000023
 299	2.9651e+01	2.9627	-7.366790	0.000229	2.292436	0.388349	0.000023
 300	2.9750e+01	2.9732	-7.341535	0.000254	2.538055	0.429958	0.000025
 301	2.9850e+01	2.9795	-7.321168	0.000205	2.046818	0.346740	0.000020
 302	2.9950e+01	2.9891	-7.298356	0.000229	2.292436	0.388349	0.000023
 303	3.0049e+01	3.0007	-7.277175	0.000213	2.128691	0.360610	0.000021
 304	3.0148e+01	3.0103	-7.249475	0.000278	2.783673	0.471567	0.000028
 305	3.0248e+01	3.0192	-7.225035	0.000246	2.456182	0.416088	0.000025
 306	3.0348e+01	3.0337	-7.201409	0.000237	2.374309	0.402219	0.000024
 307	3.0447e+01	3.0404	-7.181449	0.000201	2.005882	0.339806	0.000020
 308	3.0547e+01	3.0511	-7.152528	0.000291	2.906482	0.492371	0.000029
 309	3.0646e+01	3.0598	-7.128495	0.000242	2.415246	0.409154	0.000024
 310	3.0745e+01	3.0657	-7.103647	0.000250	2.497118	0.423023	0.000025
 311	3.0845e+01	3.0790	-7.079206	0.000246	2.456182	0.416088	0.000025
 312	3.0945e+01	3.0920	-7.054766	0.000246	2.456182	0.416088	0.000025
 313	3.1044e+01	3.1005	-7.031547	0.000233	2.333373	0.395284	0.000023
 314	3.1143e+01	3.1080	-7.007514	0.000242	2.415246	0.409154	0.000024
 315	3.1243e+01	3.1225	-6.980222	0.000274	2.742736	0.464632	0.000027
 316	3.1343e+01	3.1308	-6.954967	0.000254	2.538055	0.429958	0.000025
 317	3.1442e+01	3.1433	-6.930526	0.000246	2.456182	0.416088	0.000025
 318	3.1541e+01	3.1484	-6.905678	0.000250	2.497118	0.423023	0.000025
 319	3.1641e+01	3.1617	-6.878386	0.000274	2.742736	0.464632	0.000027
 320	3.1741e+01	3.1707	-6.854760	0.000237	2.374309	0.402219	0.000024
 321	3.1840e+01	3.1812	-6.825839	0.000291	2.906482	0.492371	0.000029
 322	3.1939e+01	3.1902	-6.800991	0.000250	2.497118	0.423023	0.000025
 323	3.2039e+01	3.2011	-6.774514	0.000266	2.660864	0.450763	0.000027
 324	3.2139e+01	3.2099	-6.748444	0.000262	2.619927	0.443828	0.000026
 325	3.2238e+01	3.2207	-6.723596	0.000250	2.497118	0.423023	0.000025
 326	3.2337e+01	3.2320	-6.702414	0.000213	2.128691	0.360610	0.000021
 327	3.2437e+01	3.2397	-6.676752	0.000258	2.578991	0.436893	0.000026
 328	3.2536e+01	3.2486	-6.651089	0.000258	2.578991	0.436893	0.000026
 329	3.2636e+01	3.2599	-6.627871	0.000233	2.333373	0.395284	0.000023
 330	3.2736e+01	3.2681	-6.603023	0.000250	2.497118	0.423023	0.000025
 331	3.2835e+01	3.2792	-6.577768	0.000254	2.538055	0.429958	0.000025
 332	3.2934e+01	3.2890	-6.552920	0.000250	2.497118	0.423023	0.000025
 333	3.3034e+01	3.2979	-6.533367	0.000196	1.964946	0.332871	0.000020
 334	3.3133e+01	3.3108	-6.506483	0.000270	2.701800	0.457697	0.000027
 335	3.3233e+01	3.3185	-6.481635	0.000250	2.497118	0.423023	0.000025
 336	3.3333e+01	3.3302	-6.462490	0.000192	1.924009	0.325936	0.000019
 337	3.3432e+01	3.3379	-6.438456	0.000242	2.415246	0.409154	0.000024
 338	3.3532e+01	3.3492	-6.414831	0.000237	2.374309	0.402219	0.000024
 339	3.3631e+01	3.3606	-6.395278	0.000196	1.964946	0.332871	0.000020
 340	3.3730e+01	3.3675	-6.369208	0.000262	2.619927	0.443828	0.000026
 341	3.3830e+01	3.3777	-6.345175	0.000242	2.415246	0.409154	0.000024
 342	3.3929e+01	3.3868	-6.326845	0.000184	1.842136	0.312066	0.000018
 343	3.4029e+01	3.3993	-6.303219	0.000237	2.374309	0.402219	0.000024
 344	3.4129e+01	3.4099	-6.281629	0.000217	2.169627	0.367545	0.000022
 345	3.4228e+01	3.4195	-6.258411	0.000233	2.333373	0.395284	0.000023
 346	3.4328e+01	3.4284	-6.236007	0.000225	2.251500	0.381414	0.000023
 347	3.4427e+01	3.4401	-6.217677	0.000184	1.842136	0.312066	0.000018
 348	3.4526e+01	3.4479	-6.194866	0.000229	2.292436	0.388349	0.000023
 349	3.4626e+01	3.4605	-6.177757	0.000172	1.719327	0.291262	0.000017
 350	3.4725e+01	3.4721	-6.152095	0.000258	2.578991	0.436893	0.000026
 351	3.4825e+01	3.4811	-6.129691	0.000225	2.251500	0.381414	0.000023
 352	3.4925e+01	3.4888	-6.108509	0.000213	2.128691	0.360610	0.000021
 353	3.5024e+01	3.5000	-6.088549	0.000201	2.005882	0.339806	0.000020
 354	3.5123e+01	3.5090	-6.066145	0.000225	2.251500	0.381414	0.000023
 355	3.5223e+01	3.5161	-6.045371	0.000209	2.087755	0.353675	0.000021
 356	3.5322e+01	3.5294	-6.024596	0.000209	2.087755	0.353675	0.000021
 357	3.5422e+01	3.5366	-6.003007	0.000217	2.169627	0.367545	0.000022
 358	3.5522e+01	3.5458	-5.979789	0.000233	2.333373	0.395284	0.000023
 359	3.5621e+01	3.5593	-5.956570	0.000233	2.333373	0.395284	0.000023
 360	3.5721e+01	3.5676	-5.935388	0.000213	2.128691	0.360610	0.000021
 361	3.5820e+01	3.5778	-5.919909	0.000156	1.555582	0.263523	0.000016
 362	3.5919e+01	3.5876	-5.897098	0.000229	2.292436	0.388349	0.000023
 363	3.6019e+01	3.5966	-5.877953	0.000192	1.924009	0.325936	0.000019
 364	3.6118e+01	3.6085	-5.853512	0.000246	2.456182	0.416088	0.000025
 365	3.6218e+01	3.6193	-5.835182	0.000184	1.842136	0.312066	0.000018
 366	3.6318e+01	3.6260	-5.811964	0.000233	2.333373	0.395284	0.000023
 367	3.6417e+01	3.6343	-5.790374	0.000217	2.169627	0.367545	0.000022
 368	3.6517e+01	3.6479	-5.767971	0.000225	2.251500	0.381414	0.000023
 369	3.6616e+01	3.6582	-5.747196	0.000209	2.087755	0.353675	0.000021
 370	3.6715e+01	3.6660	-5.727644	0.000196	1.964946	0.332871	0.000020
 371	3.6815e+01	3.6788	-5.708091	0.000196	1.964946	0.332871	0.000020
 372	3.6914e+01	3.6886	-5.687724	0.000205	2.046818	0.346740	0.000020
 373	3.7014e+01	3.6967	-5.670616	0.000172	1.719327	0.291262	0.000017
 374	3.7114e+01	3.7075	-5.643731	0.000270	2.701800	0.457697	0.000027
 375	3.7213e+01	3.7212	-5.625401	0.000184	1.842136	0.312066	0.000018
 376	3.7313e+01	3.7261	-5.608292	0.000172	1.719327	0.291262	0.000017
 377	3.7412e+01	3.7378	-5.587925	0.000205	2.046818	0.346740	0.000020
 378	3.7511e+01	3.7493	-5.565929	0.000221	2.210564	0.374480	0.000022
 379	3.7611e+01	3.7574	-5.544339	0.000217	2.169627	0.367545	0.000022
 380	3.7711e+01	3.7701	-5.522750	0.000217	2.169627	0.367545	0.000022
 381	3.7810e+01	3.7775	-5.504420	0.000184	1.842136	0.312066	0.000018
 382	3.7910e+01	3.7875	-5.482831	0.000217	2.169627	0.367545	0.000022
 383	3.8009e+01	3.7962	-5.460020	0.000229	2.292436	0.388349	0.000023
 384	3.8108e+01	3.8039	-5.441689	0.000184	1.842136	0.312066	0.000018
 385	3.8208e+01	3.8164	-5.418471	0.000233	2.333373	0.395284	0.000023
 386	3.8307e+01	3.8262	-5.396881	0.000217	2.169627	0.367545	0.000022
 387	3.8407e+01	3.8339	-5.378551	0.000184	1.842136	0.312066	0.000018
 388	3.8507e+01	3.8448	-5.357369	0.000213	2.128691	0.360610	0.000021
 389	3.8606e+01	3.8546	-5.338631	0.000188	1.883073	0.319001	0.000019
 390	3.8706e+01	3.8658	-5.315820	0.000229	2.292436	0.388349	0.000023
 391	3.8805e+01	3.8742	-5.298305	0.000176	1.760264	0.298197	0.000018
 392	3.8904e+01	3.8857	-5.282418	0.000160	1.596518	0.270458	0.000016
 393	3.9004e+01	3.8962	-5.259607	0.000229	2.292436	0.388349	0.000023
 394	3.9103e+01	3.9066	-5.238833	0.000209	2.087755	0.353675	0.000021
 395	3.9203e+01	3.9172	-5.222946	0.000160	1.596518	0.270458	0.000016
 396	3.9303e+01	3.9240	-5.200135	0.000229	2.292436	0.388349	0.000023
 397	3.9402e+01	3.9355	-5.182619	0.000176	1.760264	0.298197	0.000018
 398	3.9502e+01	3.9486	-5.165104	0.000176	1.760264	0.298197	0.000018
 399	3.9601e+01	3.9556	-5.141070	0.000242	2.415246	0.409154	0.000024
 400	3.9700e+01	3.9640	-5.128035	0.000131	1.309964	0.221914	0.000013
 401	3.9800e+01	3.9751	-5.107261	0.000209	2.087755	0.353675	0.000021
 402	3.9900e+01	3.9869	-5.089338	0.000180	1.801200	0.305132	0.000018
 403	3.9999e+01	3.9954	-5.073451	0.000160	1.596518	0.270458	0.000016
 404	4.0099e+01	4.0048	-5.055121	0.000184	1.842136	0.312066	0.000018
 405	4.0198e+01	4.0151	-5.039235	0.000160	1.596518	0.270458	0.000016
 406	4.0297e+01	4.0263	-5.017238	0.000221	2.210564	0.374480	0.000022
 407	4.0397e+01	4.0340	-4.998500	0.000188	1.883073	0.319001	0.000019
 408	4.0496e+01	4.0484	-4.980170	0.000184	1.842136	0.312066	0.000018
 409	4.0596e+01	4.0549	-4.964284	0.000160	1.596518	0.270458	0.000016
 410	4.0696e+01	4.0646	-4.940658	0.000237	2.374309	0.402219	0.000024
 411	4.0795e+01	4.0749	-4.925993	0.000147	1.473709	0.249653	0.000015
 412	4.0895e+01	4.0838	-4.906441	0.000196	1.964946	0.332871	0.000020
 413	4.0994e+01	4.0929	-4.884037	0.000225	2.251500	0.381414	0.000023
 414	4.1093e+01	4.1045	-4.865707	0.000184	1.842136	0.312066	0.000018
 415	4.1193e+01	4.1171	-4.844932	0.000209	2.087755	0.353675	0.000021
 416	4.1292e+01	4.1242	-4.824973	0.000201	2.005882	0.339806	0.000020
 417	4.1392e+01	4.1322	-4.805827	0.000192	1.924009	0.325936	0.000019
 418	4.1492e+01	4.1454	-4.786682	0.000192	1.924009	0.325936	0.000019
 419	4.1591e+01	4.1572	-4.769981	0.000168	1.678391	0.284327	0.000017
 420	4.1691e+01	4.1645	-4.746763	0.000233	2.333373	0.395284	0.000023
 421	4.1790e+01	4.1728	-4.724359	0.000225	2.251500	0.381414	0.000023
 422	4.1889e+01	4.1844	-4.705621	0.000188	1.883073	0.319001	0.000019
 423	4.1989e+01	4.1953	-4.682403	0.000233	2.333373	0.395284	0.000023
 424	4.2089e+01	4.2062	-4.657962	0.000246	2.456182	0.416088	0.000025
 425	4.2188e+01	4.2155	-4.640446	0.000176	1.760264	0.298197	0.000018
 426	4.2288e+01	4.2234	-4.617228	0.000233	2.333373	0.395284	0.000023
 427	4.2387e+01	4.2347	-4.598897	0.000184	1.842136	0.312066	0.000018
 428	4.2486e+01	4.2448	-4.578123	0.000209	2.087755	0.353675	0.000021
 429	4.2586e+01	4.2538	-4.553682	0.000246	2.456182	0.416088	0.000025
 430	4.2685e+01	4.2627	-4.531279	0.000225	2.251500	0.381414	0.000023
 431	4.2785e+01	4.2757	-4.505209	0.000262	2.619927	0.443828	0.000026
 432	4.2885e+01	4.2841	-4.487286	0.000180	1.801200	0.305132	0.000018
 433	4.2984e+01	4.2934	-4.464067	0.000233	2.333373	0.395284	0.000023
 434	4.3084e+01	4.3052	-4.439219	0.000250	2.497118	0.423023	0.000025
 435	4.3183e+01	4.3166	-4.418852	0.000205	2.046818	0.346740	0.000020
 436	4.3282e+01	4.3261	-4.397263	0.000217	2.169627	0.367545	0.000022
 437	4.3382e+01	4.3401	-4.377710	0.000196	1.964946	0.332871	0.000020
 438	4.3481e+01	4.3468	-4.350011	0.000278	2.783673	0.471567	0.000028
 439	4.3581e+01	4.3571	-4.330866	0.000192	1.924009	0.325936	0.000019
 440	4.3681e+01	4.3634	-4.308055	0.000229	2.292436	0.388349	0.000023
 441	4.3780e+01	4.3752	-4.284022	0.000242	2.415246	0.409154	0.000024
 442	4.3880e+01	4.3826	-4.262025	0.000221	2.210564	0.374480	0.000022
 443	4.3979e+01	4.3961	-4.240029	0.000221	2.210564	0.374480	0.000022
 444	4.4078e+01	4.4037	-4.216403	0.000237	2.374309	0.402219	0.000024
 445	4.4178e+01	4.4159	-4.192370	0.000242	2.415246	0.409154	0.000024
 446	4.4278e+01	4.4231	-4.172002	0.000205	2.046818	0.346740	0.000020
 447	4.4377e+01	4.4350	-4.149599	0.000225	2.251500	0.381414	0.000023
 448	4.4477e+01	4.4434	-4.125565	0.000242	2.415246	0.409154	0.000024
 449	4.4576e+01	4.4525	-4.102347	0.000233	2.333373	0.395284	0.000023
 450	4.4675e+01	4.4634	-4.078314	0.000242	2.415246	0.409154	0.000024
 451	4.4775e+01	4.4725	-4.058354	0.000201	2.005882	0.339806	0.000020
 452	4.4874e+01	4.4854	-4.033506	0.000250	2.497118	0.423023	0.000025
 453	4.4974e+01	4.4921	-4.010695	0.000229	2.292436	0.388349	0.000023
 454	4.5074e+01	4.5061	-3.987476	0.000233	2.333373	0.395284	0.000023
 455	4.5173e+01	4.5146	-3.968331	0.000192	1.924009	0.325936	0.000019
 456	4.5273e+01	4.5243	-3.942669	0.000258	2.578991	0.436893	0.000026
 457	4.5372e+01	4.5328	-3.917006	0.000258	2.578991	0.436893	0.000026
 458	4.5471e+01	4.5431	-3.895009	0.000221	2.210564	0.374480	0.000022
 459	4.5571e+01	4.5544	-3.869347	0.000258	2.578991	0.436893	0.000026
 460	4.5670e+01	4.5635	-3.850609	0.000188	1.883073	0.319001	0.000019
 461	4.5770e+01	4.5710	-3.825354	0.000254	2.538055	0.429958	0.000025
 462	4.5870e+01	4.5854	-3.801728	0.000237	2.374309	0.402219	0.000024
 463	4.5969e+01	4.5954	-3.778510	0.000233	2.333373	0.395284	0.000023
 464	4.6069e+01	4.6039	-3.754476	0.000242	2.415246	0.409154	0.000024
 465	4.6168e+01	4.6145	-3.734924	0.000196	1.964946	0.332871	0.000020
 466	4.6267e+01	4.6203	-3.713335	0.000217	2.169627	0.367545	0.000022
 467	4.6367e+01	4.6336	-3.687672	0.000258	2.578991	0.436893	0.000026
 468	4.6467e+01	4.6440	-3.664454	0.000233	2.333373	0.395284	0.000023
 469	4.6566e+01	4.6550	-3.641642	0.000229	2.292436	0.388349	0.000023
 470	4.6666e+01	4.6614	-3.619239	0.000225	2.251500	0.381414	0.000023
 471	4.6765e+01	4.6721	-3.591132	0.000282	2.824609	0.478502	0.000028
 472	4.6864e+01	4.6796	-3.567099	0.000242	2.415246	0.409154	0.000024
 473	4.6964e+01	4.6890	-3.548768	0.000184	1.842136	0.312066	0.000018
 474	4.7063e+01	4.7021	-3.520662	0.000282	2.824609	0.478502	0.000028
 475	4.7163e+01	4.7131	-3.500295	0.000205	2.046818	0.346740	0.000020
 476	4.7263e+01	4.7222	-3.470966	0.000295	2.947418	0.499306	0.000029
 477	4.7362e+01	4.7288	-3.448155	0.000229	2.292436	0.388349	0.000023
 478	4.7462e+01	4.7404	-3.423307	0.000250	2.497118	0.423023	0.000025
 479	4.7561e+01	4.7518	-3.394793	0.000287	2.865546	0.485437	0.000029
 480	4.7660e+01	4.7622	-3.373611	0.000213	2.128691	0.360610	0.000021
 481	4.7760e+01	4.7712	-3.348356	0.000254	2.538055	0.429958	0.000025
 482	4.7859e+01	4.7843	-3.326359	0.000221	2.210564	0.374480	0.000022
 483	4.7959e+01	4.7936	-3.299475	0.000270	2.701800	0.457697	0.000027
 484	4.8059e+01	4.8025	-3.272590	0.000270	2.701800	0.457697	0.000027
 485	4.8158e+01	4.8114	-3.247742	0.000250	2.497118	0.423023	0.000025
 486	4.8258e+01	4.8221	-3.221672	0.000262	2.619927	0.443828	0.000026
 487	4.8357e+01	4.8304	-3.196824	0.000250	2.497118	0.423023	0.000025
 488	4.8456e+01	4.8402	-3.168310	0.000287	2.865546	0.485437	0.000029
 489	4.8556e+01	4.8520	-3.143462	0.000250	2.497118	0.423023	0.000025
 490	4.8656e+01	4.8622	-3.115763	0.000278	2.783673	0.471567	0.000028
 491	4.8755e+01	4.8696	-3.089286	0.000266	2.660864	0.450763	0.000027
 492	4.8855e+01	4.8797	-3.065660	0.000237	2.374309	0.402219	0.000024
 493	4.8954e+01	4.8936	-3.042442	0.000233	2.333373	0.395284	0.000023
 494	4.9053e+01	4.9021	-3.015964	0.000266	2.660864	0.450763	0.000027
 495	4.9153e+01	4.9091	-2.993968	0.000221	2.210564	0.374480	0.000022
 496	4.9252e+01	4.9209	-2.966676	0.000274	2.742736	0.464632	0.000027
 497	4.9352e+01	4.9282	-2.942235	0.000246	2.456182	0.416088	0.000025
 498	4.9452e+01	4.9411	-2.921461	0.000209	2.087755	0.353675	0.000021
 499	4.9551e+01	4.9514	-2.892947	0.000287	2.865546	0.485437	0.000029
 500	4.9651e+01	4.9611	-2.866877	0.000262	2.619927	0.443828	0.000026
 501	4.9750e+01	4.9743	-2.847324	0.000196	1.964946	0.332871	0.000020
 502	4.9849e+01	4.9789	-2.819625	0.000278	2.783673	0.471567	0.000028
 503	4.9949e+01	4.9943	-2.799665	0.000201	2.005882	0.339806	0.000020
 504	5.0048e+01	5.0014	-2.770744	0.000291	2.906482	0.492371	0.000029
 505	5.0148e+01	5.0134	-2.752821	0.000180	1.801200	0.305132	0.000018
 506	5.0248e+01	5.0214	-2.727566	0.000254	2.538055	0.429958	0.000025
 507	5.0347e+01	5.0324	-2.707606	0.000201	2.005882	0.339806	0.000020
 508	5.0447e+01	5.0405	-2.689683	0.000180	1.801200	0.305132	0.000018
 509	5.0546e+01	5.0512	-2.661169	0.000287	2.865546	0.485437	0.000029
 510	5.0645e+01	5.0614	-2.639987	0.000213	2.128691	0.360610	0.000021
 511	5.0745e+01	5.0697	-2.619620	0.000205	2.046818	0.346740	0.000020
 512	5.0844e+01	5.0774	-2.592328	0.000274	2.742736	0.464632	0.000027
 513	5.0944e+01	5.0896	-2.572368	0.000201	2.005882	0.339806	0.000020
 514	5.1044e+01	5.1004	-2.551594	0.000209	2.087755	0.353675	0.000021
 515	5.1143e+01	5.1102	-2.528375	0.000233	2.333373	0.395284	0.000023
 516	5.1242e+01	5.1173	-2.509230	0.000192	1.924009	0.325936	0.000019
 517	5.1342e+01	5.1312	-2.484382	0.000250	2.497118	0.423023	0.000025
 518	5.1441e+01	5.1365	-2.462793	0.000217	2.169627	0.367545	0.000022
 519	5.1541e+01	5.1499	-2.442019	0.000209	2.087755	0.353675	0.000021
 520	5.1641e+01	5.1596	-2.419207	0.000229	2.292436	0.388349	0.000023
 521	5.1740e+01	5.1706	-2.395174	0.000242	2.415246	0.409154	0.000024
 522	5.1840e+01	5.1806	-2.376029	0.000192	1.924009	0.325936	0.000019
 523	5.1939e+01	5.1919	-2.352811	0.000233	2.333373	0.395284	0.000023
 524	5.2038e+01	5.2030	-2.328370	0.000246	2.456182	0.416088	0.000025
 525	5.2138e+01	5.2092	-2.309225	0.000192	1.924009	0.325936	0.000019
 526	5.2237e+01	5.2190	-2.285192	0.000242	2.415246	0.409154	0.000024
 527	5.2337e+01	5.2306	-2.265232	0.000201	2.005882	0.339806	0.000020
 528	5.2437e+01	5.2387	-2.245272	0.000201	2.005882	0.339806	0.000020
 529	5.2536e+01	5.2491	-2.222461	0.000229	2.292436	0.388349	0.000023
 530	5.2636e+01	5.2618	-2.200464	0.000221	2.210564	0.374480	0.000022
 531	5.2735e+01	5.2700	-2.179283	0.000213	2.128691	0.360610	0.000021
 532	5.2834e+01	5.2795	-2.159730	0.000196	1.964946	0.332871	0.000020
 533	5.2934e+01	5.2901	-2.136104	0.000237	2.374309	0.402219	0.000024
 534	5.3033e+01	5.3004	-2.114108	0.000221	2.210564	0.374480	0.000022
 535	5.3133e+01	5.3089	-2.098221	0.000160	1.596518	0.270458	0.000016
 536	5.3233e+01	5.3176	-2.072152	0.000262	2.619927	0.443828	0.000026
 537	5.3332e+01	5.3294	-2.052192	0.000201	2.005882	0.339806	0.000020
 538	5.3431e+01	5.3365	-2.028973	0.000233	2.333373	0.395284	0.000023
 539	5.3531e+01	5.3515	-2.006977	0.000221	2.210564	0.374480	0.000022
 540	5.3630e+01	5.3579	-1.988239	0.000188	1.883073	0.319001	0.000019
 541	5.3730e+01	5.3695	-1.967057	0.000213	2.128691	0.360610	0.000021
 542	5.3830e+01	5.3761	-1.945875	0.000213	2.128691	0.360610	0.000021
 543	5.3929e+01	5.3902	-1.925101	0.000209	2.087755	0.353675	0.000021
 544	5.4029e+01	5.3980	-1.901068	0.000242	2.415246	0.409154	0.000024
 545	5.4128e+01	5.4095	-1.881923	0.000192	1.924009	0.325936	0.000019
 546	5.4227e+01	5.4178	-1.860333	0.000217	2.169627	0.367545	0.000022
 547	5.4327e+01	5.4298	-1.844040	0.000164	1.637455	0.277392	0.000016
 548	5.4426e+01	5.4374	-1.815526	0.000287	2.865546	0.485437	0.000029
 549	5.4526e+01	5.4473	-1.793937	0.000217	2.169627	0.367545	0.000022
 550	5.4626e+01	5.4609	-1.776014	0.000180	1.801200	0.305132	0.000018
 551	5.4725e+01	5.4676	-1.751980	0.000242	2.415246	0.409154	0.000024
 552	5.4825e+01	5.4762	-1.732428	0.000196	1.964946	0.332871	0.000020
 553	5.4924e+01	5.4909	-1.710839	0.000217	2.169627	0.367545	0.000022
 554	5.5023e+01	5.5016	-1.688028	0.000229	2.292436	0.388349	0.000023
 555	5.5123e+01	5.5093	-1.668068	0.000201	2.005882	0.339806	0.000020
 556	5.5222e+01	5.5192	-1.645257	0.000229	2.292436	0.388349	0.000023
 557	5.5322e+01	5.5300	-1.627333	0.000180	1.801200	0.305132	0.000018
 558	5.5422e+01	5.5360	-1.603708	0.000237	2.374309	0.402219	0.000024
 559	5.5521e+01	5.5494	-1.587007	0.000168	1.678391	0.284327	0.000017
 560	5.5620e+01	5.5596	-1.564195	0.000229	2.292436	0.388349	0.000023
 561	5.5720e+01	5.5648	-1.546680	0.000176	1.760264	0.298197	0.000018
 562	5.5819e+01	5.5804	-1.526313	0.000205	2.046818	0.346740	0.000020
 563	5.5919e+01	5.5886	-1.504316	0.000221	2.210564	0.374480	0.000022
 564	5.6019e+01	5.5973	-1.486800	0.000176	1.760264	0.298197	0.000018
 565	5.6118e+01	5.6077	-1.466433	0.000205	2.046818	0.346740	0.000020
 566	5.6218e+01	5.6164	-1.447288	0.000192	1.924009	0.325936	0.000019
 567	5.6317e+01	5.6284	-1.425699	0.000217	2.169627	0.367545	0.000022
 568	5.6416e+01	5.6365	-1.403295	0.000225	2.251500	0.381414	0.000023
 569	5.6516e+01	5.6488	-1.387816	0.000156	1.555582	0.263523	0.000016
 570	5.6615e+01	5.6596	-1.369893	0.000180	1.801200	0.305132	0.000018
 571	5.6715e+01	5.6673	-1.353599	0.000164	1.637455	0.277392	0.000016
 572	5.6815e+01	5.6777	-1.331195	0.000225	2.251500	0.381414	0.000023
 573	5.6914e+01	5.6873	-1.316124	0.000151	1.514645	0.256588	0.000015
 574	5.7014e+01	5.6969	-1.297793	0.000184	1.842136	0.312066	0.000018
 575	5.7113e+01	5.7103	-1.279463	0.000184	1.842136	0.312066	0.000018
 576	5.7212e+01	5.7165	-1.260318	0.000192	1.924009	0.325936	0.000019
 577	5.7312e+01	5.7276	-1.237099	0.000233	2.333373	0.395284	0.000023
 578	5.7411e+01	5.7406	-1.219584	0.000176	1.760264	0.298197	0.000018
 579	5.7511e+01	5.7485	-1.196772	0.000229	2.292436	0.388349	0.000023
 580	5.7611e+01	5.7558	-1.177220	0.000196	1.964946	0.332871	0.000020
 581	5.7710e+01	5.7668	-1.160519	0.000168	1.678391	0.284327	0.000017
 582	5.7809e+01	5.7800	-1.140966	0.000196	1.964946	0.332871	0.000020
 583	5.7909e+01	5.7868	-1.116933	0.000242	2.415246	0.409154	0.000024
 584	5.8008e+01	5.7980	-1.100232	0.000168	1.678391	0.284327	0.000017
 585	5.8108e+01	5.8064	-1.079458	0.000209	2.087755	0.353675	0.000021
 586	5.8208e+01	5.8172	-1.052573	0.000270	2.701800	0.457697	0.000027
 587	5.8307e+01	5.8253	-1.037909	0.000147	1.473709	0.249653	0.000015
 588	5.8407e+01	5.8366	-1.013468	0.000246	2.456182	0.416088	0.000025
 589	5.8506e+01	5.8450	-0.990250	0.000233	2.333373	0.395284	0.000023
 590	5.8605e+01	5.8561	-0.969883	0.000205	2.046818	0.346740	0.000020
 591	5.8705e+01	5.8685	-0.947886	0.000221	2.210564	0.374480	0.000022
 592	5.8804e+01	5.8773	-0.925482	0.000225	2.251500	0.381414	0.000023
 593	5.8904e+01	5.8855	-0.899820	0.000258	2.578991	0.436893	0.000026
 594	5.9004e+01	5.8950	-0.877416	0.000225	2.251500	0.381414	0.000023
 595	5.9103e+01	5.9063	-0.853790	0.000237	2.374309	0.402219	0.000024
 596	5.9203e+01	5.9173	-0.831793	0.000221	2.210564	0.374480	0.000022
 597	5.9302e+01	5.9237	-0.810204	0.000217	2.169627	0.367545	0.000022
 598	5.9401e+01	5.9382	-0.785764	0.000246	2.456182	0.416088	0.000025
 599	5.9501e+01	5.9444	-0.760916	0.000250	2.497118	0.423023	0.000025
 600	5.9600e+01	5.9540	-0.738919	0.000221	2.210564	0.374480	0.000022
 601	5.9700e+01	5.9682	-0.715701	0.000233	2.333373	0.395284	0.000023
 602	5.9800e+01	5.9753	-0.687594	0.000282	2.824609	0.478502	0.000028
 603	5.9899e+01	5.9829	-0.665598	0.000221	2.210564	0.374480	0.000022
 604	5.9998e+01	5.9963	-0.644416	0.000213	2.128691	0.360610	0.000021
 605	6.0098e+01	6.0076	-0.620383	0.000242	2.415246	0.409154	0.000024
 606	6.0197e+01	6.0169	-0.599201	0.000213	2.128691	0.360610	0.000021
 607	6.0297e+01	6.0256	-0.577204	0.000221	2.210564	0.374480	0.000022
 608	6.0397e+01	6.0357	-0.552764	0.000246	2.456182	0.416088	0.000025
 609	6.0496e+01	6.0477	-0.526287	0.000266	2.660864	0.450763	0.000027
 610	6.0596e+01	6.0550	-0.502253	0.000242	2.415246	0.409154	0.000024
 611	6.0695e+01	6.0653	-0.478220	0.000242	2.415246	0.409154	0.000024
 612	6.0794e+01	6.0748	-0.453372	0.000250	2.497118	0.423023	0.000025
 613	6.0894e+01	6.0835	-0.428117	0.000254	2.538055	0.429958	0.000025
 614	6.0993e+01	6.0961	-0.403676	0.000246	2.456182	0.416088	0.000025
 615	6.1093e+01	6.1054	-0.382902	0.000209	2.087755	0.353675	0.000021
 616	6.1193e+01	6.1152	-0.357239	0.000258	2.578991	0.436893	0.000026
 617	6.1292e+01	6.1269	-0.336058	0.000213	2.128691	0.360610	0.000021
 618	6.1392e+01	6.1359	-0.307951	0.000282	2.824609	0.478502	0.000028
 619	6.1491e+01	6.1501	-0.287991	0.000201	2.005882	0.339806	0.000020
 620	6.1590e+01	6.1562	-0.263551	0.000246	2.456182	0.416088	0.000025
 621	6.1690e+01	6.1657	-0.242369	0.000213	2.128691	0.360610	0.000021
 622	6.1789e+01	6.1744	-0.213855	0.000287	2.865546	0.485437	0.000029
 623	6.1889e+01	6.1832	-0.186970	0.000270	2.701800	0.457697	0.000027
 624	6.1989e+01	6.1951	-0.165788	0.000213	2.128691	0.360610	0.000021
 625	6.2088e+01	6.2032	-0.143385	0.000225	2.251500	0.381414	0.000023
 626	6.2188e+01	6.2154	-0.116500	0.000270	2.701800	0.457697	0.000027
 627	6.2287e+01	6.2252	-0.090837	0.000258	2.578991	0.436893	0.000026
 628	6.2386e+01	6.2360	-0.068841	0.000221	2.210564	0.374480	0.000022
 629	6.2486e+01	6.2441	-0.043993	0.000250	2.497118	0.423023	0.000025
 630	6.2586e+01	6.2535	-0.018738	0.000254	2.538055	0.429958	0.000025
 631	6.2685e+01	6.2640	0.004481	0.000233	2.333373	0.395284	0.000023
 632	6.2785e+01	6.2762	0.030551	0.000262	2.619927	0.443828	0.000026
 633	6.2884e+01	6.2838	0.057435	0.000270	2.701800	0.457697	0.000027
 634	6.2983e+01	6.2936	0.076988	0.000196	1.964946	0.332871	0.000020
 635	6.3083e+01	6.3068	0.101428	0.000246	2.456182	0.416088	0.000025
 636	6.3182e+01	6.3128	0.123832	0.000225	2.251500	0.381414	0.000023
 637	6.3282e+01	6.3241	0.149902	0.000262	2.619927	0.443828	0.000026
 638	6.3382e+01	6.3307	0.175565	0.000258	2.578991	0.436893	0.000026
 639	6.3481e+01	6.3428	0.200413	0.000250	2.497118	0.423023	0.000025
 640	6.3581e+01	6.3559	0.224038	0.000237	2.374309	0.402219	0.000024
 641	6.3680e+01	6.3645	0.251738	0.000278	2.783673	0.471567	0.000028
 642	6.3779e+01	6.3754	0.277808	0.000262	2.619927	0.443828	0.000026
 643	6.3879e+01	6.3814	0.302248	0.000246	2.456182	0.416088	0.000025
 644	6.3978e+01	6.3912	0.331169	0.000291	2.906482	0.492371	0.000029
 645	6.4078e+01	6.4027	0.358054	0.000270	2.701800	0.457697	0.000027
 646	6.4177e+01	6.4114	0.383717	0.000258	2.578991	0.436893	0.000026
 647	6.4277e+01	6.4223	0.410601	0.000270	2.701800	0.457697	0.000027
 648	6.4376e+01	6.4336	0.435042	0.000246	2.456182	0.416088	0.000025
 649	6.4476e+01	6.4431	0.461519	0.000266	2.660864	0.450763	0.000027
 650	6.4576e+01	6.4526	0.488404	0.000270	2.701800	0.457697	0.000027
 651	6.4675e+01	6.4655	0.519769	0.000315	3.152100	0.533980	0.000032
 652	6.4775e+01	6.4739	0.543802	0.000242	2.415246	0.409154	0.000024
 653	6.4874e+01	6.4812	0.573538	0.000299	2.988355	0.506241	0.000030
 654	6.4974e+01	6.4912	0.600830	0.000274	2.742736	0.464632	0.000027
 655	6.5073e+01	6.5043	0.629344	0.000287	2.865546	0.485437	0.000029
 656	6.5172e+01	6.5115	0.657451	0.000282	2.824609	0.478502	0.000028
 657	6.5272e+01	6.5239	0.685150	0.000278	2.783673	0.471567	0.000028
 658	6.5371e+01	6.5337	0.714071	0.000291	2.906482	0.492371	0.000029
 659	6.5471e+01	6.5438	0.739327	0.000254	2.538055	0.429958	0.000025
 660	6.5570e+01	6.5569	0.769063	0.000299	2.988355	0.506241	0.000030
 661	6.5670e+01	6.5643	0.793096	0.000242	2.415246	0.409154	0.000024
 662	6.5769e+01	6.5739	0.820795	0.000278	2.783673	0.471567	0.000028
 663	6.5869e+01	6.5806	0.844421	0.000237	2.374309	0.402219	0.000024
 664	6.5969e+01	6.5936	0.872120	0.000278	2.783673	0.471567	0.000028
 665	6.6068e+01	6.6040	0.901856	0.000299	2.988355	0.506241	0.000030
 666	6.6168e+01	6.6140	0.929148	0.000274	2.742736	0.464632	0.000027
 667	6.6267e+01	6.6249	0.957662	0.000287	2.865546	0.485437	0.000029
 668	6.6367e+01	6.6365	0.980474	0.000229	2.292436	0.388349	0.000023
 669	6.6466e+01	6.6421	1.006136	0.000258	2.578991	0.436893	0.000026
 670	6.6566e+01	6.6508	1.028947	0.000229	2.292436	0.388349	0.000023
 671	6.6665e+01	6.6640	1.054203	0.000254	2.538055	0.429958	0.000025
 672	6.6764e+01	6.6717	1.083124	0.000291	2.906482	0.492371	0.000029
 673	6.6864e+01	6.6834	1.105935	0.000229	2.292436	0.388349	0.000023
 674	6.6963e+01	6.6912	1.127932	0.000221	2.210564	0.374480	0.000022
 675	6.7063e+01	6.7033	1.150743	0.000229	2.292436	0.388349	0.000023
 676	6.7162e+01	6.7110	1.178442	0.000278	2.783673	0.471567	0.000028
 677	6.7262e+01	6.7193	1.201661	0.000233	2.333373	0.395284	0.000023
 678	6.7362e+01	6.7294	1.225694	0.000242	2.415246	0.409154	0.000024
 679	6.7461e+01	6.7416	1.249727	0.000242	2.415246	0.409154	0.000024
 680	6.7561e+01	6.7504	1.274575	0.000250	2.497118	0.423023	0.000025
 681	6.7660e+01	6.7611	1.299423	0.000250	2.497118	0.423023	0.000025
 682	6.7760e+01	6.7700	1.323049	0.000237	2.374309	0.402219	0.000024
 683	6.7859e+01	6.7823	1.347897	0.000250	2.497118	0.423023	0.000025
 684	6.7959e+01	6.7913	1.371115	0.000233	2.333373	0.395284	0.000023
 685	6.8058e+01	6.8035	1.393926	0.000229	2.292436	0.388349	0.000023
 686	6.8157e+01	6.8089	1.417959	0.000242	2.415246	0.409154	0.000024
 687	6.8257e+01	6.8213	1.444437	0.000266	2.660864	0.450763	0.000027
 688	6.8356e+01	6.8307	1.467248	0.000229	2.292436	0.388349	0.000023
 689	6.8456e+01	6.8418	1.488430	0.000213	2.128691	0.360610	0.000021
 690	6.8555e+01	6.8526	1.510834	0.000225	2.251500	0.381414	0.000023
 691	6.8655e+01	6.8642	1.534867	0.000242	2.415246	0.409154	0.000024
 692	6.8754e+01	6.8716	1.561751	0.000270	2.701800	0.457697	0.000027
 693	6.8854e+01	6.8817	1.582118	0.000205	2.046818	0.346740	0.000020
 694	6.8954e+01	6.8907	1.606152	0.000242	2.415246	0.409154	0.000024
 695	6.9053e+01	6.9024	1.628148	0.000221	2.210564	0.374480	0.000022
 696	6.9153e+01	6.9093	1.651774	0.000237	2.374309	0.402219	0.000024
 697	6.9252e+01	6.9205	1.673771	0.000221	2.210564	0.374480	0.000022
 698	6.9352e+01	6.9295	1.698211	0.000246	2.456182	0.416088	0.000025
 699	6.9451e+01	6.9390	1.720615	0.000225	2.251500	0.381414	0.000023
 700	6.9550e+01	6.9509	1.743019	0.000225	2.251500	0.381414	0.000023
 701	6.9650e+01	6.9598	1.767052	0.000242	2.415246	0.409154	0.000024
 702	6.9749e+01	6.9687	1.788641	0.000217	2.169627	0.367545	0.000022
 703	6.9849e+01	6.9793	1.812267	0.000237	2.374309	0.402219	0.000024
 704	6.9948e+01	6.9894	1.834671	0.000225	2.251500	0.381414	0.000023
 705	7.0048e+01	6.9987	1.858297	0.000237	2.374309	0.402219	0.000024
 706	7.0147e+01	7.0097	1.879886	0.000217	2.169627	0.367545	0.000022
 707	7.0247e+01	7.0208	1.904734	0.000250	2.497118	0.423023	0.000025
 708	7.0347e+01	7.0284	1.929174	0.000246	2.456182	0.416088	0.000025
 709	7.0446e+01	7.0391	1.951171	0.000221	2.210564	0.374480	0.000022
 710	7.0546e+01	7.0505	1.973167	0.000221	2.210564	0.374480	0.000022
 711	7.0645e+01	7.0605	1.997201	0.000242	2.415246	0.409154	0.000024
 712	7.0745e+01	7.0695	2.020012	0.000229	2.292436	0.388349	0.000023
 713	7.0844e+01	7.0797	2.042823	0.000229	2.292436	0.388349	0.000023
 714	7.0944e+01	7.0904	2.063190	0.000205	2.046818	0.346740	0.000020
 715	7.1043e+01	7.0974	2.088038	0.000250	2.497118	0.423023	0.000025
 716	7.1142e+01	7.1107	2.112478	0.000246	2.456182	0.416088	0.000025
 717	7.1242e+01	7.1197	2.131624	0.000192	1.924009	0.325936	0.000019
 718	7.1341e+01	7.1303	2.156879	0.000254	2.538055	0.429958	0.000025
 719	7.1441e+01	7.1389	2.180912	0.000242	2.415246	0.409154	0.000024
 720	7.1540e+01	7.1558	2.202501	0.000217	2.169627	0.367545	0.000022
 721	7.1640e+01	7.1621	2.224905	0.000225	2.251500	0.381414	0.000023
 722	7.1740e+01	7.1700	2.245679	0.000209	2.087755	0.353675	0.000021
 723	7.1839e+01	7.1808	2.268898	0.000233	2.333373	0.395284	0.000023
 724	7.1939e+01	7.1893	2.294153	0.000254	2.538055	0.429958	0.000025
 725	7.2038e+01	7.1973	2.314520	0.000205	2.046818	0.346740	0.000020
 726	7.2138e+01	7.2083	2.339368	0.000250	2.497118	0.423023	0.000025
 727	7.2237e+01	7.2213	2.359328	0.000201	2.005882	0.339806	0.000020
 728	7.2337e+01	7.2286	2.380510	0.000213	2.128691	0.360610	0.000021
 729	7.2436e+01	7.2392	2.403728	0.000233	2.333373	0.395284	0.000023
 730	7.2535e+01	7.2461	2.422873	0.000192	1.924009	0.325936	0.000019
 731	7.2635e+01	7.2566	2.444463	0.000217	2.169627	0.367545	0.000022
 732	7.2734e+01	7.2705	2.466459	0.000221	2.210564	0.374480	0.000022
 733	7.2834e+01	7.2810	2.488048	0.000217	2.169627	0.367545	0.000022
 734	7.2933e+01	7.2890	2.514118	0.000262	2.619927	0.443828	0.000026
 735	7.3033e+01	7.2998	2.534485	0.000205	2.046818	0.346740	0.000020
 736	7.3132e+01	7.3100	2.555667	0.000213	2.128691	0.360610	0.000021
 737	7.3232e+01	7.3167	2.576849	0.000213	2.128691	0.360610	0.000021
 738	7.3332e+01	7.3284	2.596401	0.000196	1.964946	0.332871	0.000020
 739	7.3431e+01	7.3409	2.618398	0.000221	2.210564	0.374480	0.000022
 740	7.3531e+01	7.3441	2.640802	0.000225	2.251500	0.381414	0.000023
 741	7.3630e+01	7.3603	2.661984	0.000213	2.128691	0.360610	0.000021
 742	7.3730e+01	7.3704	2.684387	0.000225	2.251500	0.381414	0.000023
 743	7.3829e+01	7.3779	2.707606	0.000233	2.333373	0.395284	0.000023
 744	7.3928e+01	7.3871	2.730824	0.000233	2.333373	0.395284	0.000023
 745	7.4028e+01	7.3977	2.752006	0.000213	2.128691	0.360610	0.000021
 746	7.4127e+01	7.4102	2.776447	0.000246	2.456182	0.416088	0.000025
 747	7.4227e+01	7.4212	2.798036	0.000217	2.169627	0.367545	0.000022
 748	7.4326e+01	7.4281	2.822069	0.000242	2.415246	0.409154	0.000024
 749	7.4426e+01	7.4355	2.846102	0.000242	2.415246	0.409154	0.000024
 750	7.4525e+01	7.4480	2.869728	0.000237	2.374309	0.402219	0.000024
 751	7.4625e+01	7.4570	2.894984	0.000254	2.538055	0.429958	0.000025
 752	7.4725e+01	7.4667	2.918202	0.000233	2.333373	0.395284	0.000023
 753	7.4824e+01	7.4773	2.941421	0.000233	2.333373	0.395284	0.000023
 754	7.4924e+01	7.4879	2.964639	0.000233	2.333373	0.395284	0.000023
 755	7.5023e+01	7.4976	2.989080	0.000246	2.456182	0.416088	0.000025
 756	7.5123e+01	7.5070	3.013928	0.000250	2.497118	0.423023	0.000025
 757	7.5222e+01	7.5161	3.040812	0.000270	2.701800	0.457697	0.000027
 758	7.5322e+01	7.5293	3.064031	0.000233	2.333373	0.395284	0.000023
 759	7.5421e+01	7.5387	3.091323	0.000274	2.742736	0.464632	0.000027
 760	7.5520e+01	7.5475	3.112912	0.000217	2.169627	0.367545	0.000022
 761	7.5620e+01	7.5579	3.139389	0.000266	2.660864	0.450763	0.000027
 762	7.5719e+01	7.5642	3.164644	0.000254	2.538055	0.429958	0.000025
 763	7.5819e+01	7.5767	3.189900	0.000254	2.538055	0.429958	0.000025
 764	7.5918e+01	7.5889	3.214747	0.000250	2.497118	0.423023	0.000025
 765	7.6018e+01	7.5961	3.244076	0.000295	2.947418	0.499306	0.000029
 766	7.6118e+01	7.6060	3.264851	0.000209	2.087755	0.353675	0.000021
 767	7.6217e+01	7.6175	3.296623	0.000319	3.193036	0.540915	0.000032
 768	7.6317e+01	7.6258	3.321471	0.000250	2.497118	0.423023	0.000025
 769	7.6416e+01	7.6318	3.351207	0.000299	2.988355	0.506241	0.000030
 770	7.6516e+01	7.6482	3.376870	0.000258	2.578991	0.436893	0.000026
 771	7.6615e+01	7.6600	3.404976	0.000282	2.824609	0.478502	0.000028
 772	7.6715e+01	7.6650	3.432268	0.000274	2.742736	0.464632	0.000027
 773	7.6814e+01	7.6795	3.459153	0.000270	2.701800	0.457697	0.000027
 774	7.6913e+01	7.6844	3.485223	0.000262	2.619927	0.443828	0.000026
 775	7.7013e+01	7.6964	3.514959	0.000299	2.988355	0.506241	0.000030
 776	7.7112e+01	7.7066	3.539807	0.000250	2.497118	0.423023	0.000025
 777	7.7212e+01	7.7155	3.570357	0.000307	3.070227	0.520111	0.000031
 778	7.7311e+01	7.7271	3.592761	0.000225	2.251500	0.381414	0.000023
 779	7.7411e+01	7.7381	3.626978	0.000344	3.438655	0.582524	0.000034
 780	7.7510e+01	7.7470	3.655899	0.000291	2.906482	0.492371	0.000029
 781	7.7610e+01	7.7552	3.681969	0.000262	2.619927	0.443828	0.000026
 782	7.7710e+01	7.7673	3.711705	0.000299	2.988355	0.506241	0.000030
 783	7.7809e+01	7.7769	3.736146	0.000246	2.456182	0.416088	0.000025
 784	7.7909e+01	7.7845	3.767104	0.000311	3.111164	0.527045	0.000031
 785	7.8008e+01	7.7974	3.792766	0.000258	2.578991	0.436893	0.000026
 786	7.8108e+01	7.8076	3.822910	0.000303	3.029291	0.513176	0.000030
 787	7.8207e+01	7.8155	3.854275	0.000315	3.152100	0.533980	0.000032
 788	7.8306e+01	7.8262	3.883197	0.000291	2.906482	0.492371	0.000029
 789	7.8406e+01	7.8355	3.913340	0.000303	3.029291	0.513176	0.000030
 790	7.8505e+01	7.8448	3.943891	0.000307	3.070227	0.520111	0.000031
 791	7.8605e+01	7.8575	3.971590	0.000278	2.783673	0.471567	0.000028
 792	7.8704e+01	7.8645	4.003770	0.000323	3.233973	0.547850	0.000032
 793	7.8804e+01	7.8747	4.031062	0.000274	2.742736	0.464632	0.000027
 794	7.8903e+01	7.8844	4.062020	0.000311	3.111164	0.527045	0.000031
 795	7.9003e+01	7.8942	4.090127	0.000282	2.824609	0.478502	0.000028
 796	7.9103e+01	7.9063	4.121899	0.000319	3.193036	0.540915	0.000032
 797	7.9202e+01	7.9164	4.151228	0.000295	2.947418	0.499306	0.000029
 798	7.9302e+01	7.9276	4.178927	0.000278	2.783673	0.471567	0.000028
 799	7.9401e+01	7.9356	4.208663	0.000299	2.988355	0.506241	0.000030
 800	7.9501e+01	7.9438	4.237177	0.000287	2.865546	0.485437	0.000029
 801	7.9600e+01	7.9575	4.264877	0.000278	2.783673	0.471567	0.000028
 802	7.9700e+01	7.9643	4.290946	0.000262	2.619927	0.443828	0.000026
 803	7.9799e+01	7.9741	4.319053	0.000282	2.824609	0.478502	0.000028
 804	7.9898e+01	7.9845	4.352863	0.000340	3.397718	0.575589	0.000034
 805	7.9998e+01	7.9946	4.380969	0.000282	2.824609	0.478502	0.000028
 806	8.0097e+01	8.0064	4.413964	0.000332	3.315846	0.561719	0.000033
 807	8.0197e+01	8.0140	4.443293	0.000295	2.947418	0.499306	0.000029
 808	8.0296e+01	8.0246	4.475065	0.000319	3.193036	0.540915	0.000032
 809	8.0396e+01	8.0331	4.505616	0.000307	3.070227	0.520111	0.000031
 810	8.0496e+01	8.0433	4.537389	0.000319	3.193036	0.540915	0.000032
 811	8.0595e+01	8.0532	4.572420	0.000352	3.520527	0.596393	0.000035
 812	8.0695e+01	8.0640	4.600527	0.000282	2.824609	0.478502	0.000028
 813	8.0794e+01	8.0762	4.631077	0.000307	3.070227	0.520111	0.000031
 814	8.0894e+01	8.0824	4.665294	0.000344	3.438655	0.582524	0.000034
 815	8.0993e+01	8.0951	4.694623	0.000295	2.947418	0.499306	0.000029
 816	8.1093e+01	8.1039	4.729247	0.000348	3.479591	0.589459	0.000035
 817	8.1192e+01	8.1152	4.759390	0.000303	3.029291	0.513176	0.000030
 818	8.1291e+01	8.1239	4.789534	0.000303	3.029291	0.513176	0.000030
 819	8.1391e+01	8.1358	4.824158	0.000348	3.479591	0.589459	0.000035
 820	8.1490e+01	8.1445	4.853894	0.000299	2.988355	0.506241	0.000030
 821	8.1590e+01	8.1552	4.891777	0.000381	3.807082	0.644937	0.000038
 822	8.1689e+01	8.1648	4.923549	0.000319	3.193036	0.540915	0.000032
 823	8.1789e+01	8.1753	4.961840	0.000385	3.848018	0.651872	0.000038
 824	8.1888e+01	8.1858	4.992390	0.000307	3.070227	0.520111	0.000031
 825	8.1988e+01	8.1940	5.026607	0.000344	3.438655	0.582524	0.000034
 826	8.2088e+01	8.2033	5.055936	0.000295	2.947418	0.499306	0.000029
 827	8.2187e+01	8.2171	5.092189	0.000364	3.643336	0.617198	0.000036
 828	8.2287e+01	8.2254	5.124369	0.000323	3.233973	0.547850	0.000032
 829	8.2386e+01	8.2349	5.155735	0.000315	3.152100	0.533980	0.000032
 830	8.2486e+01	8.2440	5.190359	0.000348	3.479591	0.589459	0.000035
 831	8.2585e+01	8.2541	5.220909	0.000307	3.070227	0.520111	0.000031
 832	8.2684e+01	8.2632	5.255126	0.000344	3.438655	0.582524	0.000034
 833	8.2784e+01	8.2727	5.288121	0.000332	3.315846	0.561719	0.000033
 834	8.2883e+01	8.2828	5.320301	0.000323	3.233973	0.547850	0.000032
 835	8.2983e+01	8.2954	5.352074	0.000319	3.193036	0.540915	0.000032
 836	8.3082e+01	8.3013	5.383847	0.000319	3.193036	0.540915	0.000032
 837	8.3182e+01	8.3121	5.412768	0.000291	2.906482	0.492371	0.000029
 838	8.3281e+01	8.3208	5.440467	0.000278	2.783673	0.471567	0.000028
 839	8.3381e+01	8.3338	5.474684	0.000344	3.438655	0.582524	0.000034
 840	8.3481e+01	8.3456	5.504013	0.000295	2.947418	0.499306	0.000029
 841	8.3580e+01	8.3553	5.534563	0.000307	3.070227	0.520111	0.000031
 842	8.3680e+01	8.3620	5.567151	0.000327	3.274909	0.554785	0.000033
 843	8.3779e+01	8.3729	5.596479	0.000295	2.947418	0.499306	0.000029
 844	8.3879e+01	8.3818	5.626623	0.000303	3.029291	0.513176	0.000030
 845	8.3978e+01	8.3921	5.659210	0.000327	3.274909	0.554785	0.000033
 846	8.4078e+01	8.4045	5.688539	0.000295	2.947418	0.499306	0.000029
 847	8.4177e+01	8.4132	5.720311	0.000319	3.193036	0.540915	0.000032
 848	8.4276e+01	8.4220	5.753306	0.000332	3.315846	0.561719	0.000033
 849	8.4376e+01	8.4317	5.781820	0.000287	2.865546	0.485437	0.000029
 850	8.4475e+01	8.4404	5.810334	0.000287	2.865546	0.485437	0.000029
 851	8.4575e+01	8.4510	5.843736	0.000336	3.356782	0.568654	0.000034
 852	8.4674e+01	8.4634	5.867362	0.000237	2.374309	0.402219	0.000024
 853	8.4774e+01	8.4757	5.897098	0.000299	2.988355	0.506241	0.000030
 854	8.4874e+01	8.4835	5.930093	0.000332	3.315846	0.561719	0.000033
 855	8.4973e+01	8.4961	5.955755	0.000258	2.578991	0.436893	0.000026
 856	8.5073e+01	8.5034	5.989158	0.000336	3.356782	0.568654	0.000034
 857	8.5172e+01	8.5178	6.019301	0.000303	3.029291	0.513176	0.000030
 858	8.5272e+01	8.5265	6.048222	0.000291	2.906482	0.492371	0.000029
 859	8.5371e+01	8.5323	6.076329	0.000282	2.824609	0.478502	0.000028
 860	8.5471e+01	8.5437	6.104843	0.000287	2.865546	0.485437	0.000029
 861	8.5570e+01	8.5515	6.140282	0.000356	3.561464	0.603328	0.000036
 862	8.5669e+01	8.5620	6.169610	0.000295	2.947418	0.499306	0.000029
 863	8.5769e+01	8.5740	6.197717	0.000282	2.824609	0.478502	0.000028
 864	8.5868e+01	8.5827	6.229082	0.000315	3.152100	0.533980	0.000032
 865	8.5968e+01	8.5931	6.260040	0.000311	3.111164	0.527045	0.000031
 866	8.6067e+01	8.6040	6.292220	0.000323	3.233973	0.547850	0.000032
 867	8.6167e+01	8.6118	6.319920	0.000278	2.783673	0.471567	0.000028
 868	8.6266e+01	8.6221	6.354544	0.000348	3.479591	0.589459	0.000035
 869	8.6366e+01	8.6304	6.381428	0.000270	2.701800	0.457697	0.000027
 870	8.6466e+01	8.6427	6.411164	0.000299	2.988355	0.506241	0.000030
 871	8.6565e+01	8.6517	6.447418	0.000364	3.643336	0.617198	0.000036
 872	8.6665e+01	8.6640	6.477154	0.000299	2.988355	0.506241	0.000030
 873	8.6764e+01	8.6716	6.510556	0.000336	3.356782	0.568654	0.000034
 874	8.6864e+01	8.6823	6.539070	0.000287	2.865546	0.485437	0.000029
 875	8.6963e+01	8.6938	6.571657	0.000327	3.274909	0.554785	0.000033
 876	8.7063e+01	8.7027	6.601393	0.000299	2.988355	0.506241	0.000030
 877	8.7162e+01	8.7122	6.638054	0.000368	3.684273	0.624133	0.000037
 878	8.7261e+01	8.7180	6.667790	0.000299	2.988355	0.506241	0.000030
 879	8.7361e+01	8.7335	6.697526	0.000299	2.988355	0.506241	0.000030
 880	8.7460e+01	8.7393	6.732558	0.000352	3.520527	0.596393	0.000035
 881	8.7560e+01	8.7529	6.764330	0.000319	3.193036	0.540915	0.000032
 882	8.7659e+01	8.7598	6.792437	0.000282	2.824609	0.478502	0.000028
 883	8.7759e+01	8.7724	6.820544	0.000282	2.824609	0.478502	0.000028
 884	8.7859e+01	8.7814	6.853538	0.000332	3.315846	0.561719	0.000033
 885	8.7958e+01	8.7912	6.882460	0.000291	2.906482	0.492371	0.000029
 886	8.8058e+01	8.8026	6.916269	0.000340	3.397718	0.575589	0.000034
 887	8.8157e+01	8.8112	6.941117	0.000250	2.497118	0.423023	0.000025
 888	8.8257e+01	8.8227	6.976149	0.000352	3.520527	0.596393	0.000035
 889	8.8356e+01	8.8306	7.005885	0.000299	2.988355	0.506241	0.000030
 890	8.8456e+01	8.8422	7.034806	0.000291	2.906482	0.492371	0.000029
 891	8.8555e+01	8.8495	7.069023	0.000344	3.438655	0.582524	0.000034
 892	8.8654e+01	8.8634	7.096315	0.000274	2.742736	0.464632	0.000027
 893	8.8754e+01	8.8685	7.122385	0.000262	2.619927	0.443828	0.000026
 894	8.8853e+01	8.8773	7.155379	0.000332	3.315846	0.561719	0.000033
 895	8.8953e+01	8.8889	7.186745	0.000315	3.152100	0.533980	0.000032
 896	8.9052e+01	8.8992	7.214037	0.000274	2.742736	0.464632	0.000027
 897	8.9152e+01	8.9103	7.245402	0.000315	3.152100	0.533980	0.000032
 898	8.9251e+01	8.9193	7.278397	0.000332	3.315846	0.561719	0.000033
 899	8.9351e+01	8.9321	7.305689	0.000274	2.742736	0.464632	0.000027
 900	8.9451e+01	8.9417	7.336647	0.000311	3.111164	0.527045	0.000031
 901	8.9550e+01	8.9504	7.365568	0.000291	2.906482	0.492371	0.000029
 902	8.9650e+01	8.9605	7.401007	0.000356	3.561464	0.603328	0.000036
 903	8.9749e+01	8.9685	7.431150	0.000303	3.029291	0.513176	0.000030
 904	8.9849e+01	8.9803	7.460886	0.000299	2.988355	0.506241	0.000030
 905	8.9948e+01	8.9893	7.491844	0.000311	3.111164	0.527045	0.000031
 906	9.0047e+01	9.0007	7.522395	0.000307	3.070227	0.520111	0.000031
 907	9.0147e+01	9.0121	7.553760	0.000315	3.152100	0.533980	0.000032
 908	9.0246e+01	9.0192	7.581052	0.000274	2.742736	0.464632	0.000027
 909	9.0346e+01	9.0318	7.617306	0.000364	3.643336	0.617198	0.000036
 910	9.0445e+01	9.0406	7.651930	0.000348	3.479591	0.589459	0.000035
 911	9.0545e+01	9.0533	7.690627	0.000389	3.888955	0.658807	0.000039
 912	9.0644e+01	9.0616	7.725659	0.000352	3.520527	0.596393	0.000035
 913	9.0744e+01	9.0688	7.757432	0.000319	3.193036	0.540915	0.000032
 914	9.0844e+01	9.0799	7.794500	0.000373	3.725209	0.631068	0.000037
 915	9.0943e+01	9.0918	7.826272	0.000319	3.193036	0.540915	0.000032
 916	9.1043e+01	9.1000	7.864563	0.000385	3.848018	0.651872	0.000038
 917	9.1142e+01	9.1089	7.900409	0.000360	3.602400	0.610263	0.000036
 918	9.1242e+01	9.1169	7.936662	0.000364	3.643336	0.617198	0.000036
 919	9.1341e+01	9.1312	7.973730	0.000373	3.725209	0.631068	0.000037
 920	9.1441e+01	9.1383	8.011206	0.000377	3.766146	0.638002	0.000038
 921	9.1540e+01	9.1462	8.049089	0.000381	3.807082	0.644937	0.000038
 922	9.1639e+01	9.1563	8.086157	0.000373	3.725209	0.631068	0.000037
 923	9.1739e+01	9.1702	8.125262	0.000393	3.929891	0.665742	0.000039
 924	9.1838e+01	9.1776	8.168033	0.000430	4.298318	0.728155	0.000043
 925	9.1938e+01	9.1870	8.205916	0.000381	3.807082	0.644937	0.000038
 926	9.2037e+01	9.1987	8.247057	0.000413	4.134573	0.700416	0.000041
 927	9.2137e+01	9.2102	8.284940	0.000381	3.807082	0.644937	0.000038
 928	9.2237e+01	9.2166	8.328526	0.000438	4.380191	0.742024	0.000044
 929	9.2336e+01	9.2285	8.368853	0.000405	4.052700	0.686546	0.000041
 930	9.2436e+01	9.2410	8.412438	0.000438	4.380191	0.742024	0.000044
 931	9.2535e+01	9.2506	8.453987	0.000418	4.175509	0.707350	0.000042
 932	9.2635e+01	9.2578	8.495536	0.000418	4.175509	0.707350	0.000042
 933	9.2734e+01	9.2677	8.540344	0.000450	4.503000	0.762829	0.000045
 934	9.2834e+01	9.2783	8.581078	0.000409	4.093636	0.693481	0.000041
 935	9.2933e+01	9.2887	8.623034	0.000422	4.216446	0.714285	0.000042
 936	9.3032e+01	9.2990	8.664176	0.000413	4.134573	0.700416	0.000041
 937	9.3132e+01	9.3099	8.710613	0.000467	4.666746	0.790568	0.000047
 938	9.3231e+01	9.3192	8.753791	0.000434	4.339255	0.735090	0.000043
 939	9.3331e+01	9.3266	8.805931	0.000524	5.239855	0.887655	0.000052
 940	9.3430e+01	9.3396	8.853183	0.000475	4.748618	0.804438	0.000047
 941	9.3530e+01	9.3472	8.899213	0.000463	4.625809	0.783633	0.000046
 942	9.3629e+01	9.3572	8.941984	0.000430	4.298318	0.728155	0.000043
 943	9.3729e+01	9.3665	8.989643	0.000479	4.789555	0.811373	0.000048
 944	9.3829e+01	9.3766	9.036487	0.000471	4.707682	0.797503	0.000047
 945	9.3928e+01	9.3882	9.082924	0.000467	4.666746	0.790568	0.000047
 946	9.4028e+01	9.3994	9.128547	0.000458	4.584873	0.776698	0.000046
 947	9.4127e+01	9.4078	9.172540	0.000442	4.421127	0.748959	0.000044
 948	9.4227e+01	9.4181	9.221013	0.000487	4.871427	0.825242	0.000049
 949	9.4326e+01	9.4267	9.269894	0.000491	4.912364	0.832177	0.000049
 950	9.4425e+01	9.4376	9.316739	0.000471	4.707682	0.797503	0.000047
 951	9.4525e+01	9.4464	9.365620	0.000491	4.912364	0.832177	0.000049
 952	9.4624e+01	9.4566	9.409206	0.000438	4.380191	0.742024	0.000044
 953	9.4724e+01	9.4656	9.455235	0.000463	4.625809	0.783633	0.000046
 954	9.4823e+01	9.4782	9.499228	0.000442	4.421127	0.748959	0.000044
 955	9.4923e+01	9.4873	9.546480	0.000475	4.748618	0.804438	0.000047
 956	9.5022e+01	9.4982	9.595768	0.000495	4.953300	0.839112	0.000050
 957	9.5122e+01	9.5081	9.643835	0.000483	4.830491	0.818307	0.000048
 958	9.5222e+01	9.5166	9.694345	0.000508	5.076109	0.859916	0.000051
 959	9.5321e+01	9.5300	9.741190	0.000471	4.707682	0.797503	0.000047
 960	9.5421e+01	9.5364	9.788849	0.000479	4.789555	0.811373	0.000048
 961	9.5520e+01	9.5461	9.836508	0.000479	4.789555	0.811373	0.000048
 962	9.5620e+01	9.5539	9.888648	0.000524	5.239855	0.887655	0.000052
 963	9.5719e+01	9.5684	9.939566	0.000512	5.117046	0.866851	0.000051
 964	9.5819e+01	9.5759	9.988854	0.000495	4.953300	0.839112	0.000050
 965	9.5918e+01	9.5886	10.042216	0.000536	5.362664	0.908460	0.000054
 966	9.6017e+01	9.5960	10.093948	0.000520	5.198918	0.880721	0.000052
 967	9.6117e+01	9.6033	10.145681	0.000520	5.198918	0.880721	0.000052
 968	9.6216e+01	9.6169	10.191711	0.000463	4.625809	0.783633	0.000046
 969	9.6316e+01	9.6240	10.240184	0.000487	4.871427	0.825242	0.000049
 970	9.6415e+01	9.6352	10.288658	0.000487	4.871427	0.825242	0.000049
 971	9.6515e+01	9.6490	10.348130	0.000598	5.976709	1.012482	0.000060
 972	9.6615e+01	9.6594	10.395382	0.000475	4.748618	0.804438	0.000047
 973	9.6714e+01	9.6659	10.445485	0.000504	5.035173	0.852981	0.000050
 974	9.6814e+01	9.6767	10.501291	0.000561	5.608282	0.950069	0.000056
 975	9.6913e+01	9.6857	10.550172	0.000491	4.912364	0.832177	0.000049
 976	9.7013e+01	9.6958	10.603534	0.000536	5.362664	0.908460	0.000054
 977	9.7112e+01	9.7071	10.656488	0.000532	5.321727	0.901525	0.000053
 978	9.7212e+01	9.7144	10.712702	0.000565	5.649218	0.957003	0.000056
 979	9.7311e+01	9.7268	10.771766	0.000594	5.935773	1.005547	0.000059
 980	9.7410e+01	9.7363	10.826758	0.000553	5.526409	0.936199	0.000055
 981	9.7510e+01	9.7463	10.885415	0.000589	5.894837	0.998612	0.000059
 982	9.7609e+01	9.7540	10.937148	0.000520	5.198918	0.880721	0.000052
 983	9.7709e+01	9.7660	10.993768	0.000569	5.690155	0.963938	0.000057
 984	9.7808e+01	9.7754	11.047945	0.000544	5.444537	0.922329	0.000054
 985	9.7908e+01	9.7834	11.104158	0.000565	5.649218	0.957003	0.000056
 986	9.8007e+01	9.7964	11.159557	0.000557	5.567346	0.943134	0.000056
 987	9.8107e+01	9.8057	11.221880	0.000626	6.263264	1.061026	0.000063
 988	9.8207e+01	9.8159	11.279315	0.000577	5.772027	0.977808	0.000058
 989	9.8306e+01	9.8254	11.341231	0.000622	6.222327	1.054091	0.000062
 990	9.8406e+01	9.8377	11.401518	0.000606	6.058582	1.026352	0.000061
 991	9.8505e+01	9.8425	11.462619	0.000614	6.140455	1.040221	0.000061
 992	9.8605e+01	9.8547	11.523721	0.000614	6.140455	1.040221	0.000061
 993	9.8704e+01	9.8615	11.586452	0.000630	6.304200	1.067960	0.000063
 994	9.8803e+01	9.8744	11.647960	0.000618	6.181391	1.047156	0.000062
 995	9.8903e+01	9.8889	11.714357	0.000667	6.672627	1.130374	0.000067
 996	9.9002e+01	9.8944	11.776681	0.000626	6.263264	1.061026	0.000063
 997	9.9102e+01	9.9043	11.844299	0.000680	6.795437	1.151178	0.000068
 998	9.9201e+01	9.9171	11.910696	0.000667	6.672627	1.130374	0.000067
 999	9.9301e+01	9.9268	11.977908	0.000675	6.754500	1.144243	0.000068
1000	9.9400e+01	9.9335	12.046341	0.000688	6.877309	1.165048	0.000069
1001	9.9500e+01	9.9424	12.113553	0.000675	6.754500	1.144243	0.000068
1002	9.9600e+01	9.9536	12.183208	0.000700	7.000118	1.185852	0.000070
1003	9.9699e+01	9.9624	12.246346	0.000635	6.345137	1.074895	0.000063
1004	9.9799e+01	9.9744	12.311929	0.000659	6.590755	1.116504	0.000066
1005	9.9898e+01	9.9864	12.378325	0.000667	6.672627	1.130374	0.000067
1006	9.9998e+01	9.9976	12.449610	0.000716	7.163864	1.213591	0.000072
1007	1.0010e+02	9.9854	12.485864	-0.000364	-3.643336	-0.617198	0.000036
1008	1.0020e+02	9.9773	12.527005	-0.000413	-4.134573	-0.700416	0.000041
1009	1.0030e+02	9.9668	12.565703	-0.000389	-3.888955	-0.658807	0.000039
1010	1.0040e+02	9.9574	12.608067	-0.000426	-4.257382	-0.721220	0.000043
1011	1.0050e+02	9.9451	12.647579	-0.000397	-3.970827	-0.672676	0.000040
1012	1.0059e+02	9.9347	12.687906	-0.000405	-4.052700	-0.686546	0.000041
1013	1.0069e+02	9.9261	12.724159	-0.000364	-3.643336	-0.617198	0.000036
1014	1.0079e+02	9.9152	12.757154	-0.000332	-3.315846	-0.561719	0.000033
1015	1.0089e+02	9.9058	12.797481	-0.000405	-4.052700	-0.686546	0.000041
1016	1.0099e+02	9.8956	12.830476	-0.000332	-3.315846	-0.561719	0.000033
1017	1.0109e+02	9.8840	12.864285	-0.000340	-3.397718	-0.575589	0.000034
1018	1.0119e+02	9.8739	12.897280	-0.000332	-3.315846	-0.561719	0.000033
1019	1.0129e+02	9.8633	12.929460	-0.000323	-3.233973	-0.547850	0.000032
1020	1.0139e+02	9.8547	12.961233	-0.000319	-3.193036	-0.540915	0.000032
1021	1.0149e+02	9.8444	12.995042	-0.000340	-3.397718	-0.575589	0.000034
1022	1.0159e+02	9.8316	13.022334	-0.000274	-2.742736	-0.464632	0.000027
1023	1.0169e+02	9.8257	13.049626	-0.000274	-2.742736	-0.464632	0.000027
1024	1.0179e+02	9.8145	13.081806	-0.000323	-3.233973	-0.547850	0.000032
1025	1.0189e+02	9.8057	13.104617	-0.000229	-2.292436	-0.388349	0.000023
1026	1.0199e+02	9.7944	13.129465	-0.000250	-2.497118	-0.423023	0.000025
1027	1.0209e+02	9.7867	13.156757	-0.000274	-2.742736	-0.464632	0.000027
1028	1.0219e+02	9.7769	13.182827	-0.000262	-2.619927	-0.443828	0.000026
1029	1.0229e+02	9.7656	13.204416	-0.000217	-2.169627	-0.367545	0.000022
1030	1.0239e+02	9.7534	13.227227	-0.000229	-2.292436	-0.388349	0.000023
1031	1.0248e+02	9.7437	13.250446	-0.000233	-2.333373	-0.395284	0.000023
1032	1.0258e+02	9.7351	13.272850	-0.000225	-2.251500	-0.381414	0.000023
1033	1.0268e+02	9.7270	13.297290	-0.000246	-2.456182	-0.416088	0.000025
1034	1.0278e+02	9.7171	13.322545	-0.000254	-2.538055	-0.429958	0.000025
1035	1.0288e+02	9.7053	13.343320	-0.000209	-2.087755	-0.353675	0.000021
1036	1.0298e+02	9.6992	13.367353	-0.000242	-2.415246	-0.409154	0.000024
1037	1.0308e+02	9.6887	13.388128	-0.000209	-2.087755	-0.353675	0.000021
1038	1.0318e+02	9.6754	13.415012	-0.000270	-2.701800	-0.457697	0.000027
1039	1.0328e+02	9.6684	13.438231	-0.000233	-2.333373	-0.395284	0.000023
1040	1.0338e+02	9.6560	13.462264	-0.000242	-2.415246	-0.409154	0.000024
1041	1.0348e+02	9.6436	13.485483	-0.000233	-2.333373	-0.395284	0.000023
1042	1.0358e+02	9.6366	13.505442	-0.000201	-2.005882	-0.339806	0.000020
1043	1.0368e+02	9.6268	13.526217	-0.000209	-2.087755	-0.353675	0.000021
1044	1.0378e+02	9.6143	13.546584	-0.000205	-2.046818	-0.346740	0.000020
1045	1.0388e+02	9.6061	13.561248	-0.000147	-1.473709	-0.249653	0.000015
1046	1.0398e+02	9.5933	13.580393	-0.000192	-1.924009	-0.325936	0.000019
1047	1.0408e+02	9.5856	13.602797	-0.000225	-2.251500	-0.381414	0.000023
1048	1.0418e+02	9.5752	13.617054	-0.000143	-1.432773	-0.242718	0.000014
1049	1.0428e+02	9.5658	13.632126	-0.000151	-1.514645	-0.256588	0.000015
1050	1.0438e+02	9.5569	13.647605	-0.000156	-1.555582	-0.263523	0.000016
1051	1.0447e+02	9.5452	13.666343	-0.000188	-1.883073	-0.319001	0.000019
1052	1.0457e+02	9.5364	13.683044	-0.000168	-1.678391	-0.284327	0.000017
1053	1.0467e+02	9.5254	13.701374	-0.000184	-1.842136	-0.312066	0.000018
1054	1.0477e+02	9.5181	13.718482	-0.000172	-1.719327	-0.291262	0.000017
1055	1.0487e+02	9.5059	13.734369	-0.000160	-1.596518	-0.270458	0.000016
1056	1.0497e+02	9.4930	13.746996	-0.000127	-1.269027	-0.214979	0.000013
1057	1.0507e+02	9.4873	13.761253	-0.000143	-1.432773	-0.242718	0.000014
1058	1.0517e+02	9.4762	13.774288	-0.000131	-1.309964	-0.221914	0.000013
1059	1.0527e+02	9.4668	13.781621	-0.000074	-0.736855	-0.124827	0.000007
1060	1.0537e+02	9.4566	13.795878	-0.000143	-1.432773	-0.242718	0.000014
1061	1.0547e+02	9.4461	13.801988	-0.000061	-0.614045	-0.104022	0.000006
1062	1.0557e+02	9.4357	13.815430	-0.000135	-1.350900	-0.228849	0.000014
1063	1.0567e+02	9.4259	13.825614	-0.000102	-1.023409	-0.173370	0.000010
1064	1.0577e+02	9.4153	13.837426	-0.000119	-1.187155	-0.201109	0.000012
1065	1.0587e+02	9.4073	13.854942	-0.000176	-1.760264	-0.298197	0.000018
1066	1.0597e+02	9.3982	13.857386	-0.000025	-0.245618	-0.041609	0.000002
1067	1.0607e+02	9.3885	13.864311	-0.000070	-0.695918	-0.117892	0.000007
1068	1.0617e+02	9.3803	13.874495	-0.000102	-1.023409	-0.173370	0.000010
1069	1.0627e+02	9.3660	13.879790	-0.000053	-0.532173	-0.090153	0.000005
1070	1.0637e+02	9.3557	13.885900	-0.000061	-0.614045	-0.104022	0.000006
1071	1.0647e+02	9.3484	13.889974	-0.000041	-0.409364	-0.069348	0.000004
1072	1.0656e+02	9.3375	13.895269	-0.000053	-0.532173	-0.090153	0.000005
1073	1.0666e+02	9.3272	13.896898	-0.000016	-0.163745	-0.027739	0.000002
1074	1.0676e+02	9.3185	13.900972	-0.000041	-0.409364	-0.069348	0.000004
1075	1.0686e+02	9.3119	13.903416	-0.000025	-0.245618	-0.041609	0.000002
1076	1.0696e+02	9.3003	13.907082	-0.000037	-0.368427	-0.062413	0.000004
1077	1.0706e+02	9.2871	13.908304	-0.000012	-0.122809	-0.020804	0.000001
1078	1.0716e+02	9.2786	13.916858	-0.000086	-0.859664	-0.145631	0.000009
1079	1.0726e+02	9.2696	13.920524	-0.000037	-0.368427	-0.062413	0.000004
1080	1.0736e+02	9.2585	13.919710	0.000008	0.081873	0.013870	-0.000001
1081	1.0746e+02	9.2462	13.921339	-0.000016	-0.163745	-0.027739	0.000002
1082	1.0756e+02	9.2385	13.924190	-0.000029	-0.286555	-0.048544	0.000003
1083	1.0766e+02	9.2292	13.926634	-0.000025	-0.245618	-0.041609	0.000002
1084	1.0776e+02	9.2170	13.930708	-0.000041	-0.409364	-0.069348	0.000004
1085	1.0786e+02	9.2100	13.934374	-0.000037	-0.368427	-0.062413	0.000004
1086	1.0796e+02	9.1985	13.933152	0.000012	0.122809	0.020804	-0.000001
1087	1.0806e+02	9.1875	13.937633	-0.000045	-0.450300	-0.076283	0.000005
1088	1.0816e+02	9.1785	13.936411	0.000012	0.122809	0.020804	-0.000001
1089	1.0826e+02	9.1688	13.938855	-0.000025	-0.245618	-0.041609	0.000002
1090	1.0836e+02	9.1579	13.940077	-0.000012	-0.122809	-0.020804	0.000001
1091	1.0845e+02	9.1464	13.944558	-0.000045	-0.450300	-0.076283	0.000005
1092	1.0855e+02	9.1383	13.942928	0.000016	0.163745	0.027739	-0.000002
1093	1.0865e+02	9.1280	13.943743	-0.000008	-0.081873	-0.013870	0.000001
1094	1.0875e+02	9.1193	13.946187	-0.000025	-0.245618	-0.041609	0.000002
1095	1.0885e+02	9.1092	13.949038	-0.000029	-0.286555	-0.048544	0.000003
1096	1.0895e+02	9.0994	13.950260	-0.000012	-0.122809	-0.020804	0.000001
1097	1.0905e+02	9.0889	13.953926	-0.000037	-0.368427	-0.062413	0.000004
1098	1.0915e+02	9.0784	13.949853	0.000041	0.409364	0.069348	-0.000004
1099	1.0925e+02	9.0701	13.955148	-0.000053	-0.532173	-0.090153	0.000005
1100	1.0935e+02	9.0601	13.953519	0.000016	0.163745	0.027739	-0.000002
1101	1.0945e+02	9.0482	13.957185	-0.000037	-0.368427	-0.062413	0.000004
1102	1.0955e+02	9.0369	13.958407	-0.000012	-0.122809	-0.020804	0.000001
1103	1.0965e+02	9.0311	13.960444	-0.000020	-0.204682	-0.034674	0.000002
1104	1.0975e+02	9.0179	13.957593	0.000029	0.286555	0.048544	-0.000003
1105	1.0985e+02	9.0112	13.962481	-0.000049	-0.491236	-0.083218	0.000005
1106	1.0995e+02	8.9990	13.966961	-0.000045	-0.450300	-0.076283	0.000005
1107	1.1005e+02	8.9918	13.966147	0.000008	0.081873	0.013870	-0.000001
1108	1.1015e+02	8.9797	13.968183	-0.000020	-0.204682	-0.034674	0.000002
1109	1.1025e+02	8.9697	13.968998	-0.000008	-0.081873	-0.013870	0.000001
1110	1.1035e+02	8.9594	13.970220	-0.000012	-0.122809	-0.020804	0.000001
1111	1.1044e+02	8.9514	13.970220	-0.000000	-0.000000	-0.000000	0.000000
1112	1.1054e+02	8.9420	13.974701	-0.000045	-0.450300	-0.076283	0.000005
1113	1.1064e+02	8.9307	13.973072	0.000016	0.163745	0.027739	-0.000002
1114	1.1074e+02	8.9193	13.970627	0.000025	0.245618	0.041609	-0.000002
1115	1.1084e+02	8.9099	13.977145	-0.000065	-0.654982	-0.110957	0.000007
1116	1.1094e+02	8.9005	13.975516	0.000016	0.163745	0.027739	-0.000002
1117	1.1104e+02	8.8952	13.971850	0.000037	0.368427	0.062413	-0.000004
1118	1.1114e+02	8.8829	13.973886	-0.000020	-0.204682	-0.034674	0.000002
1119	1.1124e+02	8.8705	13.973886	-0.000000	-0.000000	-0.000000	0.000000
1120	1.1134e+02	8.8601	13.975108	-0.000012	-0.122809	-0.020804	0.000001
1121	1.1144e+02	8.8498	13.975108	-0.000000	-0.000000	-0.000000	0.000000
1122	1.1154e+02	8.8388	13.975923	-0.000008	-0.081873	-0.013870	0.000001
1123	1.1164e+02	8.8293	13.974701	0.000012	0.122809	0.020804	-0.000001
1124	1.1174e+02	8.8224	13.970627	0.000041	0.409364	0.069348	-0.000004
1125	1.1184e+02	8.8074	13.971442	-0.000008	-0.081873	-0.013870	0.000001
1126	1.1194e+02	8.8023	13.969405	0.000020	0.204682	0.034674	-0.000002
1127	1.1204e+02	8.7906	13.970220	-0.000008	-0.081873	-0.013870	0.000001
1128	1.1214e+02	8.7819	13.965739	0.000045	0.450300	0.076283	-0.000005
1129	1.1224e+02	8.7720	13.965332	0.000004	0.040936	0.006935	-0.000000
1130	1.1234e+02	8.7624	13.960444	0.000049	0.491236	0.083218	-0.000005
1131	1.1244e+02	8.7525	13.964110	-0.000037	-0.368427	-0.062413	0.000004
1132	1.1253e+02	8.7408	13.960851	0.000033	0.327491	0.055478	-0.000003
1133	1.1263e+02	8.7342	13.959222	0.000016	0.163745	0.027739	-0.000002
1134	1.1273e+02	8.7212	13.955148	0.000041	0.409364	0.069348	-0.000004
1135	1.1283e+02	8.7128	13.953926	0.000012	0.122809	0.020804	-0.000001
1136	1.1293e+02	8.7038	13.953926	-0.000000	-0.000000	-0.000000	0.000000
1137	1.1303e+02	8.6921	13.951482	0.000025	0.245618	0.041609	-0.000002
1138	1.1313e+02	8.6789	13.945780	0.000057	0.573109	0.097087	-0.000006
1139	1.1323e+02	8.6740	13.943336	0.000025	0.245618	0.041609	-0.000002
1140	1.1333e+02	8.6636	13.942521	0.000008	0.081873	0.013870	-0.000001
1141	1.1343e+02	8.6510	13.936003	0.000065	0.654982	0.110957	-0.000007
1142	1.1353e+02	8.6414	13.936003	-0.000000	-0.000000	-0.000000	0.000000
1143	1.1363e+02	8.6304	13.931523	0.000045	0.450300	0.076283	-0.000005
1144	1.1373e+02	8.6216	13.926634	0.000049	0.491236	0.083218	-0.000005
1145	1.1383e+02	8.6121	13.924598	0.000020	0.204682	0.034674	-0.000002
1146	1.1393e+02	8.6012	13.920932	0.000037	0.368427	0.062413	-0.000004
1147	1.1403e+02	8.5926	13.917266	0.000037	0.368427	0.062413	-0.000004
1148	1.1413e+02	8.5801	13.917266	-0.000000	-0.000000	-0.000000	0.000000
1149	1.1423e+02	8.5713	13.914007	0.000033	0.327491	0.055478	-0.000003
1150	1.1433e+02	8.5632	13.909526	0.000045	0.450300	0.076283	-0.000005
1151	1.1442e+02	8.5516	13.903416	0.000061	0.614045	0.104022	-0.000006
1152	1.1452e+02	8.5453	13.904231	-0.000008	-0.081873	-0.013870	0.000001
1153	1.1462e+02	8.5327	13.898121	0.000061	0.614045	0.104022	-0.000006
1154	1.1472e+02	8.5210	13.894862	0.000033	0.327491	0.055478	-0.000003
1155	1.1482e+02	8.5120	13.889974	0.000049	0.491236	0.083218	-0.000005
1156	1.1492e+02	8.5016	13.890788	-0.000008	-0.081873	-0.013870	0.000001
1157	1.1502e+02	8.4918	13.888752	0.000020	0.204682	0.034674	-0.000002
1158	1.1512e+02	8.4830	13.885900	0.000029	0.286555	0.048544	-0.000003
1159	1.1522e+02	8.4743	13.885493	0.000004	0.040936	0.006935	-0.000000
1160	1.1532e+02	8.4631	13.879383	0.000061	0.614045	0.104022	-0.000006
1161	1.1542e+02	8.4543	13.877753	0.000016	0.163745	0.027739	-0.000002
1162	1.1552e+02	8.4420	13.867977	0.000098	0.982473	0.166435	-0.000010
1163	1.1562e+02	8.4326	13.868792	-0.000008	-0.081873	-0.013870	0.000001
1164	1.1572e+02	8.4216	13.861052	0.000078	0.777791	0.131761	-0.000008
1165	1.1582e+02	8.4165	13.856164	0.000049	0.491236	0.083218	-0.000005
1166	1.1592e+02	8.4036	13.849647	0.000065	0.654982	0.110957	-0.000007
1167	1.1602e+02	8.3964	13.845573	0.000041	0.409364	0.069348	-0.000004
1168	1.1612e+02	8.3817	13.837426	0.000082	0.818727	0.138696	-0.000008
1169	1.1622e+02	8.3719	13.830909	0.000065	0.654982	0.110957	-0.000007
1170	1.1632e+02	8.3646	13.827650	0.000033	0.327491	0.055478	-0.000003
1171	1.1642e+02	8.3549	13.819911	0.000078	0.777791	0.131761	-0.000008
1172	1.1651e+02	8.3447	13.815023	0.000049	0.491236	0.083218	-0.000005
1173	1.1661e+02	8.3338	13.806468	0.000086	0.859664	0.145631	-0.000009
1174	1.1671e+02	8.3221	13.794656	0.000119	1.187155	0.201109	-0.000012
1175	1.1681e+02	8.3176	13.790989	0.000037	0.368427	0.062413	-0.000004
1176	1.1691e+02	8.3035	13.779991	0.000111	1.105282	0.187240	-0.000011
1177	1.1701e+02	8.2951	13.771437	0.000086	0.859664	0.145631	-0.000009
1178	1.1711e+02	8.2825	13.763290	0.000082	0.818727	0.138696	-0.000008
1179	1.1721e+02	8.2752	13.752292	0.000111	1.105282	0.187240	-0.000011
1180	1.1731e+02	8.2632	13.741294	0.000111	1.105282	0.187240	-0.000011
1181	1.1741e+02	8.2495	13.733147	0.000082	0.818727	0.138696	-0.000008
1182	1.1751e+02	8.2435	13.724185	0.000090	0.900600	0.152566	-0.000009
1183	1.1761e+02	8.2348	13.717668	0.000065	0.654982	0.110957	-0.000007
1184	1.1771e+02	8.2253	13.704633	0.000131	1.309964	0.221914	-0.000013
1185	1.1781e+02	8.2143	13.697708	0.000070	0.695918	0.117892	-0.000007
1186	1.1791e+02	8.2023	13.687932	0.000098	0.982473	0.166435	-0.000010
1187	1.1801e+02	8.1982	13.678156	0.000098	0.982473	0.166435	-0.000010
1188	1.1811e+02	8.1832	13.669601	0.000086	0.859664	0.145631	-0.000009
1189	1.1821e+02	8.1730	13.659010	0.000106	1.064345	0.180305	-0.000011
1190	1.1831e+02	8.1625	13.650049	0.000090	0.900600	0.152566	-0.000009
1191	1.1841e+02	8.1554	13.637829	0.000123	1.228091	0.208044	-0.000012
1192	1.1850e+02	8.1435	13.627238	0.000106	1.064345	0.180305	-0.000011
1193	1.1860e+02	8.1348	13.619498	0.000078	0.777791	0.131761	-0.000008
1194	1.1870e+02	8.1250	13.605241	0.000143	1.432773	0.242718	-0.000014
1195	1.1880e+02	8.1170	13.598316	0.000070	0.695918	0.117892	-0.000007
1196	1.1890e+02	8.1034	13.585281	0.000131	1.309964	0.221914	-0.000013
1197	1.1900e+02	8.0939	13.576727	0.000086	0.859664	0.145631	-0.000009
1198	1.1910e+02	8.0860	13.566136	0.000106	1.064345	0.180305	-0.000011
1199	1.1920e+02	8.0722	13.554731	0.000115	1.146218	0.194175	-0.000011
1200	1.1930e+02	8.0689	13.540881	0.000139	1.391836	0.235783	-0.000014
1201	1.1940e+02	8.0544	13.532734	0.000082	0.818727	0.138696	-0.000008
1202	1.1950e+02	8.0463	13.518885	0.000139	1.391836	0.235783	-0.000014
1203	1.1960e+02	8.0360	13.506664	0.000123	1.228091	0.208044	-0.000012
1204	1.1970e+02	8.0228	13.497703	0.000090	0.900600	0.152566	-0.000009
1205	1.1980e+02	8.0170	13.484260	0.000135	1.350900	0.228849	-0.000014
1206	1.1990e+02	8.0093	13.472448	0.000119	1.187155	0.201109	-0.000012
1207	1.2000e+02	7.9968	13.459005	0.000135	1.350900	0.228849	-0.000014
1208	1.2010e+02	7.9836	13.446378	0.000127	1.269027	0.214979	-0.000013
1209	1.2020e+02	7.9742	13.435787	0.000106	1.064345	0.180305	-0.000011
1210	1.2030e+02	7.9645	13.425196	0.000106	1.064345	0.180305	-0.000011
1211	1.2039e+02	7.9562	13.411754	0.000135	1.350900	0.228849	-0.000014
1212	1.2049e+02	7.9461	13.398719	0.000131	1.309964	0.221914	-0.000013
1213	1.2059e+02	7.9374	13.386498	0.000123	1.228091	0.208044	-0.000012
1214	1.2069e+02	7.9280	13.376315	0.000102	1.023409	0.173370	-0.000010
1215	1.2079e+02	7.9136	13.361243	0.000151	1.514645	0.256588	-0.000015
1216	1.2089e+02	7.9050	13.348615	0.000127	1.269027	0.214979	-0.000013
1217	1.2099e+02	7.8955	13.335988	0.000127	1.269027	0.214979	-0.000013
1218	1.2109e+02	7.8835	13.325804	0.000102	1.023409	0.173370	-0.000010
1219	1.2119e+02	7.8776	13.312362	0.000135	1.350900	0.228849	-0.000014
1220	1.2129e+02	7.8654	13.297290	0.000151	1.514645	0.256588	-0.000015
1221	1.2139e+02	7.8559	13.284255	0.000131	1.309964	0.221914	-0.000013
1222	1.2149e+02	7.8453	13.272850	0.000115	1.146218	0.194175	-0.000011
1223	1.2159e+02	7.8370	13.260629	0.000123	1.228091	0.208044	-0.000012
1224	1.2169e+02	7.8248	13.245150	0.000156	1.555582	0.263523	-0.000016
1225	1.2179e+02	7.8146	13.231708	0.000135	1.350900	0.228849	-0.000014
1226	1.2189e+02	7.8057	13.215822	0.000160	1.596518	0.270458	-0.000016
1227	1.2199e+02	7.7967	13.200750	0.000151	1.514645	0.256588	-0.000015
1228	1.2209e+02	7.7862	13.189752	0.000111	1.105282	0.187240	-0.000011
1229	1.2219e+02	7.7779	13.171421	0.000184	1.842136	0.312066	-0.000018
1230	1.2229e+02	7.7660	13.157979	0.000135	1.350900	0.228849	-0.000014
1231	1.2239e+02	7.7561	13.141685	0.000164	1.637455	0.277392	-0.000016
1232	1.2248e+02	7.7466	13.128650	0.000131	1.309964	0.221914	-0.000013
1233	1.2258e+02	7.7384	13.115208	0.000135	1.350900	0.228849	-0.000014
1234	1.2268e+02	7.7268	13.098100	0.000172	1.719327	0.291262	-0.000017
1235	1.2278e+02	7.7145	13.082213	0.000160	1.596518	0.270458	-0.000016
1236	1.2288e+02	7.7061	13.066327	0.000160	1.596518	0.270458	-0.000016
1237	1.2298e+02	7.6956	13.054921	0.000115	1.146218	0.194175	-0.000011
1238	1.2308e+02	7.6883	13.037406	0.000176	1.760264	0.298197	-0.000018
1239	1.2318e+02	7.6789	13.017853	0.000196	1.964946	0.332871	-0.000020
1240	1.2328e+02	7.6688	13.002782	0.000151	1.514645	0.256588	-0.000015
1241	1.2338e+02	7.6582	12.984451	0.000184	1.842136	0.312066	-0.000018
1242	1.2348e+02	7.6461	12.971009	0.000135	1.350900	0.228849	-0.000014
1243	1.2358e+02	7.6366	12.952271	0.000188	1.883073	0.319001	-0.000019
1244	1.2368e+02	7.6283	12.935570	0.000168	1.678391	0.284327	-0.000017
1245	1.2378e+02	7.6183	12.919276	0.000164	1.637455	0.277392	-0.000016
1246	1.2388e+02	7.6092	12.905019	0.000143	1.432773	0.242718	-0.000014
1247	1.2398e+02	7.5957	12.887911	0.000172	1.719327	0.291262	-0.000017
1248	1.2408e+02	7.5876	12.872025	0.000160	1.596518	0.270458	-0.000016
1249	1.2418e+02	7.5737	12.861026	0.000111	1.105282	0.187240	-0.000011
1250	1.2428e+02	7.5671	12.845140	0.000160	1.596518	0.270458	-0.000016
1251	1.2438e+02	7.5590	12.825995	0.000192	1.924009	0.325936	-0.000019
1252	1.2447e+02	7.5484	12.809701	0.000164	1.637455	0.277392	-0.000016
1253	1.2457e+02	7.5389	12.798296	0.000115	1.146218	0.194175	-0.000011
1254	1.2467e+02	7.5265	12.780780	0.000176	1.760264	0.298197	-0.000018
1255	1.2477e+02	7.5193	12.767745	0.000131	1.309964	0.221914	-0.000013
1256	1.2487e+02	7.5089	12.751044	0.000168	1.678391	0.284327	-0.000017
1257	1.2497e+02	7.4986	12.735972	0.000151	1.514645	0.256588	-0.000015
1258	1.2507e+02	7.4858	12.723345	0.000127	1.269027	0.214979	-0.000013
1259	1.2517e+02	7.4769	12.708680	0.000147	1.473709	0.249653	-0.000015
1260	1.2527e+02	7.4658	12.698497	0.000102	1.023409	0.173370	-0.000010
1261	1.2537e+02	7.4566	12.681388	0.000172	1.719327	0.291262	-0.000017
1262	1.2547e+02	7.4493	12.666724	0.000147	1.473709	0.249653	-0.000015
1263	1.2557e+02	7.4391	12.653689	0.000131	1.309964	0.221914	-0.000013
1264	1.2567e+02	7.4268	12.637395	0.000164	1.637455	0.277392	-0.000016
1265	1.2577e+02	7.4178	12.626397	0.000111	1.105282	0.187240	-0.000011
1266	1.2587e+02	7.4076	12.613362	0.000131	1.309964	0.221914	-0.000013
1267	1.2597e+02	7.3981	12.599105	0.000143	1.432773	0.242718	-0.000014
1268	1.2607e+02	7.3882	12.581997	0.000172	1.719327	0.291262	-0.000017
1269	1.2617e+02	7.3757	12.569776	0.000123	1.228091	0.208044	-0.000012
1270	1.2627e+02	7.3700	12.553075	0.000168	1.678391	0.284327	-0.000017
1271	1.2636e+02	7.3579	12.544929	0.000082	0.818727	0.138696	-0.000008
1272	1.2646e+02	7.3475	12.531079	0.000139	1.391836	0.235783	-0.000014
1273	1.2656e+02	7.3372	12.516007	0.000151	1.514645	0.256588	-0.000015
1274	1.2666e+02	7.3295	12.503380	0.000127	1.269027	0.214979	-0.000013
1275	1.2676e+02	7.3168	12.492381	0.000111	1.105282	0.187240	-0.000011
1276	1.2686e+02	7.3096	12.478532	0.000139	1.391836	0.235783	-0.000014
1277	1.2696e+02	7.3006	12.462238	0.000164	1.637455	0.277392	-0.000016
1278	1.2706e+02	7.2883	12.450425	0.000119	1.187155	0.201109	-0.000012
1279	1.2716e+02	7.2796	12.438205	0.000123	1.228091	0.208044	-0.000012
1280	1.2726e+02	7.2720	12.424355	0.000139	1.391836	0.235783	-0.000014
1281	1.2736e+02	7.2612	12.410913	0.000135	1.350900	0.228849	-0.000014
1282	1.2746e+02	7.2485	12.397878	0.000131	1.309964	0.221914	-0.000013
1283	1.2756e+02	7.2355	12.387287	0.000106	1.064345	0.180305	-0.000011
1284	1.2766e+02	7.2291	12.375067	0.000123	1.228091	0.208044	-0.000012
1285	1.2776e+02	7.2217	12.361624	0.000135	1.350900	0.228849	-0.000014
1286	1.2786e+02	7.2095	12.346145	0.000156	1.555582	0.263523	-0.000016
1287	1.2796e+02	7.1990	12.331888	0.000143	1.432773	0.242718	-0.000014
1288	1.2806e+02	7.1902	12.321705	0.000102	1.023409	0.173370	-0.000010
1289	1.2816e+02	7.1797	12.308670	0.000131	1.309964	0.221914	-0.000013
1290	1.2826e+02	7.1696	12.296857	0.000119	1.187155	0.201109	-0.000012
1291	1.2835e+02	7.1584	12.282193	0.000147	1.473709	0.249653	-0.000015
1292	1.2845e+02	7.1505	12.273231	0.000090	0.900600	0.152566	-0.000009
1293	1.2855e+02	7.1381	12.254901	0.000184	1.842136	0.312066	-0.000018
1294	1.2865e+02	7.1278	12.244717	0.000102	1.023409	0.173370	-0.000010
1295	1.2875e+02	7.1204	12.232089	0.000127	1.269027	0.214979	-0.000013
1296	1.2885e+02	7.1077	12.217832	0.000143	1.432773	0.242718	-0.000014
1297	1.2895e+02	7.0996	12.202761	0.000151	1.514645	0.256588	-0.000015
1298	1.2905e+02	7.0878	12.186467	0.000164	1.637455	0.277392	-0.000016
1299	1.2915e+02	7.0802	12.177506	0.000090	0.900600	0.152566	-0.000009
1300	1.2925e+02	7.0687	12.162027	0.000156	1.555582	0.263523	-0.000016
1301	1.2935e+02	7.0592	12.150621	0.000115	1.146218	0.194175	-0.000011
1302	1.2945e+02	7.0500	12.138401	0.000123	1.228091	0.208044	-0.000012
1303	1.2955e+02	7.0388	12.122922	0.000156	1.555582	0.263523	-0.000016
1304	1.2965e+02	7.0297	12.107850	0.000151	1.514645	0.256588	-0.000015
1305	1.2975e+02	7.0208	12.095222	0.000127	1.269027	0.214979	-0.000013
1306	1.2985e+02	7.0094	12.080965	0.000143	1.432773	0.242718	-0.000014
1307	1.2995e+02	7.0007	12.067930	0.000131	1.309964	0.221914	-0.000013
1308	1.3005e+02	6.9875	12.054488	0.000135	1.350900	0.228849	-0.000014
1309	1.3015e+02	6.9775	12.042268	0.000123	1.228091	0.208044	-0.000012
1310	1.3025e+02	6.9695	12.030455	0.000119	1.187155	0.201109	-0.000012
1311	1.3034e+02	6.9598	12.012532	0.000180	1.801200	0.305132	-0.000018
1312	1.3044e+02	6.9494	12.005200	0.000074	0.736855	0.124827	-0.000007
1313	1.3054e+02	6.9389	11.992165	0.000131	1.309964	0.221914	-0.000013
1314	1.3064e+02	6.9306	11.980759	0.000115	1.146218	0.194175	-0.000011
1315	1.3074e+02	6.9227	11.963651	0.000172	1.719327	0.291262	-0.000017
1316	1.3084e+02	6.9104	11.955911	0.000078	0.777791	0.131761	-0.000008
1317	1.3094e+02	6.9021	11.942062	0.000139	1.391836	0.235783	-0.000014
1318	1.3104e+02	6.8900	11.929841	0.000123	1.228091	0.208044	-0.000012
1319	1.3114e+02	6.8810	11.917214	0.000127	1.269027	0.214979	-0.000013
1320	1.3124e+02	6.8722	11.904993	0.000123	1.228091	0.208044	-0.000012
1321	1.3134e+02	6.8575	11.892773	0.000123	1.228091	0.208044	-0.000012
1322	1.3144e+02	6.8520	11.884626	0.000082	0.818727	0.138696	-0.000008
1323	1.3154e+02	6.8423	11.871184	0.000135	1.350900	0.228849	-0.000014
1324	1.3164e+02	6.8301	11.858964	0.000123	1.228091	0.208044	-0.000012
1325	1.3174e+02	6.8227	11.847965	0.000111	1.105282	0.187240	-0.000011
1326	1.3184e+02	6.8115	11.837375	0.000106	1.064345	0.180305	-0.000011
1327	1.3194e+02	6.8014	11.827598	0.000098	0.982473	0.166435	-0.000010
1328	1.3204e+02	6.7926	11.819044	0.000086	0.859664	0.145631	-0.000009
1329	1.3214e+02	6.7823	11.804380	0.000147	1.473709	0.249653	-0.000015
1330	1.3224e+02	6.7699	11.795011	0.000094	0.941536	0.159501	-0.000009
1331	1.3234e+02	6.7614	11.781569	0.000135	1.350900	0.228849	-0.000014
1332	1.3243e+02	6.7522	11.767719	0.000139	1.391836	0.235783	-0.000014
1333	1.3253e+02	6.7432	11.755499	0.000123	1.228091	0.208044	-0.000012
1334	1.3263e+02	6.7324	11.743278	0.000123	1.228091	0.208044	-0.000012
1335	1.3273e+02	6.7202	11.733095	0.000102	1.023409	0.173370	-0.000010
1336	1.3283e+02	6.7103	11.719245	0.000139	1.391836	0.235783	-0.000014
1337	1.3293e+02	6.7033	11.707025	0.000123	1.228091	0.208044	-0.000012
1338	1.3303e+02	6.6912	11.690324	0.000168	1.678391	0.284327	-0.000017
1339	1.3313e+02	6.6799	11.677696	0.000127	1.269027	0.214979	-0.000013
1340	1.3323e+02	6.6727	11.660181	0.000176	1.760264	0.298197	-0.000018
1341	1.3333e+02	6.6621	11.648775	0.000115	1.146218	0.194175	-0.000011
1342	1.3343e+02	6.6523	11.630445	0.000184	1.842136	0.312066	-0.000018
1343	1.3353e+02	6.6448	11.616595	0.000139	1.391836	0.235783	-0.000014
1344	1.3363e+02	6.6332	11.599894	0.000168	1.678391	0.284327	-0.000017
1345	1.3373e+02	6.6238	11.586859	0.000131	1.309964	0.221914	-0.000013
1346	1.3383e+02	6.6113	11.570158	0.000168	1.678391	0.284327	-0.000017
1347	1.3393e+02	6.6073	11.555494	0.000147	1.473709	0.249653	-0.000015
1348	1.3403e+02	6.5922	11.540422	0.000151	1.514645	0.256588	-0.000015
1349	1.3413e+02	6.5832	11.527387	0.000131	1.309964	0.221914	-0.000013
1350	1.3423e+02	6.5696	11.510278	0.000172	1.719327	0.291262	-0.000017
1351	1.3432e+02	6.5609	11.493170	0.000172	1.719327	0.291262	-0.000017
1352	1.3442e+02	6.5510	11.475247	0.000180	1.801200	0.305132	-0.000018
1353	1.3452e+02	6.5412	11.458546	0.000168	1.678391	0.284327	-0.000017
1354	1.3462e+02	6.5324	11.441845	0.000168	1.678391	0.284327	-0.000017
1355	1.3472e+02	6.5204	11.425144	0.000168	1.678391	0.284327	-0.000017
1356	1.3482e+02	6.5136	11.412516	0.000127	1.269027	0.214979	-0.000013
1357	1.3492e+02	6.5067	11.394186	0.000184	1.842136	0.312066	-0.000018
1358	1.3502e+02	6.4920	11.377892	0.000164	1.637455	0.277392	-0.000016
1359	1.3512e+02	6.4834	11.359969	0.000180	1.801200	0.305132	-0.000018
1360	1.3522e+02	6.4736	11.347341	0.000127	1.269027	0.214979	-0.000013
1361	1.3532e+02	6.4639	11.333084	0.000143	1.432773	0.242718	-0.000014
1362	1.3542e+02	6.4523	11.315569	0.000176	1.760264	0.298197	-0.000018
1363	1.3552e+02	6.4425	11.297646	0.000180	1.801200	0.305132	-0.000018
1364	1.3562e+02	6.4312	11.276464	0.000213	2.128691	0.360610	-0.000021
1365	1.3572e+02	6.4224	11.264244	0.000123	1.228091	0.208044	-0.000012
1366	1.3582e+02	6.4123	11.245506	0.000188	1.883073	0.319001	-0.000019
1367	1.3592e+02	6.4028	11.224731	0.000209	2.087755	0.353675	-0.000021
1368	1.3602e+02	6.3931	11.210067	0.000147	1.473709	0.249653	-0.000015
1369	1.3612e+02	6.3840	11.192144	0.000180	1.801200	0.305132	-0.000018
1370	1.3622e+02	6.3778	11.176258	0.000160	1.596518	0.270458	-0.000016
1371	1.3631e+02	6.3627	11.158335	0.000180	1.801200	0.305132	-0.000018
1372	1.3641e+02	6.3537	11.139189	0.000192	1.924009	0.325936	-0.000019
1373	1.3651e+02	6.3430	11.123710	0.000156	1.555582	0.263523	-0.000016
1374	1.3661e+02	6.3335	11.103751	0.000201	2.005882	0.339806	-0.000020
1375	1.3671e+02	6.3274	11.086642	0.000172	1.719327	0.291262	-0.000017
1376	1.3681e+02	6.3137	11.071163	0.000156	1.555582	0.263523	-0.000016
1377	1.3691e+02	6.3042	11.050389	0.000209	2.087755	0.353675	-0.000021
1378	1.3701e+02	6.2940	11.032873	0.000176	1.760264	0.298197	-0.000018
1379	1.3711e+02	6.2861	11.017394	0.000156	1.555582	0.263523	-0.000016
1380	1.3721e+02	6.2746	10.998656	0.000188	1.883073	0.319001	-0.000019
1381	1.3731e+02	6.2635	10.979918	0.000188	1.883073	0.319001	-0.000019
1382	1.3741e+02	6.2554	10.961995	0.000180	1.801200	0.305132	-0.000018
1383	1.3751e+02	6.2431	10.945294	0.000168	1.678391	0.284327	-0.000017
1384	1.3761e+02	6.2368	10.925335	0.000201	2.005882	0.339806	-0.000020
1385	1.3771e+02	6.2248	10.909041	0.000164	1.637455	0.277392	-0.000016
1386	1.3781e+02	6.2148	10.892747	0.000164	1.637455	0.277392	-0.000016
1387	1.3791e+02	6.2063	10.876046	0.000168	1.678391	0.284327	-0.000017
1388	1.3801e+02	6.1935	10.854864	0.000213	2.128691	0.360610	-0.000021
1389	1.3811e+02	6.1832	10.836941	0.000180	1.801200	0.305132	-0.000018
1390	1.3821e+02	6.1736	10.819426	0.000176	1.760264	0.298197	-0.000018
1391	1.3831e+02	6.1655	10.800688	0.000188	1.883073	0.319001	-0.000019
1392	1.3840e+02	6.1526	10.781135	0.000196	1.964946	0.332871	-0.000020
1393	1.3850e+02	6.1454	10.762398	0.000188	1.883073	0.319001	-0.000019
1394	1.3860e+02	6.1361	10.741216	0.000213	2.128691	0.360610	-0.000021
1395	1.3870e+02	6.1241	10.726551	0.000147	1.473709	0.249653	-0.000015
1396	1.3880e+02	6.1193	10.705777	0.000209	2.087755	0.353675	-0.000021
1397	1.3890e+02	6.1040	10.686632	0.000192	1.924009	0.325936	-0.000019
1398	1.3900e+02	6.0931	10.668709	0.000180	1.801200	0.305132	-0.000018
1399	1.3910e+02	6.0836	10.649564	0.000192	1.924009	0.325936	-0.000019
1400	1.3920e+02	6.0746	10.629604	0.000201	2.005882	0.339806	-0.000020
1401	1.3930e+02	6.0676	10.607607	0.000221	2.210564	0.374480	-0.000022
1402	1.3940e+02	6.0577	10.590499	0.000172	1.719327	0.291262	-0.000017
1403	1.3950e+02	6.0470	10.569317	0.000213	2.128691	0.360610	-0.000021
1404	1.3960e+02	6.0354	10.549765	0.000196	1.964946	0.332871	-0.000020
1405	1.3970e+02	6.0279	10.532249	0.000176	1.760264	0.298197	-0.000018
1406	1.3980e+02	6.0157	10.509438	0.000229	2.292436	0.388349	-0.000023
1407	1.3990e+02	6.0049	10.487849	0.000217	2.169627	0.367545	-0.000022
1408	1.4000e+02	5.9953	10.464630	0.000233	2.333373	0.395284	-0.000023
1409	1.4010e+02	5.9820	10.445892	0.000188	1.883073	0.319001	-0.000019
1410	1.4020e+02	5.9785	10.424711	0.000213	2.128691	0.360610	-0.000021
1411	1.4029e+02	5.9653	10.399863	0.000250	2.497118	0.423023	-0.000025
1412	1.4039e+02	5.9588	10.378681	0.000213	2.128691	0.360610	-0.000021
1413	1.4049e+02	5.9502	10.356684	0.000221	2.210564	0.374480	-0.000022
1414	1.4059e+02	5.9341	10.337539	0.000192	1.924009	0.325936	-0.000019
1415	1.4069e+02	5.9258	10.318394	0.000192	1.924009	0.325936	-0.000019
1416	1.4079e+02	5.9155	10.298434	0.000201	2.005882	0.339806	-0.000020
1417	1.4089e+02	5.9054	10.277660	0.000209	2.087755	0.353675	-0.000021
1418	1.4099e+02	5.8978	10.256071	0.000217	2.169627	0.367545	-0.000022
1419	1.4109e+02	5.8874	10.238148	0.000180	1.801200	0.305132	-0.000018
1420	1.4119e+02	5.8778	10.215337	0.000229	2.292436	0.388349	-0.000023
1421	1.4129e+02	5.8645	10.197006	0.000184	1.842136	0.312066	-0.000018
1422	1.4139e+02	5.8557	10.178676	0.000184	1.842136	0.312066	-0.000018
1423	1.4149e+02	5.8498	10.160753	0.000180	1.801200	0.305132	-0.000018
1424	1.4159e+02	5.8353	10.137941	0.000229	2.292436	0.388349	-0.000023
1425	1.4169e+02	5.8259	10.120426	0.000176	1.760264	0.298197	-0.000018
1426	1.4179e+02	5.8169	10.102503	0.000180	1.801200	0.305132	-0.000018
1427	1.4189e+02	5.8057	10.084172	0.000184	1.842136	0.312066	-0.000018
1428	1.4199e+02	5.7973	10.060954	0.000233	2.333373	0.395284	-0.000023
1429	1.4209e+02	5.7854	10.044253	0.000168	1.678391	0.284327	-0.000017
1430	1.4219e+02	5.7745	10.029996	0.000143	1.432773	0.242718	-0.000014
1431	1.4228e+02	5.7687	10.009221	0.000209	2.087755	0.353675	-0.000021
1432	1.4238e+02	5.7574	9.995779	0.000135	1.350900	0.228849	-0.000014
1433	1.4248e+02	5.7479	9.973782	0.000221	2.210564	0.374480	-0.000022
1434	1.4258e+02	5.7378	9.955859	0.000180	1.801200	0.305132	-0.000018
1435	1.4268e+02	5.7262	9.937122	0.000188	1.883073	0.319001	-0.000019
1436	1.4278e+02	5.7172	9.920420	0.000168	1.678391	0.284327	-0.000017
1437	1.4288e+02	5.7047	9.900461	0.000201	2.005882	0.339806	-0.000020
1438	1.4298e+02	5.6973	9.884167	0.000164	1.637455	0.277392	-0.000016
1439	1.4308e+02	5.6890	9.865022	0.000192	1.924009	0.325936	-0.000019
1440	1.4318e+02	5.6780	9.845469	0.000196	1.964946	0.332871	-0.000020
1441	1.4328e+02	5.6710	9.829583	0.000160	1.596518	0.270458	-0.000016
1442	1.4338e+02	5.6570	9.810845	0.000188	1.883073	0.319001	-0.000019
1443	1.4348e+02	5.6499	9.792515	0.000184	1.842136	0.312066	-0.000018
1444	1.4358e+02	5.6380	9.774999	0.000176	1.760264	0.298197	-0.000018
1445	1.4368e+02	5.6297	9.757076	0.000180	1.801200	0.305132	-0.000018
1446	1.4378e+02	5.6159	9.740375	0.000168	1.678391	0.284327	-0.000017
1447	1.4388e+02	5.6101	9.720008	0.000205	2.046818	0.346740	-0.000020
1448	1.4398e+02	5.5972	9.702900	0.000172	1.719327	0.291262	-0.000017
1449	1.4408e+02	5.5862	9.686606	0.000164	1.637455	0.277392	-0.000016
1450	1.4418e+02	5.5786	9.671127	0.000156	1.555582	0.263523	-0.000016
1451	1.4428e+02	5.5689	9.649945	0.000213	2.128691	0.360610	-0.000021
1452	1.4437e+02	5.5599	9.636095	0.000139	1.391836	0.235783	-0.000014
1453	1.4447e+02	5.5486	9.617358	0.000188	1.883073	0.319001	-0.000019
1454	1.4457e+02	5.5373	9.599842	0.000176	1.760264	0.298197	-0.000018
1455	1.4467e+02	5.5309	9.583141	0.000168	1.678391	0.284327	-0.000017
1456	1.4477e+02	5.5173	9.564810	0.000184	1.842136	0.312066	-0.000018
1457	1.4487e+02	5.5087	9.547702	0.000172	1.719327	0.291262	-0.000017
1458	1.4497e+02	5.4957	9.527742	0.000201	2.005882	0.339806	-0.000020
1459	1.4507e+02	5.4885	9.506560	0.000213	2.128691	0.360610	-0.000021
1460	1.4517e+02	5.4768	9.492303	0.000143	1.432773	0.242718	-0.000014
1461	1.4527e+02	5.4688	9.476417	0.000160	1.596518	0.270458	-0.000016
1462	1.4537e+02	5.4597	9.461345	0.000151	1.514645	0.256588	-0.000015
1463	1.4547e+02	5.4492	9.440571	0.000209	2.087755	0.353675	-0.000021
1464	1.4557e+02	5.4365	9.425092	0.000156	1.555582	0.263523	-0.000016
1465	1.4567e+02	5.4284	9.408391	0.000168	1.678391	0.284327	-0.000017
1466	1.4577e+02	5.4195	9.389246	0.000192	1.924009	0.325936	-0.000019
1467	1.4587e+02	5.4086	9.369286	0.000201	2.005882	0.339806	-0.000020
1468	1.4597e+02	5.3987	9.352992	0.000164	1.637455	0.277392	-0.000016
1469	1.4607e+02	5.3884	9.336291	0.000168	1.678391	0.284327	-0.000017
1470	1.4617e+02	5.3783	9.320812	0.000156	1.555582	0.263523	-0.000016
1471	1.4626e+02	5.3714	9.302075	0.000188	1.883073	0.319001	-0.000019
1472	1.4636e+02	5.3580	9.282929	0.000192	1.924009	0.325936	-0.000019
1473	1.4646e+02	5.3493	9.266228	0.000168	1.678391	0.284327	-0.000017
1474	1.4656e+02	5.3394	9.246269	0.000201	2.005882	0.339806	-0.000020
1475	1.4666e+02	5.3286	9.229160	0.000172	1.719327	0.291262	-0.000017
1476	1.4676e+02	5.3194	9.213274	0.000160	1.596518	0.270458	-0.000016
1477	1.4686e+02	5.3083	9.195758	0.000176	1.760264	0.298197	-0.000018
1478	1.4696e+02	5.3001	9.179872	0.000160	1.596518	0.270458	-0.000016
1479	1.4706e+02	5.2906	9.164393	0.000156	1.555582	0.263523	-0.000016
1480	1.4716e+02	5.2794	9.147284	0.000172	1.719327	0.291262	-0.000017
1481	1.4726e+02	5.2718	9.131398	0.000160	1.596518	0.270458	-0.000016
1482	1.4736e+02	5.2604	9.111031	0.000205	2.046818	0.346740	-0.000020
1483	1.4746e+02	5.2504	9.097181	0.000139	1.391836	0.235783	-0.000014
1484	1.4756e+02	5.2387	9.080073	0.000172	1.719327	0.291262	-0.000017
1485	1.4766e+02	5.2296	9.063779	0.000164	1.637455	0.277392	-0.000016
1486	1.4776e+02	5.2201	9.046263	0.000176	1.760264	0.298197	-0.000018
1487	1.4786e+02	5.2102	9.027118	0.000192	1.924009	0.325936	-0.000019
1488	1.4796e+02	5.1984	9.014083	0.000131	1.309964	0.221914	-0.000013
1489	1.4806e+02	5.1908	8.996975	0.000172	1.719327	0.291262	-0.000017
1490	1.4816e+02	5.1814	8.984347	0.000127	1.269027	0.214979	-0.000013
1491	1.4825e+02	5.1690	8.968868	0.000156	1.555582	0.263523	-0.000016
1492	1.4835e+02	5.1595	8.955833	0.000131	1.309964	0.221914	-0.000013
1493	1.4845e+02	5.1476	8.939540	0.000164	1.637455	0.277392	-0.000016
1494	1.4855e+02	5.1407	8.924875	0.000147	1.473709	0.249653	-0.000015
1495	1.4865e+02	5.1295	8.908174	0.000168	1.678391	0.284327	-0.000017
1496	1.4875e+02	5.1206	8.894732	0.000135	1.350900	0.228849	-0.000014
1497	1.4885e+02	5.1091	8.878031	0.000168	1.678391	0.284327	-0.000017
1498	1.4895e+02	5.0980	8.861737	0.000164	1.637455	0.277392	-0.000016
1499	1.4905e+02	5.0903	8.844221	0.000176	1.760264	0.298197	-0.000018
1500	1.4915e+02	5.0793	8.827113	0.000172	1.719327	0.291262	-0.000017
1501	1.4925e+02	5.0729	8.811634	0.000156	1.555582	0.263523	-0.000016
1502	1.4935e+02	5.0597	8.789230	0.000225	2.251500	0.381414	-0.000023
1503	1.4945e+02	5.0510	8.777825	0.000115	1.146218	0.194175	-0.000011
1504	1.4955e+02	5.0402	8.759087	0.000188	1.883073	0.319001	-0.000019
1505	1.4965e+02	5.0317	8.741978	0.000172	1.719327	0.291262	-0.000017
1506	1.4975e+02	5.0224	8.726092	0.000160	1.596518	0.270458	-0.000016
1507	1.4985e+02	5.0079	8.707354	0.000188	1.883073	0.319001	-0.000019
1508	1.4995e+02	5.0005	8.686580	0.000209	2.087755	0.353675	-0.000021
1509	1.5005e+02	4.9907	8.668657	0.000180	1.801200	0.305132	-0.000018
1510	1.5015e+02	4.9798	8.649919	0.000188	1.883073	0.319001	-0.000019
1511	1.5025e+02	4.9734	8.633218	0.000168	1.678391	0.284327	-0.000017
1512	1.5034e+02	4.9603	8.611629	0.000217	2.169627	0.367545	-0.000022
1513	1.5044e+02	4.9483	8.591262	0.000205	2.046818	0.346740	-0.000020
1514	1.5054e+02	4.9436	8.573339	0.000180	1.801200	0.305132	-0.000018
1515	1.5064e+02	4.9328	8.554601	0.000188	1.883073	0.319001	-0.000019
1516	1.5074e+02	4.9206	8.537493	0.000172	1.719327	0.291262	-0.000017
1517	1.5084e+02	4.9124	8.517533	0.000201	2.005882	0.339806	-0.000020
1518	1.5094e+02	4.9024	8.497980	0.000196	1.964946	0.332871	-0.000020
1519	1.5104e+02	4.8943	8.478021	0.000201	2.005882	0.339806	-0.000020
1520	1.5114e+02	4.8813	8.456839	0.000213	2.128691	0.360610	-0.000021
1521	1.5124e+02	4.8706	8.436472	0.000205	2.046818	0.346740	-0.000020
1522	1.5134e+02	4.8632	8.418549	0.000180	1.801200	0.305132	-0.000018
1523	1.5144e+02	4.8501	8.396552	0.000221	2.210564	0.374480	-0.000022
1524	1.5154e+02	4.8396	8.377000	0.000196	1.964946	0.332871	-0.000020
1525	1.5164e+02	4.8318	8.359076	0.000180	1.801200	0.305132	-0.000018
1526	1.5174e+02	4.8204	8.338302	0.000209	2.087755	0.353675	-0.000021
1527	1.5184e+02	4.8123	8.316713	0.000217	2.169627	0.367545	-0.000022
1528	1.5194e+02	4.8047	8.296753	0.000201	2.005882	0.339806	-0.000020
1529	1.5204e+02	4.7929	8.275979	0.000209	2.087755	0.353675	-0.000021
1530	1.5214e+02	4.7840	8.258870	0.000172	1.719327	0.291262	-0.000017
1531	1.5224e+02	4.7717	8.240132	0.000188	1.883073	0.319001	-0.000019
1532	1.5233e+02	4.7653	8.219358	0.000209	2.087755	0.353675	-0.000021
1533	1.5243e+02	4.7526	8.195325	0.000242	2.415246	0.409154	-0.000024
1534	1.5253e+02	4.7433	8.175772	0.000196	1.964946	0.332871	-0.000020
1535	1.5263e+02	4.7309	8.155813	0.000201	2.005882	0.339806	-0.000020
1536	1.5273e+02	4.7219	8.136260	0.000196	1.964946	0.332871	-0.000020
1537	1.5283e+02	4.7132	8.111820	0.000246	2.456182	0.416088	-0.000025
1538	1.5293e+02	4.7016	8.093489	0.000184	1.842136	0.312066	-0.000018
1539	1.5303e+02	4.6941	8.072715	0.000209	2.087755	0.353675	-0.000021
1540	1.5313e+02	4.6838	8.047459	0.000254	2.538055	0.429958	-0.000025
1541	1.5323e+02	4.6757	8.028314	0.000192	1.924009	0.325936	-0.000019
1542	1.5333e+02	4.6621	8.008355	0.000201	2.005882	0.339806	-0.000020
1543	1.5343e+02	4.6551	7.986358	0.000221	2.210564	0.374480	-0.000022
1544	1.5353e+02	4.6424	7.965176	0.000213	2.128691	0.360610	-0.000021
1545	1.5363e+02	4.6342	7.942772	0.000225	2.251500	0.381414	-0.000023
1546	1.5373e+02	4.6250	7.921998	0.000209	2.087755	0.353675	-0.000021
1547	1.5383e+02	4.6133	7.904075	0.000180	1.801200	0.305132	-0.000018
1548	1.5393e+02	4.6002	7.881264	0.000229	2.292436	0.388349	-0.000023
1549	1.5403e+02	4.5928	7.858453	0.000229	2.292436	0.388349	-0.000023
1550	1.5413e+02	4.5854	7.837271	0.000213	2.128691	0.360610	-0.000021
1551	1.5422e+02	4.5721	7.816089	0.000213	2.128691	0.360610	-0.000021
1552	1.5432e+02	4.5594	7.795314	0.000209	2.087755	0.353675	-0.000021
1553	1.5442e+02	4.5525	7.775355	0.000201	2.005882	0.339806	-0.000020
1554	1.5452e+02	4.5431	7.754987	0.000205	2.046818	0.346740	-0.000020
1555	1.5462e+02	4.5341	7.731362	0.000237	2.374309	0.402219	-0.000024
1556	1.5472e+02	4.5232	7.713031	0.000184	1.842136	0.312066	-0.000018
1557	1.5482e+02	4.5228	7.690220	0.000229	2.292436	0.388349	-0.000023
1558	1.5492e+02	4.5046	7.668631	0.000217	2.169627	0.367545	-0.000022
1559	1.5502e+02	4.4923	7.646227	0.000225	2.251500	0.381414	-0.000023
1560	1.5512e+02	4.4818	7.628304	0.000180	1.801200	0.305132	-0.000018
1561	1.5522e+02	4.4732	7.605493	0.000229	2.292436	0.388349	-0.000023
1562	1.5532e+02	4.4627	7.581460	0.000242	2.415246	0.409154	-0.000024
1563	1.5542e+02	4.4554	7.558648	0.000229	2.292436	0.388349	-0.000023
1564	1.5552e+02	4.4431	7.536245	0.000225	2.251500	0.381414	-0.000023
1565	1.5562e+02	4.4341	7.513026	0.000233	2.333373	0.395284	-0.000023
1566	1.5572e+02	4.4229	7.490215	0.000229	2.292436	0.388349	-0.000023
1567	1.5582e+02	4.4129	7.467811	0.000225	2.251500	0.381414	-0.000023
1568	1.5592e+02	4.4030	7.447037	0.000209	2.087755	0.353675	-0.000021
1569	1.5602e+02	4.3932	7.420967	0.000262	2.619927	0.443828	-0.000026
1570	1.5612e+02	4.3829	7.403044	0.000180	1.801200	0.305132	-0.000018
1571	1.5622e+02	4.3726	7.378603	0.000246	2.456182	0.416088	-0.000025
1572	1.5631e+02	4.3658	7.354977	0.000237	2.374309	0.402219	-0.000024
1573	1.5641e+02	4.3518	7.331351	0.000237	2.374309	0.402219	-0.000024
1574	1.5651e+02	4.3435	7.307318	0.000242	2.415246	0.409154	-0.000024
1575	1.5661e+02	4.3317	7.282063	0.000254	2.538055	0.429958	-0.000025
1576	1.5671e+02	4.3269	7.258030	0.000242	2.415246	0.409154	-0.000024
1577	1.5681e+02	4.3133	7.230738	0.000274	2.742736	0.464632	-0.000027
1578	1.5691e+02	4.3026	7.208334	0.000225	2.251500	0.381414	-0.000023
1579	1.5701e+02	4.2937	7.183486	0.000250	2.497118	0.423023	-0.000025
1580	1.5711e+02	4.2812	7.161489	0.000221	2.210564	0.374480	-0.000022
1581	1.5721e+02	4.2721	7.137456	0.000242	2.415246	0.409154	-0.000024
1582	1.5731e+02	4.2652	7.115460	0.000221	2.210564	0.374480	-0.000022
1583	1.5741e+02	4.2530	7.094278	0.000213	2.128691	0.360610	-0.000021
1584	1.5751e+02	4.2438	7.071059	0.000233	2.333373	0.395284	-0.000023
1585	1.5761e+02	4.2345	7.044989	0.000262	2.619927	0.443828	-0.000026
1586	1.5771e+02	4.2239	7.020956	0.000242	2.415246	0.409154	-0.000024
1587	1.5781e+02	4.2139	6.999774	0.000213	2.128691	0.360610	-0.000021
1588	1.5791e+02	4.2060	6.975334	0.000246	2.456182	0.416088	-0.000025
1589	1.5801e+02	4.1933	6.951301	0.000242	2.415246	0.409154	-0.000024
1590	1.5811e+02	4.1818	6.932970	0.000184	1.842136	0.312066	-0.000018
1591	1.5821e+02	4.1730	6.909344	0.000237	2.374309	0.402219	-0.000024
1592	1.5830e+02	4.1644	6.890607	0.000188	1.883073	0.319001	-0.000019
1593	1.5840e+02	4.1546	6.866573	0.000242	2.415246	0.409154	-0.000024
1594	1.5850e+02	4.1453	6.847021	0.000196	1.964946	0.332871	-0.000020
1595	1.5860e+02	4.1360	6.825024	0.000221	2.210564	0.374480	-0.000022
1596	1.5870e+02	4.1273	6.802213	0.000229	2.292436	0.388349	-0.000023
1597	1.5880e+02	4.1137	6.784698	0.000176	1.760264	0.298197	-0.000018
1598	1.5890e+02	4.1053	6.765960	0.000188	1.883073	0.319001	-0.000019
1599	1.5900e+02	4.0948	6.742741	0.000233	2.333373	0.395284	-0.000023
1600	1.5910e+02	4.0832	6.721967	0.000209	2.087755	0.353675	-0.000021
1601	1.5920e+02	4.0750	6.701600	0.000205	2.046818	0.346740	-0.000020
1602	1.5930e+02	4.0665	6.683269	0.000184	1.842136	0.312066	-0.000018
1603	1.5940e+02	4.0572	6.659236	0.000242	2.415246	0.409154	-0.000024
1604	1.5950e+02	4.0444	6.642942	0.000164	1.637455	0.277392	-0.000016
1605	1.5960e+02	4.0366	6.621353	0.000217	2.169627	0.367545	-0.000022
1606	1.5970e+02	4.0273	6.599357	0.000221	2.210564	0.374480	-0.000022
1607	1.5980e+02	4.0151	6.578990	0.000205	2.046818	0.346740	-0.000020
1608	1.5990e+02	4.0040	6.557400	0.000217	2.169627	0.367545	-0.000022
1609	1.6000e+02	3.9930	6.539477	0.000180	1.801200	0.305132	-0.000018
1610	1.6010e+02	3.9861	6.518703	0.000209	2.087755	0.353675	-0.000021
1611	1.6019e+02	3.9762	6.497114	0.000217	2.169627	0.367545	-0.000022
1612	1.6029e+02	3.9658	6.474303	0.000229	2.292436	0.388349	-0.000023
1613	1.6039e+02	3.9556	6.456787	0.000176	1.760264	0.298197	-0.000018
1614	1.6049e+02	3.9462	6.437234	0.000196	1.964946	0.332871	-0.000020
1615	1.6059e+02	3.9340	6.418497	0.000188	1.883073	0.319001	-0.000019
1616	1.6069e+02	3.9277	6.398129	0.000205	2.046818	0.346740	-0.000020
1617	1.6079e+02	3.9190	6.378170	0.000201	2.005882	0.339806	-0.000020
1618	1.6089e+02	3.9063	6.361469	0.000168	1.678391	0.284327	-0.000017
1619	1.6099e+02	3.8994	6.339879	0.000217	2.169627	0.367545	-0.000022
1620	1.6109e+02	3.8868	6.320327	0.000196	1.964946	0.332871	-0.000020
1621	1.6119e+02	3.8762	6.297923	0.000225	2.251500	0.381414	-0.000023
1622	1.6129e+02	3.8634	6.282444	0.000156	1.555582	0.263523	-0.000016
1623	1.6139e+02	3.8566	6.262892	0.000196	1.964946	0.332871	-0.000020
1624	1.6149e+02	3.8464	6.239673	0.000233	2.333373	0.395284	-0.000023
1625	1.6159e+02	3.8351	6.217677	0.000221	2.210564	0.374480	-0.000022
1626	1.6169e+02	3.8274	6.205049	0.000127	1.269027	0.214979	-0.000013
1627	1.6179e+02	3.8156	6.180201	0.000250	2.497118	0.423023	-0.000025
1628	1.6189e+02	3.8074	6.161871	0.000184	1.842136	0.312066	-0.000018
1629	1.6199e+02	3.7978	6.143540	0.000184	1.842136	0.312066	-0.000018
1630	1.6209e+02	3.7872	6.125617	0.000180	1.801200	0.305132	-0.000018
1631	1.6219e+02	3.7777	6.105658	0.000201	2.005882	0.339806	-0.000020
1632	1.6228e+02	3.7670	6.084476	0.000213	2.128691	0.360610	-0.000021
1633	1.6238e+02	3.7553	6.066553	0.000180	1.801200	0.305132	-0.000018
1634	1.6248e+02	3.7481	6.046185	0.000205	2.046818	0.346740	-0.000020
1635	1.6258e+02	3.7369	6.026226	0.000201	2.005882	0.339806	-0.000020
1636	1.6268e+02	3.7283	6.007081	0.000192	1.924009	0.325936	-0.000019
1637	1.6278e+02	3.7167	5.987121	0.000201	2.005882	0.339806	-0.000020
1638	1.6288e+02	3.7078	5.969198	0.000180	1.801200	0.305132	-0.000018
1639	1.6298e+02	3.6968	5.950053	0.000192	1.924009	0.325936	-0.000019
1640	1.6308e+02	3.6859	5.928056	0.000221	2.210564	0.374480	-0.000022
1641	1.6318e+02	3.6774	5.909318	0.000188	1.883073	0.319001	-0.000019
1642	1.6328e+02	3.6684	5.890988	0.000184	1.842136	0.312066	-0.000018
1643	1.6338e+02	3.6565	5.870621	0.000205	2.046818	0.346740	-0.000020
1644	1.6348e+02	3.6481	5.848624	0.000221	2.210564	0.374480	-0.000022
1645	1.6358e+02	3.6350	5.829479	0.000192	1.924009	0.325936	-0.000019
1646	1.6368e+02	3.6279	5.812371	0.000172	1.719327	0.291262	-0.000017
1647	1.6378e+02	3.6175	5.793226	0.000192	1.924009	0.325936	-0.000019
1648	1.6388e+02	3.6071	5.777339	0.000160	1.596518	0.270458	-0.000016
1649	1.6398e+02	3.5965	5.756158	0.000213	2.128691	0.360610	-0.000021
1650	1.6408e+02	3.5880	5.739049	0.000172	1.719327	0.291262	-0.000017
1651	1.6418e+02	3.5766	5.720719	0.000184	1.842136	0.312066	-0.000018
1652	1.6427e+02	3.5674	5.702388	0.000184	1.842136	0.312066	-0.000018
1653	1.6437e+02	3.5561	5.682836	0.000196	1.964946	0.332871	-0.000020
1654	1.6447e+02	3.5487	5.661654	0.000213	2.128691	0.360610	-0.000021
1655	1.6457e+02	3.5368	5.649434	0.000123	1.228091	0.208044	-0.000012
1656	1.6467e+02	3.5265	5.629881	0.000196	1.964946	0.332871	-0.000020
1657	1.6477e+02	3.5183	5.609922	0.000201	2.005882	0.339806	-0.000020
1658	1.6487e+02	3.5072	5.596887	0.000131	1.309964	0.221914	-0.000013
1659	1.6497e+02	3.4982	5.579778	0.000172	1.719327	0.291262	-0.000017
1660	1.6507e+02	3.4863	5.563485	0.000164	1.637455	0.277392	-0.000016
1661	1.6517e+02	3.4786	5.550450	0.000131	1.309964	0.221914	-0.000013
1662	1.6527e+02	3.4682	5.529675	0.000209	2.087755	0.353675	-0.000021
1663	1.6537e+02	3.4577	5.512567	0.000172	1.719327	0.291262	-0.000017
1664	1.6547e+02	3.4467	5.493014	0.000196	1.964946	0.332871	-0.000020
1665	1.6557e+02	3.4406	5.475906	0.000172	1.719327	0.291262	-0.000017
1666	1.6567e+02	3.4281	5.456353	0.000196	1.964946	0.332871	-0.000020
1667	1.6577e+02	3.4186	5.438430	0.000180	1.801200	0.305132	-0.000018
1668	1.6587e+02	3.4083	5.422951	0.000156	1.555582	0.263523	-0.000016
1669	1.6597e+02	3.3984	5.399733	0.000233	2.333373	0.395284	-0.000023
1670	1.6607e+02	3.3875	5.384254	0.000156	1.555582	0.263523	-0.000016
1671	1.6616e+02	3.3804	5.365109	0.000192	1.924009	0.325936	-0.000019
1672	1.6626e+02	3.3701	5.344742	0.000205	2.046818	0.346740	-0.000020
1673	1.6636e+02	3.3614	5.325189	0.000196	1.964946	0.332871	-0.000020
1674	1.6646e+02	3.3475	5.307266	0.000180	1.801200	0.305132	-0.000018
1675	1.6656e+02	3.3395	5.286899	0.000205	2.046818	0.346740	-0.000020
1676	1.6666e+02	3.3285	5.267754	0.000192	1.924009	0.325936	-0.000019
1677	1.6676e+02	3.3189	5.243721	0.000242	2.415246	0.409154	-0.000024
1678	1.6686e+02	3.3089	5.223354	0.000205	2.046818	0.346740	-0.000020
1679	1.6696e+02	3.2990	5.205023	0.000184	1.842136	0.312066	-0.000018
1680	1.6706e+02	3.2899	5.185063	0.000201	2.005882	0.339806	-0.000020
1681	1.6716e+02	3.2801	5.161845	0.000233	2.333373	0.395284	-0.000023
1682	1.6726e+02	3.2677	5.139441	0.000225	2.251500	0.381414	-0.000023
1683	1.6736e+02	3.2592	5.118667	0.000209	2.087755	0.353675	-0.000021
1684	1.6746e+02	3.2503	5.097077	0.000217	2.169627	0.367545	-0.000022
1685	1.6756e+02	3.2394	5.078340	0.000188	1.883073	0.319001	-0.000019
1686	1.6766e+02	3.2294	5.056343	0.000221	2.210564	0.374480	-0.000022
1687	1.6776e+02	3.2209	5.033532	0.000229	2.292436	0.388349	-0.000023
1688	1.6786e+02	3.2097	5.011535	0.000221	2.210564	0.374480	-0.000022
1689	1.6796e+02	3.2001	4.991168	0.000205	2.046818	0.346740	-0.000020
1690	1.6806e+02	3.1903	4.971208	0.000201	2.005882	0.339806	-0.000020
1691	1.6816e+02	3.1768	4.950027	0.000213	2.128691	0.360610	-0.000021
1692	1.6825e+02	3.1700	4.926401	0.000237	2.374309	0.402219	-0.000024
1693	1.6835e+02	3.1594	4.903590	0.000229	2.292436	0.388349	-0.000023
1694	1.6845e+02	3.1506	4.881186	0.000225	2.251500	0.381414	-0.000023
1695	1.6855e+02	3.1410	4.862448	0.000188	1.883073	0.319001	-0.000019
1696	1.6865e+02	3.1297	4.840044	0.000225	2.251500	0.381414	-0.000023
1697	1.6875e+02	3.1212	4.818455	0.000217	2.169627	0.367545	-0.000022
1698	1.6885e+02	3.1075	4.795644	0.000229	2.292436	0.388349	-0.000023
1699	1.6895e+02	3.1011	4.776906	0.000188	1.883073	0.319001	-0.000019
1700	1.6905e+02	3.0886	4.752873	0.000242	2.415246	0.409154	-0.000024
1701	1.6915e+02	3.0805	4.728840	0.000242	2.415246	0.409154	-0.000024
1702	1.6925e+02	3.0689	4.710509	0.000184	1.842136	0.312066	-0.000018
1703	1.6935e+02	3.0620	4.684032	0.000266	2.660864	0.450763	-0.000027
1704	1.6945e+02	3.0505	4.661628	0.000225	2.251500	0.381414	-0.000023
1705	1.6955e+02	3.0429	4.640854	0.000209	2.087755	0.353675	-0.000021
1706	1.6965e+02	3.0299	4.616413	0.000246	2.456182	0.416088	-0.000025
1707	1.6975e+02	3.0200	4.591565	0.000250	2.497118	0.423023	-0.000025
1708	1.6985e+02	3.0109	4.571605	0.000201	2.005882	0.339806	-0.000020
1709	1.6995e+02	3.0009	4.550016	0.000217	2.169627	0.367545	-0.000022
1710	1.7005e+02	2.9887	4.525983	0.000242	2.415246	0.409154	-0.000024
1711	1.7015e+02	2.9828	4.503579	0.000225	2.251500	0.381414	-0.000023
1712	1.7024e+02	2.9702	4.482397	0.000213	2.128691	0.360610	-0.000021
1713	1.7034e+02	2.9621	4.458364	0.000242	2.415246	0.409154	-0.000024
1714	1.7044e+02	2.9491	4.433516	0.000250	2.497118	0.423023	-0.000025
1715	1.7054e+02	2.9385	4.412335	0.000213	2.128691	0.360610	-0.000021
1716	1.7064e+02	2.9302	4.387487	0.000250	2.497118	0.423023	-0.000025
1717	1.7074e+02	2.9240	4.367119	0.000205	2.046818	0.346740	-0.000020
1718	1.7084e+02	2.9100	4.341050	0.000262	2.619927	0.443828	-0.000026
1719	1.7094e+02	2.8999	4.318238	0.000229	2.292436	0.388349	-0.000023
1720	1.7104e+02	2.8894	4.294205	0.000242	2.415246	0.409154	-0.000024
1721	1.7114e+02	2.8830	4.274653	0.000196	1.964946	0.332871	-0.000020
1722	1.7124e+02	2.8685	4.253471	0.000213	2.128691	0.360610	-0.000021
1723	1.7134e+02	2.8640	4.231474	0.000221	2.210564	0.374480	-0.000022
1724	1.7144e+02	2.8530	4.206219	0.000254	2.538055	0.429958	-0.000025
1725	1.7154e+02	2.8403	4.183001	0.000233	2.333373	0.395284	-0.000023
1726	1.7164e+02	2.8338	4.158967	0.000242	2.415246	0.409154	-0.000024
1727	1.7174e+02	2.8236	4.137786	0.000213	2.128691	0.360610	-0.000021
1728	1.7184e+02	2.8120	4.111716	0.000262	2.619927	0.443828	-0.000026
1729	1.7194e+02	2.8049	4.090941	0.000209	2.087755	0.353675	-0.000021
1730	1.7204e+02	2.7918	4.065279	0.000258	2.578991	0.436893	-0.000026
1731	1.7213e+02	2.7843	4.040431	0.000250	2.497118	0.423023	-0.000025
1732	1.7223e+02	2.7674	4.015176	0.000254	2.538055	0.429958	-0.000025
1733	1.7233e+02	2.7614	3.995623	0.000196	1.964946	0.332871	-0.000020
1734	1.7243e+02	2.7523	3.969553	0.000262	2.619927	0.443828	-0.000026
1735	1.7253e+02	2.7423	3.943891	0.000258	2.578991	0.436893	-0.000026
1736	1.7263e+02	2.7307	3.917821	0.000262	2.619927	0.443828	-0.000026
1737	1.7273e+02	2.7209	3.896232	0.000217	2.169627	0.367545	-0.000022
1738	1.7283e+02	2.7146	3.868532	0.000278	2.783673	0.471567	-0.000028
1739	1.7293e+02	2.7039	3.844499	0.000242	2.415246	0.409154	-0.000024
1740	1.7303e+02	2.6893	3.821280	0.000233	2.333373	0.395284	-0.000023
1741	1.7313e+02	2.6849	3.798469	0.000229	2.292436	0.388349	-0.000023
1742	1.7323e+02	2.6723	3.768326	0.000303	3.029291	0.513176	-0.000030
1743	1.7333e+02	2.6608	3.741441	0.000270	2.701800	0.457697	-0.000027
1744	1.7343e+02	2.6537	3.715371	0.000262	2.619927	0.443828	-0.000026
1745	1.7353e+02	2.6409	3.689709	0.000258	2.578991	0.436893	-0.000026
1746	1.7363e+02	2.6321	3.664861	0.000250	2.497118	0.423023	-0.000025
1747	1.7373e+02	2.6243	3.637976	0.000270	2.701800	0.457697	-0.000027
1748	1.7383e+02	2.6130	3.611092	0.000270	2.701800	0.457697	-0.000027
1749	1.7393e+02	2.6034	3.587059	0.000242	2.415246	0.409154	-0.000024
1750	1.7403e+02	2.5933	3.567506	0.000196	1.964946	0.332871	-0.000020
1751	1.7413e+02	2.5825	3.541843	0.000258	2.578991	0.436893	-0.000026
1752	1.7422e+02	2.5716	3.514144	0.000278	2.783673	0.471567	-0.000028
1753	1.7432e+02	2.5637	3.488889	0.000254	2.538055	0.429958	-0.000025
1754	1.7442e+02	2.5535	3.465670	0.000233	2.333373	0.395284	-0.000023
1755	1.7452e+02	2.5403	3.437564	0.000282	2.824609	0.478502	-0.000028
1756	1.7462e+02	2.5327	3.416382	0.000213	2.128691	0.360610	-0.000021
1757	1.7472e+02	2.5210	3.391534	0.000250	2.497118	0.423023	-0.000025
1758	1.7482e+02	2.5125	3.369130	0.000225	2.251500	0.381414	-0.000023
1759	1.7492e+02	2.5046	3.349170	0.000201	2.005882	0.339806	-0.000020
1760	1.7502e+02	2.4917	3.321879	0.000274	2.742736	0.464632	-0.000027
1761	1.7512e+02	2.4861	3.301511	0.000205	2.046818	0.346740	-0.000020
1762	1.7522e+02	2.4743	3.275441	0.000262	2.619927	0.443828	-0.000026
1763	1.7532e+02	2.4636	3.253852	0.000217	2.169627	0.367545	-0.000022
1764	1.7542e+02	2.4541	3.233893	0.000201	2.005882	0.339806	-0.000020
1765	1.7552e+02	2.4454	3.210674	0.000233	2.333373	0.395284	-0.000023
1766	1.7562e+02	2.4315	3.182975	0.000278	2.783673	0.471567	-0.000028
1767	1.7572e+02	2.4237	3.164644	0.000184	1.842136	0.312066	-0.000018
1768	1.7582e+02	2.4130	3.141018	0.000237	2.374309	0.402219	-0.000024
1769	1.7592e+02	2.4066	3.122688	0.000184	1.842136	0.312066	-0.000018
1770	1.7602e+02	2.3917	3.097840	0.000250	2.497118	0.423023	-0.000025
1771	1.7612e+02	2.3841	3.076251	0.000217	2.169627	0.367545	-0.000022
1772	1.7621e+02	2.3743	3.053440	0.000229	2.292436	0.388349	-0.000023
1773	1.7631e+02	2.3656	3.029814	0.000237	2.374309	0.402219	-0.000024
1774	1.7641e+02	2.3576	3.010261	0.000196	1.964946	0.332871	-0.000020
1775	1.7651e+02	2.3430	2.986228	0.000242	2.415246	0.409154	-0.000024
1776	1.7661e+02	2.3335	2.967898	0.000184	1.842136	0.312066	-0.000018
1777	1.7671e+02	2.3236	2.940199	0.000278	2.783673	0.471567	-0.000028
1778	1.7681e+02	2.3145	2.922683	0.000176	1.760264	0.298197	-0.000018
1779	1.7691e+02	2.3031	2.901501	0.000213	2.128691	0.360610	-0.000021
1780	1.7701e+02	2.2929	2.881134	0.000205	2.046818	0.346740	-0.000020
1781	1.7711e+02	2.2861	2.858323	0.000229	2.292436	0.388349	-0.000023
1782	1.7721e+02	2.2763	2.837141	0.000213	2.128691	0.360610	-0.000021
1783	1.7731e+02	2.2626	2.811886	0.000254	2.538055	0.429958	-0.000025
1784	1.7741e+02	2.2547	2.790296	0.000217	2.169627	0.367545	-0.000022
1785	1.7751e+02	2.2430	2.774817	0.000156	1.555582	0.263523	-0.000016
1786	1.7761e+02	2.2343	2.752006	0.000229	2.292436	0.388349	-0.000023
1787	1.7771e+02	2.2247	2.726344	0.000258	2.578991	0.436893	-0.000026
1788	1.7781e+02	2.2162	2.708013	0.000184	1.842136	0.312066	-0.000018
1789	1.7791e+02	2.2050	2.687646	0.000205	2.046818	0.346740	-0.000020
1790	1.7801e+02	2.1976	2.667279	0.000205	2.046818	0.346740	-0.000020
1791	1.7810e+02	2.1820	2.645283	0.000221	2.210564	0.374480	-0.000022
1792	1.7820e+02	2.1712	2.622471	0.000229	2.292436	0.388349	-0.000023
1793	1.7830e+02	2.1642	2.600068	0.000225	2.251500	0.381414	-0.000023
1794	1.7840e+02	2.1551	2.582144	0.000180	1.801200	0.305132	-0.000018
1795	1.7850e+02	2.1469	2.560148	0.000221	2.210564	0.374480	-0.000022
1796	1.7860e+02	2.1346	2.538966	0.000213	2.128691	0.360610	-0.000021
1797	1.7870e+02	2.1266	2.514118	0.000250	2.497118	0.423023	-0.000025
1798	1.7880e+02	2.1136	2.497010	0.000172	1.719327	0.291262	-0.000017
1799	1.7890e+02	2.1059	2.472569	0.000246	2.456182	0.416088	-0.000025
1800	1.7900e+02	2.0953	2.455054	0.000176	1.760264	0.298197	-0.000018
1801	1.7910e+02	2.0865	2.433057	0.000221	2.210564	0.374480	-0.000022
1802	1.7920e+02	2.0731	2.414727	0.000184	1.842136	0.312066	-0.000018
1803	1.7930e+02	2.0660	2.391101	0.000237	2.374309	0.402219	-0.000024
1804	1.7940e+02	2.0571	2.365846	0.000254	2.538055	0.429958	-0.000025
1805	1.7950e+02	2.0463	2.346293	0.000196	1.964946	0.332871	-0.000020
1806	1.7960e+02	2.0356	2.323482	0.000229	2.292436	0.388349	-0.000023
1807	1.7970e+02	2.0241	2.303115	0.000205	2.046818	0.346740	-0.000020
1808	1.7980e+02	2.0135	2.279082	0.000242	2.415246	0.409154	-0.000024
1809	1.7990e+02	2.0050	2.261566	0.000176	1.760264	0.298197	-0.000018
1810	1.8000e+02	1.9979	2.240384	0.000213	2.128691	0.360610	-0.000021
1811	1.8009e+02	1.9871	2.216758	0.000237	2.374309	0.402219	-0.000024
1812	1.8019e+02	1.9753	2.197206	0.000196	1.964946	0.332871	-0.000020
1813	1.8029e+02	1.9640	2.177246	0.000201	2.005882	0.339806	-0.000020
1814	1.8039e+02	1.9534	2.156064	0.000213	2.128691	0.360610	-0.000021
1815	1.8049e+02	1.9470	2.135697	0.000205	2.046818	0.346740	-0.000020
1816	1.8059e+02	1.9378	2.117367	0.000184	1.842136	0.312066	-0.000018
1817	1.8069e+02	1.9263	2.098629	0.000188	1.883073	0.319001	-0.000019
1818	1.8079e+02	1.9176	2.072966	0.000258	2.578991	0.436893	-0.000026
1819	1.8089e+02	1.9065	2.057895	0.000151	1.514645	0.256588	-0.000015
1820	1.8099e+02	1.8937	2.036713	0.000213	2.128691	0.360610	-0.000021
1821	1.8109e+02	1.8864	2.014309	0.000225	2.251500	0.381414	-0.000023
1822	1.8119e+02	1.8769	1.994756	0.000196	1.964946	0.332871	-0.000020
1823	1.8129e+02	1.8692	1.973575	0.000213	2.128691	0.360610	-0.000021
1824	1.8139e+02	1.8568	1.955244	0.000184	1.842136	0.312066	-0.000018
1825	1.8149e+02	1.8448	1.935692	0.000196	1.964946	0.332871	-0.000020
1826	1.8159e+02	1.8359	1.918991	0.000168	1.678391	0.284327	-0.000017
1827	1.8169e+02	1.8256	1.903919	0.000151	1.514645	0.256588	-0.000015
1828	1.8179e+02	1.8159	1.880701	0.000233	2.333373	0.395284	-0.000023
1829	1.8189e+02	1.8063	1.866851	0.000139	1.391836	0.235783	-0.000014
1830	1.8199e+02	1.7938	1.845669	0.000213	2.128691	0.360610	-0.000021
1831	1.8209e+02	1.7838	1.825709	0.000201	2.005882	0.339806	-0.000020
1832	1.8218e+02	1.7804	1.803305	0.000225	2.251500	0.381414	-0.000023
1833	1.8228e+02	1.7693	1.786604	0.000168	1.678391	0.284327	-0.000017
1834	1.8238e+02	1.7577	1.766645	0.000201	2.005882	0.339806	-0.000020
1835	1.8248e+02	1.7467	1.743426	0.000233	2.333373	0.395284	-0.000023
1836	1.8258e+02	1.7376	1.727947	0.000156	1.555582	0.263523	-0.000016
1837	1.8268e+02	1.7281	1.702692	0.000254	2.538055	0.429958	-0.000025
1838	1.8278e+02	1.7178	1.686806	0.000160	1.596518	0.270458	-0.000016
1839	1.8288e+02	1.7075	1.664402	0.000225	2.251500	0.381414	-0.000023
1840	1.8298e+02	1.6949	1.645257	0.000192	1.924009	0.325936	-0.000019
1841	1.8308e+02	1.6840	1.623260	0.000221	2.210564	0.374480	-0.000022
1842	1.8318e+02	1.6763	1.600449	0.000229	2.292436	0.388349	-0.000023
1843	1.8328e+02	1.6658	1.580082	0.000205	2.046818	0.346740	-0.000020
1844	1.8338e+02	1.6573	1.555641	0.000246	2.456182	0.416088	-0.000025
1845	1.8348e+02	1.6494	1.533645	0.000221	2.210564	0.374480	-0.000022
1846	1.8358e+02	1.6372	1.513685	0.000201	2.005882	0.339806	-0.000020
1847	1.8368e+02	1.6268	1.492096	0.000217	2.169627	0.367545	-0.000022
1848	1.8378e+02	1.6184	1.468470	0.000237	2.374309	0.402219	-0.000024
1849	1.8388e+02	1.6080	1.445251	0.000233	2.333373	0.395284	-0.000023
1850	1.8398e+02	1.5980	1.421626	0.000237	2.374309	0.402219	-0.000024
1851	1.8407e+02	1.5874	1.399222	0.000225	2.251500	0.381414	-0.000023
1852	1.8417e+02	1.5768	1.373559	0.000258	2.578991	0.436893	-0.000026
1853	1.8427e+02	1.5659	1.351155	0.000225	2.251500	0.381414	-0.000023
1854	1.8437e+02	1.5579	1.332010	0.000192	1.924009	0.325936	-0.000019
1855	1.8447e+02	1.5481	1.305126	0.000270	2.701800	0.457697	-0.000027
1856	1.8457e+02	1.5372	1.285573	0.000196	1.964946	0.332871	-0.000020
1857	1.8467e+02	1.5303	1.261947	0.000237	2.374309	0.402219	-0.000024
1858	1.8477e+02	1.5179	1.237099	0.000250	2.497118	0.423023	-0.000025
1859	1.8487e+02	1.5089	1.215103	0.000221	2.210564	0.374480	-0.000022
1860	1.8497e+02	1.4951	1.186996	0.000282	2.824609	0.478502	-0.000028
1861	1.8507e+02	1.4899	1.162556	0.000246	2.456182	0.416088	-0.000025
1862	1.8517e+02	1.4775	1.142596	0.000201	2.005882	0.339806	-0.000020
1863	1.8527e+02	1.4668	1.118970	0.000237	2.374309	0.402219	-0.000024
1864	1.8537e+02	1.4579	1.097788	0.000213	2.128691	0.360610	-0.000021
1865	1.8547e+02	1.4526	1.070089	0.000278	2.783673	0.471567	-0.000028
1866	1.8557e+02	1.4382	1.048907	0.000213	2.128691	0.360610	-0.000021
1867	1.8567e+02	1.4281	1.022430	0.000266	2.660864	0.450763	-0.000027
1868	1.8577e+02	1.4204	1.001248	0.000213	2.128691	0.360610	-0.000021
1869	1.8587e+02	1.4091	0.976400	0.000250	2.497118	0.423023	-0.000025
1870	1.8597e+02	1.3982	0.953589	0.000229	2.292436	0.388349	-0.000023
1871	1.8606e+02	1.3895	0.927112	0.000266	2.660864	0.450763	-0.000027
1872	1.8616e+02	1.3750	0.906745	0.000205	2.046818	0.346740	-0.000020
1873	1.8626e+02	1.3659	0.878231	0.000287	2.865546	0.485437	-0.000029
1874	1.8636e+02	1.3615	0.857049	0.000213	2.128691	0.360610	-0.000021
1875	1.8646e+02	1.3485	0.829349	0.000278	2.783673	0.471567	-0.000028
1876	1.8656e+02	1.3374	0.805316	0.000242	2.415246	0.409154	-0.000024
1877	1.8666e+02	1.3265	0.782098	0.000233	2.333373	0.395284	-0.000023
1878	1.8676e+02	1.3174	0.755620	0.000266	2.660864	0.450763	-0.000027
1879	1.8686e+02	1.3082	0.733624	0.000221	2.210564	0.374480	-0.000022
1880	1.8696e+02	1.2980	0.705925	0.000278	2.783673	0.471567	-0.000028
1881	1.8706e+02	1.2914	0.683928	0.000221	2.210564	0.374480	-0.000022
1882	1.8716e+02	1.2807	0.655822	0.000282	2.824609	0.478502	-0.000028
1883	1.8726e+02	1.2679	0.631788	0.000242	2.415246	0.409154	-0.000024
1884	1.8736e+02	1.2581	0.610606	0.000213	2.128691	0.360610	-0.000021
1885	1.8746e+02	1.2481	0.588203	0.000225	2.251500	0.381414	-0.000023
1886	1.8756e+02	1.2397	0.561318	0.000270	2.701800	0.457697	-0.000027
1887	1.8766e+02	1.2284	0.536063	0.000254	2.538055	0.429958	-0.000025
1888	1.8776e+02	1.2200	0.513659	0.000225	2.251500	0.381414	-0.000023
1889	1.8786e+02	1.2071	0.488811	0.000250	2.497118	0.423023	-0.000025
1890	1.8796e+02	1.1991	0.461519	0.000274	2.742736	0.464632	-0.000027
1891	1.8806e+02	1.1910	0.439523	0.000221	2.210564	0.374480	-0.000022
1892	1.8815e+02	1.1811	0.415489	0.000242	2.415246	0.409154	-0.000024
1893	1.8825e+02	1.1700	0.390234	0.000254	2.538055	0.429958	-0.000025
1894	1.8835e+02	1.1590	0.364572	0.000258	2.578991	0.436893	-0.000026
1895	1.8845e+02	1.1507	0.340946	0.000237	2.374309	0.402219	-0.000024
1896	1.8855e+02	1.1444	0.315283	0.000258	2.578991	0.436893	-0.000026
1897	1.8865e+02	1.1300	0.292065	0.000233	2.333373	0.395284	-0.000023
1898	1.8875e+02	1.1220	0.263551	0.000287	2.865546	0.485437	-0.000029
1899	1.8885e+02	1.1069	0.233407	0.000303	3.029291	0.513176	-0.000030
1900	1.8895e+02	1.1013	0.208152	0.000254	2.538055	0.429958	-0.000025
1901	1.8905e+02	1.0909	0.183304	0.000250	2.497118	0.423023	-0.000025
1902	1.8915e+02	1.0819	0.160900	0.000225	2.251500	0.381414	-0.000023
1903	1.8925e+02	1.0724	0.134016	0.000270	2.701800	0.457697	-0.000027
1904	1.8935e+02	1.0636	0.106316	0.000278	2.783673	0.471567	-0.000028
1905	1.8945e+02	1.0522	0.079432	0.000270	2.701800	0.457697	-0.000027
1906	1.8955e+02	1.0406	0.053769	0.000258	2.578991	0.436893	-0.000026
1907	1.8965e+02	1.0300	0.025663	0.000282	2.824609	0.478502	-0.000028
1908	1.8975e+02	1.0201	0.000407	0.000254	2.538055	0.429958	-0.000025
1909	1.8985e+02	1.0112	-0.030143	0.000307	3.070227	0.520111	-0.000031
1910	1.8995e+02	1.0011	-0.057843	0.000278	2.783673	0.471567	-0.000028
1911	1.9004e+02	0.9914	-0.086764	0.000291	2.906482	0.492371	-0.000029
1912	1.9014e+02	0.9805	-0.112834	0.000262	2.619927	0.443828	-0.000026
1913	1.9024e+02	0.9675	-0.139718	0.000270	2.701800	0.457697	-0.000027
1914	1.9034e+02	0.9628	-0.168640	0.000291	2.906482	0.492371	-0.000029
1915	1.9044e+02	0.9501	-0.193895	0.000254	2.538055	0.429958	-0.000025
1916	1.9054e+02	0.9428	-0.222002	0.000282	2.824609	0.478502	-0.000028
1917	1.9064e+02	0.9307	-0.246442	0.000246	2.456182	0.416088	-0.000025
1918	1.9074e+02	0.9241	-0.270883	0.000246	2.456182	0.416088	-0.000025
1919	1.9084e+02	0.9139	-0.300211	0.000295	2.947418	0.499306	-0.000029
1920	1.9094e+02	0.9015	-0.325874	0.000258	2.578991	0.436893	-0.000026
1921	1.9104e+02	0.8916	-0.353166	0.000274	2.742736	0.464632	-0.000027
1922	1.9114e+02	0.8831	-0.381273	0.000282	2.824609	0.478502	-0.000028
1923	1.9124e+02	0.8717	-0.406528	0.000254	2.538055	0.429958	-0.000025
1924	1.9134e+02	0.8604	-0.431376	0.000250	2.497118	0.423023	-0.000025
1925	1.9144e+02	0.8544	-0.456224	0.000250	2.497118	0.423023	-0.000025
1926	1.9154e+02	0.8386	-0.483108	0.000270	2.701800	0.457697	-0.000027
1927	1.9164e+02	0.8298	-0.509993	0.000270	2.701800	0.457697	-0.000027
1928	1.9174e+02	0.8235	-0.534026	0.000242	2.415246	0.409154	-0.000024
1929	1.9184e+02	0.8112	-0.555615	0.000217	2.169627	0.367545	-0.000022
1930	1.9194e+02	0.8013	-0.582907	0.000274	2.742736	0.464632	-0.000027
1931	1.9203e+02	0.7909	-0.604496	0.000217	2.169627	0.367545	-0.000022
1932	1.9213e+02	0.7817	-0.628530	0.000242	2.415246	0.409154	-0.000024
1933	1.9223e+02	0.7717	-0.654192	0.000258	2.578991	0.436893	-0.000026
1934	1.9233e+02	0.7616	-0.679040	0.000250	2.497118	0.423023	-0.000025
1935	1.9243e+02	0.7523	-0.702259	0.000233	2.333373	0.395284	-0.000023
1936	1.9253e+02	0.7437	-0.727514	0.000254	2.538055	0.429958	-0.000025
1937	1.9263e+02	0.7343	-0.748696	0.000213	2.128691	0.360610	-0.000021
1938	1.9273e+02	0.7248	-0.770692	0.000221	2.210564	0.374480	-0.000022
1939	1.9283e+02	0.7118	-0.798799	0.000282	2.824609	0.478502	-0.000028
1940	1.9293e+02	0.7038	-0.818759	0.000201	2.005882	0.339806	-0.000020
1941	1.9303e+02	0.6942	-0.844828	0.000262	2.619927	0.443828	-0.000026
1942	1.9313e+02	0.6822	-0.869269	0.000246	2.456182	0.416088	-0.000025
1943	1.9323e+02	0.6782	-0.890451	0.000213	2.128691	0.360610	-0.000021
1944	1.9333e+02	0.6619	-0.916113	0.000258	2.578991	0.436893	-0.000026
1945	1.9343e+02	0.6505	-0.942183	0.000262	2.619927	0.443828	-0.000026
1946	1.9353e+02	0.6409	-0.963772	0.000217	2.169627	0.367545	-0.000022
1947	1.9363e+02	0.6324	-0.985769	0.000221	2.210564	0.374480	-0.000022
1948	1.9373e+02	0.6224	-1.011024	0.000254	2.538055	0.429958	-0.000025
1949	1.9383e+02	0.6135	-1.030984	0.000201	2.005882	0.339806	-0.000020
1950	1.9393e+02	0.6036	-1.057054	0.000262	2.619927	0.443828	-0.000026
1951	1.9403e+02	0.5914	-1.078236	0.000213	2.128691	0.360610	-0.000021
1952	1.9412e+02	0.5865	-1.102269	0.000242	2.415246	0.409154	-0.000024
1953	1.9422e+02	0.5720	-1.125895	0.000237	2.374309	0.402219	-0.000024
1954	1.9432e+02	0.5630	-1.146669	0.000209	2.087755	0.353675	-0.000021
1955	1.9442e+02	0.5531	-1.171110	0.000246	2.456182	0.416088	-0.000025
1956	1.9452e+02	0.5412	-1.193921	0.000229	2.292436	0.388349	-0.000023
1957	1.9462e+02	0.5333	-1.219584	0.000258	2.578991	0.436893	-0.000026
1958	1.9472e+02	0.5236	-1.243209	0.000237	2.374309	0.402219	-0.000024
1959	1.9482e+02	0.5137	-1.263577	0.000205	2.046818	0.346740	-0.000020
1960	1.9492e+02	0.5014	-1.288017	0.000246	2.456182	0.416088	-0.000025
1961	1.9502e+02	0.4932	-1.314902	0.000270	2.701800	0.457697	-0.000027
1962	1.9512e+02	0.4830	-1.334862	0.000201	2.005882	0.339806	-0.000020
1963	1.9522e+02	0.4752	-1.356043	0.000213	2.128691	0.360610	-0.000021
1964	1.9532e+02	0.4620	-1.380484	0.000246	2.456182	0.416088	-0.000025
1965	1.9542e+02	0.4539	-1.405739	0.000254	2.538055	0.429958	-0.000025
1966	1.9552e+02	0.4417	-1.426514	0.000209	2.087755	0.353675	-0.000021
1967	1.9562e+02	0.4345	-1.447695	0.000213	2.128691	0.360610	-0.000021
1968	1.9572e+02	0.4214	-1.468063	0.000205	2.046818	0.346740	-0.000020
1969	1.9582e+02	0.4143	-1.494540	0.000266	2.660864	0.450763	-0.000027
1970	1.9592e+02	0.4023	-1.516536	0.000221	2.210564	0.374480	-0.000022
1971	1.9601e+02	0.3938	-1.538940	0.000225	2.251500	0.381414	-0.000023
1972	1.9611e+02	0.3851	-1.558900	0.000201	2.005882	0.339806	-0.000020
1973	1.9621e+02	0.3706	-1.586599	0.000278	2.783673	0.471567	-0.000028
1974	1.9631e+02	0.3634	-1.608596	0.000221	2.210564	0.374480	-0.000022
1975	1.9641e+02	0.3516	-1.637517	0.000291	2.906482	0.492371	-0.000029
1976	1.9651e+02	0.3445	-1.656255	0.000188	1.883073	0.319001	-0.000019
1977	1.9661e+02	0.3334	-1.678659	0.000225	2.251500	0.381414	-0.000023
1978	1.9671e+02	0.3249	-1.707173	0.000287	2.865546	0.485437	-0.000029
1979	1.9681e+02	0.3145	-1.724281	0.000172	1.719327	0.291262	-0.000017
1980	1.9691e+02	0.3016	-1.745055	0.000209	2.087755	0.353675	-0.000021
1981	1.9701e+02	0.2935	-1.773569	0.000287	2.865546	0.485437	-0.000029
1982	1.9711e+02	0.2847	-1.791085	0.000176	1.760264	0.298197	-0.000018
1983	1.9721e+02	0.2766	-1.810638	0.000196	1.964946	0.332871	-0.000020
1984	1.9731e+02	0.2649	-1.834264	0.000237	2.374309	0.402219	-0.000024
1985	1.9741e+02	0.2517	-1.853409	0.000192	1.924009	0.325936	-0.000019
1986	1.9751e+02	0.2428	-1.880293	0.000270	2.701800	0.457697	-0.000027
1987	1.9761e+02	0.2345	-1.899846	0.000196	1.964946	0.332871	-0.000020
1988	1.9771e+02	0.2235	-1.919398	0.000196	1.964946	0.332871	-0.000020
1989	1.9781e+02	0.2148	-1.944653	0.000254	2.538055	0.429958	-0.000025
1990	1.9791e+02	0.2034	-1.965835	0.000213	2.128691	0.360610	-0.000021
1991	1.9800e+02	0.1978	-1.985388	0.000196	1.964946	0.332871	-0.000020
1992	1.9810e+02	0.1860	-2.006569	0.000213	2.128691	0.360610	-0.000021
1993	1.9820e+02	0.1757	-2.027344	0.000209	2.087755	0.353675	-0.000021
1994	1.9830e+02	0.1639	-2.046082	0.000188	1.883073	0.319001	-0.000019
1995	1.9840e+02	0.1551	-2.064412	0.000184	1.842136	0.312066	-0.000018
1996	1.9850e+02	0.1466	-2.085187	0.000209	2.087755	0.353675	-0.000021
1997	1.9860e+02	0.1361	-2.107183	0.000221	2.210564	0.374480	-0.000022
1998	1.9870e+02	0.1257	-2.127550	0.000205	2.046818	0.346740	-0.000020
1999	1.9880e+02	0.1150	-2.149139	0.000217	2.169627	0.367545	-0.000022
2000	1.9890e+02	0.1040	-2.169914	0.000209	2.087755	0.353675	-0.000021
2001	1.9900e+02	0.0960	-2.194762	0.000250	2.497118	0.423023	-0.000025
2002	1.9910e+02	0.0853	-2.218388	0.000237	2.374309	0.402219	-0.000024
2003	1.9920e+02	0.0771	-2.235496	0.000172	1.719327	0.291262	-0.000017
2004	1.9930e+02	0.0643	-2.256678	0.000213	2.128691	0.360610	-0.000021
2005	1.9940e+02	0.0550	-2.281933	0.000254	2.538055	0.429958	-0.000025
2006	1.9950e+02	0.0442	-2.303929	0.000221	2.210564	0.374480	-0.000022
2007	1.9960e+02	0.0326	-2.322260	0.000184	1.842136	0.312066	-0.000018
2008	1.9970e+02	0.0258	-2.349959	0.000278	2.783673	0.471567	-0.000028
2009	1.9980e+02	0.0156	-2.370734	0.000209	2.087755	0.353675	-0.000021
2010	1.9990e+02	0.0069	-2.394360	0.000237	2.374309	0.402219	-0.000024
2011	2.0000e+02	-0.0024	-2.420429	0.000237	2.374309	0.402219	-0.000026

PMax (uC/cm2):	2.64e+01
Pr (uC/cm2):	1.16e+01
-Pr (uC/cm2):	0.00e+00
PLoss (uC/cm2):	0.00e+00
C (Max-Eff) (nF):	2.64e-01
K (Eff):	4.48e+02
Vert. (+/-Pr) Shift (uC/cm2):	5.79e+00
Offset (uC/cm2):	1.40e+01

A (Loop Area - uC/cm2·Volts):	-8.35e-02



Hysteresis Version: 5.48.1 - Radiant Technologies, Inc., 1999 - 9/12/24

