»»»»»»»»»»»»»»»»»»»»»»»»»»»»»»»»»»»» Hysteresis ««««««««««««««««««««««««««««««««««««
»»»  Executed Version:	5.48.1
»»»  Vision Version:	5.48.4 (R)
»»»  Vision Compiled:	9/18/24
»»»  Driver Version:	5.47.0
»»»  Windows Version:	Windows 8 or 8.1
»»»  Processor Information:	x86 (AMD or Intel) - 32 Processors
»»»  Tester Name:	PMF21124-494 (100V)
»»»  Tester S/N:	PMF21124-494
»»»  Internal Amp Type:	100V RevK 270k
»»»  Internal Amp S/N:	iAB2-596/K     
»»»  Execution Count:	1
»»»»»»»»»»»»»»»»»»»»»»»»»»»»»»»»»»»»»»»»»»««««««««««««««««««««««««««««««««««««««««««

Stored:	6/26/2025 - 14:34:6
Configured:	06/26/25 10:24:47 AM
Executed:	06/26/25 02:33:19 PM

»»»»»»»»»»»»»»»»»»»»»»»»»»»»»»»»»»» Sample Info ««««««««««««««««««««««««««««««««««««
Sample Name:	
Lot Name:	
Wafer Name:	
Die Row/Column:	0/0
Capacitor Number:	0
Sample Area (cm2):	1.00e-04
Sample Thickness (microns):	1.50e-01

Amplifier:	Internal

»»»»»»»»»»»»»»»»»»»»»»»»»»»»»»»»»»» Tester Info «««««««««««««««««««««««««««««««««««
Tester Name:	PMF21124-494 (100V)
Tester Serial Number:	PMF21124-494
Return Signal Amp. Level:	1.9 [Index: 2]

»»»»»»»»»»»»»»»»»»»»»»»»»»»»»»»» Hysteresis Info ««««««««««««««««««««««««««««««««««
Task Name:	Hyst-562
Volts:	10.00
Field:	666.67 (kV/cm)
DCBias:	0.00
DCField:	0.00 (kV/cm)
Hysteresis Period (ms):	2.00e+02
Preset:	Enabled
Preset Delay (ms):	1.00e+03
Profile:	Standard Monopolar

»»»»»»»»»»»»»»»»»»»»»»»»»»»»»»»»»»»»»» Data «««««««««««««««««««««««««««««««««««««««
Points:	2011

Valid Data

Point	Time (ms)	Drive Voltage	Measured Polarization (uC/cm2)	Capacitance (uF)	Normalized Capacitance (uF/cm2)	Dielectric Constant	Instantaneous Current (mA)
   1	0.0000e+00	-0.0061	-10.658118	0.000131	1.310219	0.221957	0.000013
   2	9.9500e-02	0.0060	-10.645083	0.000131	1.310219	0.221957	0.000013
   3	1.9900e-01	0.0161	-10.620235	0.000250	2.497604	0.423106	0.000025
   4	2.9850e-01	0.0271	-10.601090	0.000192	1.924384	0.325999	0.000019
   5	3.9800e-01	0.0354	-10.572169	0.000291	2.907047	0.492467	0.000029
   6	4.9750e-01	0.0468	-10.552616	0.000197	1.965328	0.332936	0.000020
   7	5.9700e-01	0.0554	-10.528176	0.000246	2.456660	0.416169	0.000025
   8	6.9650e-01	0.0658	-10.503735	0.000246	2.456660	0.416169	0.000025
   9	7.9600e-01	0.0736	-10.484997	0.000188	1.883439	0.319063	0.000019
  10	8.9550e-01	0.0860	-10.460964	0.000242	2.415715	0.409233	0.000024
  11	9.9500e-01	0.0958	-10.437338	0.000237	2.374771	0.402297	0.000024
  12	1.0945e+00	0.1048	-10.414527	0.000229	2.292882	0.388425	0.000023
  13	1.1940e+00	0.1140	-10.390901	0.000237	2.374771	0.402297	0.000024
  14	1.2935e+00	0.1267	-10.370534	0.000205	2.047217	0.346808	0.000020
  15	1.3930e+00	0.1364	-10.348538	0.000221	2.210994	0.374552	0.000022
  16	1.4925e+00	0.1431	-10.321653	0.000270	2.702326	0.457786	0.000027
  17	1.5920e+00	0.1562	-10.302508	0.000192	1.924384	0.325999	0.000019
  18	1.6915e+00	0.1645	-10.280104	0.000225	2.251938	0.381489	0.000023
  19	1.7910e+00	0.1743	-10.256478	0.000237	2.374771	0.402297	0.000024
  20	1.8905e+00	0.1847	-10.235296	0.000213	2.129105	0.360680	0.000021
  21	1.9900e+00	0.1955	-10.211263	0.000242	2.415715	0.409233	0.000024
  22	2.0895e+00	0.2043	-10.184378	0.000270	2.702326	0.457786	0.000027
  23	2.1890e+00	0.2155	-10.167677	0.000168	1.678718	0.284382	0.000017
  24	2.2885e+00	0.2267	-10.144866	0.000229	2.292882	0.388425	0.000023
  25	2.3880e+00	0.2353	-10.115945	0.000291	2.907047	0.492467	0.000029
  26	2.4875e+00	0.2444	-10.098837	0.000172	1.719662	0.291319	0.000017
  27	2.5870e+00	0.2532	-10.074803	0.000242	2.415715	0.409233	0.000024
  28	2.6865e+00	0.2625	-10.053622	0.000213	2.129105	0.360680	0.000021
  29	2.7860e+00	0.2711	-10.026330	0.000274	2.743270	0.464723	0.000027
  30	2.8855e+00	0.2828	-10.006370	0.000201	2.006272	0.339872	0.000020
  31	2.9850e+00	0.2956	-9.987225	0.000192	1.924384	0.325999	0.000019
  32	3.0845e+00	0.3044	-9.959118	0.000283	2.825159	0.478595	0.000028
  33	3.1840e+00	0.3177	-9.937529	0.000217	2.170050	0.367616	0.000022
  34	3.2835e+00	0.3236	-9.914310	0.000233	2.333827	0.395361	0.000023
  35	3.3830e+00	0.3326	-9.893536	0.000209	2.088161	0.353744	0.000021
  36	3.4825e+00	0.3436	-9.873576	0.000201	2.006272	0.339872	0.000020
  37	3.5820e+00	0.3525	-9.849136	0.000246	2.456660	0.416169	0.000025
  38	3.6815e+00	0.3627	-9.823880	0.000254	2.538548	0.430042	0.000025
  39	3.7810e+00	0.3761	-9.807179	0.000168	1.678718	0.284382	0.000017
  40	3.8805e+00	0.3830	-9.780702	0.000266	2.661381	0.450850	0.000027
  41	3.9800e+00	0.3928	-9.757891	0.000229	2.292882	0.388425	0.000023
  42	4.0795e+00	0.4037	-9.735487	0.000225	2.251938	0.381489	0.000023
  43	4.1790e+00	0.4149	-9.710639	0.000250	2.497604	0.423106	0.000025
  44	4.2785e+00	0.4224	-9.689457	0.000213	2.129105	0.360680	0.000021
  45	4.3780e+00	0.4322	-9.667461	0.000221	2.210994	0.374552	0.000022
  46	4.4775e+00	0.4443	-9.647094	0.000205	2.047217	0.346808	0.000020
  47	4.5770e+00	0.4533	-9.617765	0.000295	2.947992	0.499403	0.000029
  48	4.6765e+00	0.4626	-9.598620	0.000192	1.924384	0.325999	0.000019
  49	4.7760e+00	0.4742	-9.573772	0.000250	2.497604	0.423106	0.000025
  50	4.8755e+00	0.4829	-9.555849	0.000180	1.801551	0.305191	0.000018
  51	4.9750e+00	0.4911	-9.533445	0.000225	2.251938	0.381489	0.000023
  52	5.0745e+00	0.5051	-9.511041	0.000225	2.251938	0.381489	0.000023
  53	5.1740e+00	0.5114	-9.488230	0.000229	2.292882	0.388425	0.000023
  54	5.2735e+00	0.5255	-9.463382	0.000250	2.497604	0.423106	0.000025
  55	5.3730e+00	0.5333	-9.440164	0.000233	2.333827	0.395361	0.000023
  56	5.4725e+00	0.5425	-9.417352	0.000229	2.292882	0.388425	0.000023
  57	5.5720e+00	0.5556	-9.396171	0.000213	2.129105	0.360680	0.000021
  58	5.6715e+00	0.5629	-9.371323	0.000250	2.497604	0.423106	0.000025
  59	5.7710e+00	0.5722	-9.346882	0.000246	2.456660	0.416169	0.000025
  60	5.8705e+00	0.5834	-9.324478	0.000225	2.251938	0.381489	0.000023
  61	5.9700e+00	0.5925	-9.304111	0.000205	2.047217	0.346808	0.000020
  62	6.0695e+00	0.6049	-9.283337	0.000209	2.088161	0.353744	0.000021
  63	6.1690e+00	0.6160	-9.265414	0.000180	1.801551	0.305191	0.000018
  64	6.2685e+00	0.6217	-9.238529	0.000270	2.702326	0.457786	0.000027
  65	6.3680e+00	0.6316	-9.215311	0.000233	2.333827	0.395361	0.000023
  66	6.4675e+00	0.6423	-9.192907	0.000225	2.251938	0.381489	0.000023
  67	6.5670e+00	0.6540	-9.172132	0.000209	2.088161	0.353744	0.000021
  68	6.6665e+00	0.6622	-9.145248	0.000270	2.702326	0.457786	0.000027
  69	6.7660e+00	0.6727	-9.128139	0.000172	1.719662	0.291319	0.000017
  70	6.8655e+00	0.6807	-9.101255	0.000270	2.702326	0.457786	0.000027
  71	6.9650e+00	0.6930	-9.077629	0.000237	2.374771	0.402297	0.000024
  72	7.0645e+00	0.7034	-9.059298	0.000184	1.842495	0.312127	0.000018
  73	7.1640e+00	0.7152	-9.032821	0.000266	2.661381	0.450850	0.000027
  74	7.2635e+00	0.7201	-9.010010	0.000229	2.292882	0.388425	0.000023
  75	7.3630e+00	0.7304	-8.981089	0.000291	2.907047	0.492467	0.000029
  76	7.4625e+00	0.7427	-8.955833	0.000254	2.538548	0.430042	0.000025
  77	7.5620e+00	0.7529	-8.937910	0.000180	1.801551	0.305191	0.000018
  78	7.6615e+00	0.7626	-8.916321	0.000217	2.170050	0.367616	0.000022
  79	7.7610e+00	0.7732	-8.894325	0.000221	2.210994	0.374552	0.000022
  80	7.8605e+00	0.7826	-8.866625	0.000278	2.784214	0.471659	0.000028
  81	7.9600e+00	0.7888	-8.846258	0.000205	2.047217	0.346808	0.000020
  82	8.0595e+00	0.8026	-8.827520	0.000188	1.883439	0.319063	0.000019
  83	8.1590e+00	0.8112	-8.800228	0.000274	2.743270	0.464723	0.000027
  84	8.2585e+00	0.8220	-8.783935	0.000164	1.637773	0.277446	0.000016
  85	8.3580e+00	0.8324	-8.759494	0.000246	2.456660	0.416169	0.000025
  86	8.4575e+00	0.8431	-8.729758	0.000299	2.988936	0.506339	0.000030
  87	8.5570e+00	0.8530	-8.711020	0.000188	1.883439	0.319063	0.000019
  88	8.6565e+00	0.8624	-8.691468	0.000197	1.965328	0.332936	0.000020
  89	8.7560e+00	0.8721	-8.665398	0.000262	2.620437	0.443914	0.000026
  90	8.8555e+00	0.8823	-8.644216	0.000213	2.129105	0.360680	0.000021
  91	8.9550e+00	0.8936	-8.623442	0.000209	2.088161	0.353744	0.000021
  92	9.0545e+00	0.8996	-8.598187	0.000254	2.538548	0.430042	0.000025
  93	9.1540e+00	0.9100	-8.579856	0.000184	1.842495	0.312127	0.000018
  94	9.2535e+00	0.9204	-8.555823	0.000242	2.415715	0.409233	0.000024
  95	9.3530e+00	0.9283	-8.542788	0.000131	1.310219	0.221957	0.000013
  96	9.4525e+00	0.9420	-8.516311	0.000266	2.661381	0.450850	0.000027
  97	9.5520e+00	0.9522	-8.493092	0.000233	2.333827	0.395361	0.000023
  98	9.6515e+00	0.9625	-8.473540	0.000197	1.965328	0.332936	0.000020
  99	9.7510e+00	0.9734	-8.453173	0.000205	2.047217	0.346808	0.000020
 100	9.8505e+00	0.9793	-8.429547	0.000237	2.374771	0.402297	0.000024
 101	9.9500e+00	0.9905	-8.400218	0.000295	2.947992	0.499403	0.000029
 102	1.0050e+01	1.0019	-8.378629	0.000217	2.170050	0.367616	0.000022
 103	1.0149e+01	1.0138	-8.358669	0.000201	2.006272	0.339872	0.000020
 104	1.0248e+01	1.0198	-8.332599	0.000262	2.620437	0.443914	0.000026
 105	1.0348e+01	1.0310	-8.317120	0.000156	1.555885	0.263574	0.000016
 106	1.0447e+01	1.0400	-8.292272	0.000250	2.497604	0.423106	0.000025
 107	1.0547e+01	1.0476	-8.270683	0.000217	2.170050	0.367616	0.000022
 108	1.0646e+01	1.0595	-8.245428	0.000254	2.538548	0.430042	0.000025
 109	1.0746e+01	1.0690	-8.223024	0.000225	2.251938	0.381489	0.000023
 110	1.0845e+01	1.0808	-8.203879	0.000192	1.924384	0.325999	0.000019
 111	1.0945e+01	1.0904	-8.175772	0.000283	2.825159	0.478595	0.000028
 112	1.1044e+01	1.0977	-8.158257	0.000176	1.760606	0.298255	0.000018
 113	1.1144e+01	1.1095	-8.134223	0.000242	2.415715	0.409233	0.000024
 114	1.1243e+01	1.1197	-8.110598	0.000237	2.374771	0.402297	0.000024
 115	1.1343e+01	1.1301	-8.092267	0.000184	1.842495	0.312127	0.000018
 116	1.1443e+01	1.1381	-8.065790	0.000266	2.661381	0.450850	0.000027
 117	1.1542e+01	1.1488	-8.042979	0.000229	2.292882	0.388425	0.000023
 118	1.1642e+01	1.1592	-8.019353	0.000237	2.374771	0.402297	0.000024
 119	1.1741e+01	1.1709	-8.002652	0.000168	1.678718	0.284382	0.000017
 120	1.1841e+01	1.1785	-7.977397	0.000254	2.538548	0.430042	0.000025
 121	1.1940e+01	1.1910	-7.955807	0.000217	2.170050	0.367616	0.000022
 122	1.2040e+01	1.1981	-7.927701	0.000283	2.825159	0.478595	0.000028
 123	1.2139e+01	1.2099	-7.911000	0.000168	1.678718	0.284382	0.000017
 124	1.2239e+01	1.2190	-7.890633	0.000205	2.047217	0.346808	0.000020
 125	1.2338e+01	1.2298	-7.863341	0.000274	2.743270	0.464723	0.000027
 126	1.2438e+01	1.2401	-7.842159	0.000213	2.129105	0.360680	0.000021
 127	1.2537e+01	1.2505	-7.822199	0.000201	2.006272	0.339872	0.000020
 128	1.2636e+01	1.2584	-7.801832	0.000205	2.047217	0.346808	0.000020
 129	1.2736e+01	1.2708	-7.779835	0.000221	2.210994	0.374552	0.000022
 130	1.2835e+01	1.2773	-7.759468	0.000205	2.047217	0.346808	0.000020
 131	1.2935e+01	1.2891	-7.736657	0.000229	2.292882	0.388425	0.000023
 132	1.3034e+01	1.2997	-7.710994	0.000258	2.579493	0.436978	0.000026
 133	1.3134e+01	1.3086	-7.692664	0.000184	1.842495	0.312127	0.000018
 134	1.3233e+01	1.3203	-7.664150	0.000287	2.866103	0.485531	0.000029
 135	1.3333e+01	1.3285	-7.645820	0.000184	1.842495	0.312127	0.000018
 136	1.3432e+01	1.3380	-7.620157	0.000258	2.579493	0.436978	0.000026
 137	1.3532e+01	1.3493	-7.596939	0.000233	2.333827	0.395361	0.000023
 138	1.3632e+01	1.3599	-7.577386	0.000197	1.965328	0.332936	0.000020
 139	1.3731e+01	1.3686	-7.554982	0.000225	2.251938	0.381489	0.000023
 140	1.3831e+01	1.3783	-7.532986	0.000221	2.210994	0.374552	0.000022
 141	1.3930e+01	1.3909	-7.509360	0.000237	2.374771	0.402297	0.000024
 142	1.4030e+01	1.3987	-7.488993	0.000205	2.047217	0.346808	0.000020
 143	1.4129e+01	1.4088	-7.462923	0.000262	2.620437	0.443914	0.000026
 144	1.4229e+01	1.4201	-7.444185	0.000188	1.883439	0.319063	0.000019
 145	1.4328e+01	1.4286	-7.420967	0.000233	2.333827	0.395361	0.000023
 146	1.4428e+01	1.4407	-7.401007	0.000201	2.006272	0.339872	0.000020
 147	1.4527e+01	1.4468	-7.374937	0.000262	2.620437	0.443914	0.000026
 148	1.4627e+01	1.4575	-7.354977	0.000201	2.006272	0.339872	0.000020
 149	1.4726e+01	1.4668	-7.331759	0.000233	2.333827	0.395361	0.000023
 150	1.4825e+01	1.4774	-7.309355	0.000225	2.251938	0.381489	0.000023
 151	1.4925e+01	1.4883	-7.283285	0.000262	2.620437	0.443914	0.000026
 152	1.5024e+01	1.5002	-7.264547	0.000188	1.883439	0.319063	0.000019
 153	1.5124e+01	1.5082	-7.242143	0.000225	2.251938	0.381489	0.000023
 154	1.5223e+01	1.5190	-7.222183	0.000201	2.006272	0.339872	0.000020
 155	1.5323e+01	1.5295	-7.199372	0.000229	2.292882	0.388425	0.000023
 156	1.5422e+01	1.5376	-7.178598	0.000209	2.088161	0.353744	0.000021
 157	1.5522e+01	1.5488	-7.152121	0.000266	2.661381	0.450850	0.000027
 158	1.5621e+01	1.5599	-7.133790	0.000184	1.842495	0.312127	0.000018
 159	1.5721e+01	1.5690	-7.113423	0.000205	2.047217	0.346808	0.000020
 160	1.5820e+01	1.5775	-7.093463	0.000201	2.006272	0.339872	0.000020
 161	1.5920e+01	1.5872	-7.069430	0.000242	2.415715	0.409233	0.000024
 162	1.6020e+01	1.5932	-7.045804	0.000237	2.374771	0.402297	0.000024
 163	1.6119e+01	1.6084	-7.021771	0.000242	2.415715	0.409233	0.000024
 164	1.6218e+01	1.6155	-7.002218	0.000197	1.965328	0.332936	0.000020
 165	1.6318e+01	1.6277	-6.973704	0.000287	2.866103	0.485531	0.000029
 166	1.6418e+01	1.6367	-6.952523	0.000213	2.129105	0.360680	0.000021
 167	1.6517e+01	1.6468	-6.936229	0.000164	1.637773	0.277446	0.000016
 168	1.6616e+01	1.6589	-6.913418	0.000229	2.292882	0.388425	0.000023
 169	1.6716e+01	1.6683	-6.888977	0.000246	2.456660	0.416169	0.000025
 170	1.6816e+01	1.6799	-6.866981	0.000221	2.210994	0.374552	0.000022
 171	1.6915e+01	1.6879	-6.850280	0.000168	1.678718	0.284382	0.000017
 172	1.7015e+01	1.6946	-6.824617	0.000258	2.579493	0.436978	0.000026
 173	1.7114e+01	1.7052	-6.800991	0.000237	2.374771	0.402297	0.000024
 174	1.7213e+01	1.7170	-6.781846	0.000192	1.924384	0.325999	0.000019
 175	1.7313e+01	1.7263	-6.753740	0.000283	2.825159	0.478595	0.000028
 176	1.7413e+01	1.7372	-6.730928	0.000229	2.292882	0.388425	0.000023
 177	1.7512e+01	1.7449	-6.710969	0.000201	2.006272	0.339872	0.000020
 178	1.7611e+01	1.7590	-6.683677	0.000274	2.743270	0.464723	0.000027
 179	1.7711e+01	1.7660	-6.660458	0.000233	2.333827	0.395361	0.000023
 180	1.7811e+01	1.7766	-6.642128	0.000184	1.842495	0.312127	0.000018
 181	1.7910e+01	1.7859	-6.617280	0.000250	2.497604	0.423106	0.000025
 182	1.8009e+01	1.7962	-6.595283	0.000221	2.210994	0.374552	0.000022
 183	1.8109e+01	1.8095	-6.575731	0.000197	1.965328	0.332936	0.000020
 184	1.8209e+01	1.8156	-6.548846	0.000270	2.702326	0.457786	0.000027
 185	1.8308e+01	1.8269	-6.527664	0.000213	2.129105	0.360680	0.000021
 186	1.8407e+01	1.8375	-6.506890	0.000209	2.088161	0.353744	0.000021
 187	1.8507e+01	1.8475	-6.483671	0.000233	2.333827	0.395361	0.000023
 188	1.8607e+01	1.8562	-6.460453	0.000233	2.333827	0.395361	0.000023
 189	1.8706e+01	1.8642	-6.439678	0.000209	2.088161	0.353744	0.000021
 190	1.8805e+01	1.8777	-6.416867	0.000229	2.292882	0.388425	0.000023
 191	1.8905e+01	1.8851	-6.392427	0.000246	2.456660	0.416169	0.000025
 192	1.9005e+01	1.8956	-6.375318	0.000172	1.719662	0.291319	0.000017
 193	1.9104e+01	1.9086	-6.350063	0.000254	2.538548	0.430042	0.000025
 194	1.9203e+01	1.9166	-6.327659	0.000225	2.251938	0.381489	0.000023
 195	1.9303e+01	1.9263	-6.304441	0.000233	2.333827	0.395361	0.000023
 196	1.9402e+01	1.9363	-6.285703	0.000188	1.883439	0.319063	0.000019
 197	1.9502e+01	1.9381	-6.262077	0.000237	2.374771	0.402297	0.000024
 198	1.9602e+01	1.9540	-6.239673	0.000225	2.251938	0.381489	0.000023
 199	1.9701e+01	1.9656	-6.216862	0.000229	2.292882	0.388425	0.000023
 200	1.9800e+01	1.9775	-6.196495	0.000205	2.047217	0.346808	0.000020
 201	1.9900e+01	1.9871	-6.172869	0.000237	2.374771	0.402297	0.000024
 202	2.0000e+01	1.9952	-6.148021	0.000250	2.497604	0.423106	0.000025
 203	2.0099e+01	2.0052	-6.130098	0.000180	1.801551	0.305191	0.000018
 204	2.0198e+01	2.0138	-6.105658	0.000246	2.456660	0.416169	0.000025
 205	2.0298e+01	2.0258	-6.084476	0.000213	2.129105	0.360680	0.000021
 206	2.0398e+01	2.0356	-6.060850	0.000237	2.374771	0.402297	0.000024
 207	2.0497e+01	2.0450	-6.038853	0.000221	2.210994	0.374552	0.000022
 208	2.0596e+01	2.0581	-6.019708	0.000192	1.924384	0.325999	0.000019
 209	2.0696e+01	2.0668	-5.995675	0.000242	2.415715	0.409233	0.000024
 210	2.0796e+01	2.0720	-5.976123	0.000197	1.965328	0.332936	0.000020
 211	2.0895e+01	2.0854	-5.951275	0.000250	2.497604	0.423106	0.000025
 212	2.0994e+01	2.0956	-5.926427	0.000250	2.497604	0.423106	0.000025
 213	2.1094e+01	2.1056	-5.906467	0.000201	2.006272	0.339872	0.000020
 214	2.1194e+01	2.1140	-5.882434	0.000242	2.415715	0.409233	0.000024
 215	2.1293e+01	2.1241	-5.860845	0.000217	2.170050	0.367616	0.000022
 216	2.1392e+01	2.1354	-5.840070	0.000209	2.088161	0.353744	0.000021
 217	2.1492e+01	2.1464	-5.816444	0.000237	2.374771	0.402297	0.000024
 218	2.1591e+01	2.1549	-5.794855	0.000217	2.170050	0.367616	0.000022
 219	2.1691e+01	2.1653	-5.771229	0.000237	2.374771	0.402297	0.000024
 220	2.1791e+01	2.1763	-5.749640	0.000217	2.170050	0.367616	0.000022
 221	2.1890e+01	2.1855	-5.730088	0.000197	1.965328	0.332936	0.000020
 222	2.1989e+01	2.1944	-5.708906	0.000213	2.129105	0.360680	0.000021
 223	2.2089e+01	2.2056	-5.688539	0.000205	2.047217	0.346808	0.000020
 224	2.2189e+01	2.2166	-5.664913	0.000237	2.374771	0.402297	0.000024
 225	2.2288e+01	2.2218	-5.641694	0.000233	2.333827	0.395361	0.000023
 226	2.2387e+01	2.2323	-5.622142	0.000197	1.965328	0.332936	0.000020
 227	2.2487e+01	2.2463	-5.594443	0.000278	2.784214	0.471659	0.000028
 228	2.2587e+01	2.2514	-5.577742	0.000168	1.678718	0.284382	0.000017
 229	2.2686e+01	2.2649	-5.552486	0.000254	2.538548	0.430042	0.000025
 230	2.2785e+01	2.2737	-5.534156	0.000184	1.842495	0.312127	0.000018
 231	2.2885e+01	2.2833	-5.509308	0.000250	2.497604	0.423106	0.000025
 232	2.2985e+01	2.2941	-5.489756	0.000197	1.965328	0.332936	0.000020
 233	2.3084e+01	2.3064	-5.466130	0.000237	2.374771	0.402297	0.000024
 234	2.3183e+01	2.3127	-5.445355	0.000209	2.088161	0.353744	0.000021
 235	2.3283e+01	2.3260	-5.424988	0.000205	2.047217	0.346808	0.000020
 236	2.3383e+01	2.3351	-5.402177	0.000229	2.292882	0.388425	0.000023
 237	2.3482e+01	2.3444	-5.378144	0.000242	2.415715	0.409233	0.000024
 238	2.3581e+01	2.3547	-5.357369	0.000209	2.088161	0.353744	0.000021
 239	2.3681e+01	2.3639	-5.337002	0.000205	2.047217	0.346808	0.000020
 240	2.3780e+01	2.3720	-5.313376	0.000237	2.374771	0.402297	0.000024
 241	2.3880e+01	2.3826	-5.286492	0.000270	2.702326	0.457786	0.000027
 242	2.3980e+01	2.3954	-5.264088	0.000225	2.251938	0.381489	0.000023
 243	2.4079e+01	2.4039	-5.241277	0.000229	2.292882	0.388425	0.000023
 244	2.4178e+01	2.4130	-5.216429	0.000250	2.497604	0.423106	0.000025
 245	2.4278e+01	2.4259	-5.195654	0.000209	2.088161	0.353744	0.000021
 246	2.4378e+01	2.4327	-5.171621	0.000242	2.415715	0.409233	0.000024
 247	2.4477e+01	2.4416	-5.152883	0.000188	1.883439	0.319063	0.000019
 248	2.4576e+01	2.4520	-5.132516	0.000205	2.047217	0.346808	0.000020
 249	2.4676e+01	2.4613	-5.111742	0.000209	2.088161	0.353744	0.000021
 250	2.4776e+01	2.4738	-5.089338	0.000225	2.251938	0.381489	0.000023
 251	2.4875e+01	2.4839	-5.071415	0.000180	1.801551	0.305191	0.000018
 252	2.4974e+01	2.4913	-5.044123	0.000274	2.743270	0.464723	0.000027
 253	2.5074e+01	2.5034	-5.023756	0.000205	2.047217	0.346808	0.000020
 254	2.5174e+01	2.5124	-4.997278	0.000266	2.661381	0.450850	0.000027
 255	2.5273e+01	2.5233	-4.978541	0.000188	1.883439	0.319063	0.000019
 256	2.5372e+01	2.5349	-4.957359	0.000213	2.129105	0.360680	0.000021
 257	2.5472e+01	2.5430	-4.934955	0.000225	2.251938	0.381489	0.000023
 258	2.5572e+01	2.5544	-4.915810	0.000192	1.924384	0.325999	0.000019
 259	2.5671e+01	2.5625	-4.897887	0.000180	1.801551	0.305191	0.000018
 260	2.5770e+01	2.5739	-4.872632	0.000254	2.538548	0.430042	0.000025
 261	2.5870e+01	2.5865	-4.855116	0.000176	1.760606	0.298255	0.000018
 262	2.5970e+01	2.5912	-4.833934	0.000213	2.129105	0.360680	0.000021
 263	2.6069e+01	2.6014	-4.814789	0.000192	1.924384	0.325999	0.000019
 264	2.6169e+01	2.6134	-4.791163	0.000237	2.374771	0.402297	0.000024
 265	2.6268e+01	2.6212	-4.769167	0.000221	2.210994	0.374552	0.000022
 266	2.6367e+01	2.6331	-4.749614	0.000197	1.965328	0.332936	0.000020
 267	2.6467e+01	2.6470	-4.725581	0.000242	2.415715	0.409233	0.000024
 268	2.6567e+01	2.6537	-4.705621	0.000201	2.006272	0.339872	0.000020
 269	2.6666e+01	2.6647	-4.683625	0.000221	2.210994	0.374552	0.000022
 270	2.6765e+01	2.6737	-4.665702	0.000180	1.801551	0.305191	0.000018
 271	2.6865e+01	2.6846	-4.643705	0.000221	2.210994	0.374552	0.000022
 272	2.6965e+01	2.6924	-4.619265	0.000246	2.456660	0.416169	0.000025
 273	2.7064e+01	2.7038	-4.593195	0.000262	2.620437	0.443914	0.000026
 274	2.7163e+01	2.7124	-4.573235	0.000201	2.006272	0.339872	0.000020
 275	2.7263e+01	2.7194	-4.551238	0.000221	2.210994	0.374552	0.000022
 276	2.7363e+01	2.7332	-4.532093	0.000192	1.924384	0.325999	0.000019
 277	2.7462e+01	2.7407	-4.511726	0.000205	2.047217	0.346808	0.000020
 278	2.7561e+01	2.7551	-4.486878	0.000250	2.497604	0.423106	0.000025
 279	2.7661e+01	2.7633	-4.468548	0.000184	1.842495	0.312127	0.000018
 280	2.7761e+01	2.7722	-4.442071	0.000266	2.661381	0.450850	0.000027
 281	2.7860e+01	2.7831	-4.424962	0.000172	1.719662	0.291319	0.000017
 282	2.7959e+01	2.7923	-4.404595	0.000205	2.047217	0.346808	0.000020
 283	2.8059e+01	2.8016	-4.378932	0.000258	2.579493	0.436978	0.000026
 284	2.8159e+01	2.8102	-4.358158	0.000209	2.088161	0.353744	0.000021
 285	2.8258e+01	2.8202	-4.339013	0.000192	1.924384	0.325999	0.000019
 286	2.8358e+01	2.8326	-4.316202	0.000229	2.292882	0.388425	0.000023
 287	2.8457e+01	2.8408	-4.292983	0.000233	2.333827	0.395361	0.000023
 288	2.8556e+01	2.8522	-4.270172	0.000229	2.292882	0.388425	0.000023
 289	2.8656e+01	2.8624	-4.249397	0.000209	2.088161	0.353744	0.000021
 290	2.8756e+01	2.8712	-4.227401	0.000221	2.210994	0.374552	0.000022
 291	2.8855e+01	2.8839	-4.207849	0.000197	1.965328	0.332936	0.000020
 292	2.8954e+01	2.8909	-4.188296	0.000197	1.965328	0.332936	0.000020
 293	2.9054e+01	2.9029	-4.164670	0.000237	2.374771	0.402297	0.000024
 294	2.9154e+01	2.9116	-4.142674	0.000221	2.210994	0.374552	0.000022
 295	2.9253e+01	2.9204	-4.121899	0.000209	2.088161	0.353744	0.000021
 296	2.9352e+01	2.9295	-4.099088	0.000229	2.292882	0.388425	0.000023
 297	2.9452e+01	2.9398	-4.081572	0.000176	1.760606	0.298255	0.000018
 298	2.9552e+01	2.9494	-4.057539	0.000242	2.415715	0.409233	0.000024
 299	2.9651e+01	2.9622	-4.036357	0.000213	2.129105	0.360680	0.000021
 300	2.9750e+01	2.9713	-4.015990	0.000205	2.047217	0.346808	0.000020
 301	2.9850e+01	2.9800	-3.993994	0.000221	2.210994	0.374552	0.000022
 302	2.9950e+01	2.9923	-3.972812	0.000213	2.129105	0.360680	0.000021
 303	3.0049e+01	3.0057	-3.947964	0.000250	2.497604	0.423106	0.000025
 304	3.0148e+01	3.0132	-3.928004	0.000201	2.006272	0.339872	0.000020
 305	3.0248e+01	3.0210	-3.907637	0.000205	2.047217	0.346808	0.000020
 306	3.0348e+01	3.0300	-3.884419	0.000233	2.333827	0.395361	0.000023
 307	3.0447e+01	3.0403	-3.865681	0.000188	1.883439	0.319063	0.000019
 308	3.0547e+01	3.0476	-3.839611	0.000262	2.620437	0.443914	0.000026
 309	3.0646e+01	3.0601	-3.823317	0.000164	1.637773	0.277446	0.000016
 310	3.0745e+01	3.0698	-3.800913	0.000225	2.251938	0.381489	0.000023
 311	3.0845e+01	3.0807	-3.779732	0.000213	2.129105	0.360680	0.000021
 312	3.0945e+01	3.0905	-3.759772	0.000201	2.006272	0.339872	0.000020
 313	3.1044e+01	3.0999	-3.736961	0.000229	2.292882	0.388425	0.000023
 314	3.1143e+01	3.1121	-3.712927	0.000242	2.415715	0.409233	0.000024
 315	3.1243e+01	3.1198	-3.692560	0.000205	2.047217	0.346808	0.000020
 316	3.1343e+01	3.1319	-3.668527	0.000242	2.415715	0.409233	0.000024
 317	3.1442e+01	3.1422	-3.648567	0.000201	2.006272	0.339872	0.000020
 318	3.1541e+01	3.1506	-3.626571	0.000221	2.210994	0.374552	0.000022
 319	3.1641e+01	3.1606	-3.604167	0.000225	2.251938	0.381489	0.000023
 320	3.1741e+01	3.1673	-3.582578	0.000217	2.170050	0.367616	0.000022
 321	3.1840e+01	3.1810	-3.560989	0.000217	2.170050	0.367616	0.000022
 322	3.1939e+01	3.1888	-3.543473	0.000176	1.760606	0.298255	0.000018
 323	3.2039e+01	3.2016	-3.524328	0.000192	1.924384	0.325999	0.000019
 324	3.2139e+01	3.2113	-3.501109	0.000233	2.333827	0.395361	0.000023
 325	3.2238e+01	3.2199	-3.478298	0.000229	2.292882	0.388425	0.000023
 326	3.2337e+01	3.2310	-3.460375	0.000180	1.801551	0.305191	0.000018
 327	3.2437e+01	3.2387	-3.439193	0.000213	2.129105	0.360680	0.000021
 328	3.2536e+01	3.2525	-3.419641	0.000197	1.965328	0.332936	0.000020
 329	3.2636e+01	3.2587	-3.399681	0.000201	2.006272	0.339872	0.000020
 330	3.2736e+01	3.2703	-3.378092	0.000217	2.170050	0.367616	0.000022
 331	3.2835e+01	3.2793	-3.354873	0.000233	2.333827	0.395361	0.000023
 332	3.2934e+01	3.2893	-3.336135	0.000188	1.883439	0.319063	0.000019
 333	3.3034e+01	3.2993	-3.310473	0.000258	2.579493	0.436978	0.000026
 334	3.3133e+01	3.3094	-3.283996	0.000266	2.661381	0.450850	0.000027
 335	3.3233e+01	3.3203	-3.265665	0.000184	1.842495	0.312127	0.000018
 336	3.3333e+01	3.3298	-3.245298	0.000205	2.047217	0.346808	0.000020
 337	3.3432e+01	3.3375	-3.225746	0.000197	1.965328	0.332936	0.000020
 338	3.3532e+01	3.3481	-3.204564	0.000213	2.129105	0.360680	0.000021
 339	3.3631e+01	3.3578	-3.180531	0.000242	2.415715	0.409233	0.000024
 340	3.3730e+01	3.3683	-3.160164	0.000205	2.047217	0.346808	0.000020
 341	3.3830e+01	3.3791	-3.141426	0.000188	1.883439	0.319063	0.000019
 342	3.3929e+01	3.3887	-3.117393	0.000242	2.415715	0.409233	0.000024
 343	3.4029e+01	3.3978	-3.096211	0.000213	2.129105	0.360680	0.000021
 344	3.4129e+01	3.4090	-3.073807	0.000225	2.251938	0.381489	0.000023
 345	3.4228e+01	3.4184	-3.049366	0.000246	2.456660	0.416169	0.000025
 346	3.4328e+01	3.4290	-3.025333	0.000242	2.415715	0.409233	0.000024
 347	3.4427e+01	3.4403	-3.004966	0.000205	2.047217	0.346808	0.000020
 348	3.4526e+01	3.4487	-2.985414	0.000197	1.965328	0.332936	0.000020
 349	3.4626e+01	3.4618	-2.963010	0.000225	2.251938	0.381489	0.000023
 350	3.4725e+01	3.4669	-2.939791	0.000233	2.333827	0.395361	0.000023
 351	3.4825e+01	3.4815	-2.922683	0.000172	1.719662	0.291319	0.000017
 352	3.4925e+01	3.4907	-2.900279	0.000225	2.251938	0.381489	0.000023
 353	3.5024e+01	3.5012	-2.878282	0.000221	2.210994	0.374552	0.000022
 354	3.5123e+01	3.5084	-2.855879	0.000225	2.251938	0.381489	0.000023
 355	3.5223e+01	3.5186	-2.834697	0.000213	2.129105	0.360680	0.000021
 356	3.5322e+01	3.5302	-2.811071	0.000237	2.374771	0.402297	0.000024
 357	3.5422e+01	3.5384	-2.791111	0.000201	2.006272	0.339872	0.000020
 358	3.5522e+01	3.5486	-2.768707	0.000225	2.251938	0.381489	0.000023
 359	3.5621e+01	3.5560	-2.750784	0.000180	1.801551	0.305191	0.000018
 360	3.5721e+01	3.5659	-2.729195	0.000217	2.170050	0.367616	0.000022
 361	3.5820e+01	3.5815	-2.704755	0.000246	2.456660	0.416169	0.000025
 362	3.5919e+01	3.5882	-2.686017	0.000188	1.883439	0.319063	0.000019
 363	3.6019e+01	3.5976	-2.660354	0.000258	2.579493	0.436978	0.000026
 364	3.6118e+01	3.6074	-2.643246	0.000172	1.719662	0.291319	0.000017
 365	3.6218e+01	3.6181	-2.623693	0.000197	1.965328	0.332936	0.000020
 366	3.6318e+01	3.6280	-2.599660	0.000242	2.415715	0.409233	0.000024
 367	3.6417e+01	3.6343	-2.576849	0.000229	2.292882	0.388425	0.000023
 368	3.6517e+01	3.6485	-2.555667	0.000213	2.129105	0.360680	0.000021
 369	3.6616e+01	3.6615	-2.536929	0.000188	1.883439	0.319063	0.000019
 370	3.6715e+01	3.6678	-2.513711	0.000233	2.333827	0.395361	0.000023
 371	3.6815e+01	3.6781	-2.491714	0.000221	2.210994	0.374552	0.000022
 372	3.6914e+01	3.6913	-2.468496	0.000233	2.333827	0.395361	0.000023
 373	3.7014e+01	3.6965	-2.450573	0.000180	1.801551	0.305191	0.000018
 374	3.7114e+01	3.7077	-2.431428	0.000192	1.924384	0.325999	0.000019
 375	3.7213e+01	3.7199	-2.409024	0.000225	2.251938	0.381489	0.000023
 376	3.7313e+01	3.7273	-2.386213	0.000229	2.292882	0.388425	0.000023
 377	3.7412e+01	3.7373	-2.364216	0.000221	2.210994	0.374552	0.000022
 378	3.7511e+01	3.7475	-2.338554	0.000258	2.579493	0.436978	0.000026
 379	3.7611e+01	3.7583	-2.321038	0.000176	1.760606	0.298255	0.000018
 380	3.7711e+01	3.7673	-2.300263	0.000209	2.088161	0.353744	0.000021
 381	3.7810e+01	3.7780	-2.276638	0.000237	2.374771	0.402297	0.000024
 382	3.7910e+01	3.7872	-2.254641	0.000221	2.210994	0.374552	0.000022
 383	3.8009e+01	3.7997	-2.237533	0.000172	1.719662	0.291319	0.000017
 384	3.8108e+01	3.8075	-2.212685	0.000250	2.497604	0.423106	0.000025
 385	3.8208e+01	3.8157	-2.191503	0.000213	2.129105	0.360680	0.000021
 386	3.8307e+01	3.8278	-2.172765	0.000188	1.883439	0.319063	0.000019
 387	3.8407e+01	3.8349	-2.151991	0.000209	2.088161	0.353744	0.000021
 388	3.8507e+01	3.8470	-2.130809	0.000213	2.129105	0.360680	0.000021
 389	3.8606e+01	3.8575	-2.109627	0.000213	2.129105	0.360680	0.000021
 390	3.8706e+01	3.8663	-2.091297	0.000184	1.842495	0.312127	0.000018
 391	3.8805e+01	3.8760	-2.067263	0.000242	2.415715	0.409233	0.000024
 392	3.8904e+01	3.8866	-2.050155	0.000172	1.719662	0.291319	0.000017
 393	3.9004e+01	3.8995	-2.022048	0.000283	2.825159	0.478595	0.000028
 394	3.9103e+01	3.9045	-2.007384	0.000147	1.473996	0.249702	0.000015
 395	3.9203e+01	3.9143	-1.984980	0.000225	2.251938	0.381489	0.000023
 396	3.9303e+01	3.9257	-1.962576	0.000225	2.251938	0.381489	0.000023
 397	3.9402e+01	3.9338	-1.942209	0.000205	2.047217	0.346808	0.000020
 398	3.9502e+01	3.9454	-1.917769	0.000246	2.456660	0.416169	0.000025
 399	3.9601e+01	3.9576	-1.899031	0.000188	1.883439	0.319063	0.000019
 400	3.9700e+01	3.9660	-1.880701	0.000184	1.842495	0.312127	0.000018
 401	3.9800e+01	3.9768	-1.857889	0.000229	2.292882	0.388425	0.000023
 402	3.9900e+01	3.9898	-1.839152	0.000188	1.883439	0.319063	0.000019
 403	3.9999e+01	3.9964	-1.816748	0.000225	2.251938	0.381489	0.000023
 404	4.0099e+01	4.0070	-1.796381	0.000205	2.047217	0.346808	0.000020
 405	4.0198e+01	4.0179	-1.775199	0.000213	2.129105	0.360680	0.000021
 406	4.0297e+01	4.0292	-1.752388	0.000229	2.292882	0.388425	0.000023
 407	4.0397e+01	4.0352	-1.731613	0.000209	2.088161	0.353744	0.000021
 408	4.0496e+01	4.0461	-1.712468	0.000192	1.924384	0.325999	0.000019
 409	4.0596e+01	4.0583	-1.686806	0.000258	2.579493	0.436978	0.000026
 410	4.0696e+01	4.0639	-1.663180	0.000237	2.374771	0.402297	0.000024
 411	4.0795e+01	4.0772	-1.640368	0.000229	2.292882	0.388425	0.000023
 412	4.0895e+01	4.0854	-1.616335	0.000242	2.415715	0.409233	0.000024
 413	4.0994e+01	4.0948	-1.596783	0.000197	1.965328	0.332936	0.000020
 414	4.1093e+01	4.1052	-1.576823	0.000201	2.006272	0.339872	0.000020
 415	4.1193e+01	4.1146	-1.556049	0.000209	2.088161	0.353744	0.000021
 416	4.1292e+01	4.1279	-1.538125	0.000180	1.801551	0.305191	0.000018
 417	4.1392e+01	4.1372	-1.517351	0.000209	2.088161	0.353744	0.000021
 418	4.1492e+01	4.1462	-1.495762	0.000217	2.170050	0.367616	0.000022
 419	4.1591e+01	4.1563	-1.472951	0.000229	2.292882	0.388425	0.000023
 420	4.1691e+01	4.1650	-1.453398	0.000197	1.965328	0.332936	0.000020
 421	4.1790e+01	4.1740	-1.436290	0.000172	1.719662	0.291319	0.000017
 422	4.1889e+01	4.1850	-1.411442	0.000250	2.497604	0.423106	0.000025
 423	4.1989e+01	4.1948	-1.390260	0.000213	2.129105	0.360680	0.000021
 424	4.2089e+01	4.2033	-1.367856	0.000225	2.251938	0.381489	0.000023
 425	4.2188e+01	4.2149	-1.347082	0.000209	2.088161	0.353744	0.000021
 426	4.2288e+01	4.2291	-1.325493	0.000217	2.170050	0.367616	0.000022
 427	4.2387e+01	4.2364	-1.304311	0.000213	2.129105	0.360680	0.000021
 428	4.2486e+01	4.2481	-1.287610	0.000168	1.678718	0.284382	0.000017
 429	4.2586e+01	4.2567	-1.267650	0.000201	2.006272	0.339872	0.000020
 430	4.2685e+01	4.2650	-1.250134	0.000176	1.760606	0.298255	0.000018
 431	4.2785e+01	4.2725	-1.228138	0.000221	2.210994	0.374552	0.000022
 432	4.2885e+01	4.2847	-1.213066	0.000151	1.514940	0.256638	0.000015
 433	4.2984e+01	4.2925	-1.188626	0.000246	2.456660	0.416169	0.000025
 434	4.3084e+01	4.3066	-1.165814	0.000229	2.292882	0.388425	0.000023
 435	4.3183e+01	4.3123	-1.146262	0.000197	1.965328	0.332936	0.000020
 436	4.3282e+01	4.3249	-1.127932	0.000184	1.842495	0.312127	0.000018
 437	4.3382e+01	4.3327	-1.102676	0.000254	2.538548	0.430042	0.000025
 438	4.3481e+01	4.3450	-1.082309	0.000205	2.047217	0.346808	0.000020
 439	4.3581e+01	4.3569	-1.063164	0.000192	1.924384	0.325999	0.000019
 440	4.3681e+01	4.3640	-1.043612	0.000197	1.965328	0.332936	0.000020
 441	4.3780e+01	4.3758	-1.021615	0.000221	2.210994	0.374552	0.000022
 442	4.3880e+01	4.3854	-1.000026	0.000217	2.170050	0.367616	0.000022
 443	4.3979e+01	4.3941	-0.981288	0.000188	1.883439	0.319063	0.000019
 444	4.4078e+01	4.4036	-0.958884	0.000225	2.251938	0.381489	0.000023
 445	4.4178e+01	4.4129	-0.940147	0.000188	1.883439	0.319063	0.000019
 446	4.4278e+01	4.4257	-0.922224	0.000180	1.801551	0.305191	0.000018
 447	4.4377e+01	4.4355	-0.895746	0.000266	2.661381	0.450850	0.000027
 448	4.4477e+01	4.4433	-0.875786	0.000201	2.006272	0.339872	0.000020
 449	4.4576e+01	4.4552	-0.858271	0.000176	1.760606	0.298255	0.000018
 450	4.4675e+01	4.4640	-0.837496	0.000209	2.088161	0.353744	0.000021
 451	4.4775e+01	4.4752	-0.814685	0.000229	2.292882	0.388425	0.000023
 452	4.4874e+01	4.4915	-0.790245	0.000246	2.456660	0.416169	0.000025
 453	4.4974e+01	4.4933	-0.772729	0.000176	1.760606	0.298255	0.000018
 454	4.5074e+01	4.5036	-0.751140	0.000217	2.170050	0.367616	0.000022
 455	4.5173e+01	4.5126	-0.730365	0.000209	2.088161	0.353744	0.000021
 456	4.5273e+01	4.5217	-0.712442	0.000180	1.801551	0.305191	0.000018
 457	4.5372e+01	4.5335	-0.688816	0.000237	2.374771	0.402297	0.000024
 458	4.5471e+01	4.5464	-0.670486	0.000184	1.842495	0.312127	0.000018
 459	4.5571e+01	4.5542	-0.645231	0.000254	2.538548	0.430042	0.000025
 460	4.5670e+01	4.5631	-0.627715	0.000176	1.760606	0.298255	0.000018
 461	4.5770e+01	4.5751	-0.607348	0.000205	2.047217	0.346808	0.000020
 462	4.5870e+01	4.5837	-0.587795	0.000197	1.965328	0.332936	0.000020
 463	4.5969e+01	4.5924	-0.563762	0.000242	2.415715	0.409233	0.000024
 464	4.6069e+01	4.6017	-0.547061	0.000168	1.678718	0.284382	0.000017
 465	4.6168e+01	4.6127	-0.527509	0.000197	1.965328	0.332936	0.000020
 466	4.6267e+01	4.6236	-0.506327	0.000213	2.129105	0.360680	0.000021
 467	4.6367e+01	4.6358	-0.487589	0.000188	1.883439	0.319063	0.000019
 468	4.6467e+01	4.6416	-0.463556	0.000242	2.415715	0.409233	0.000024
 469	4.6566e+01	4.6532	-0.443189	0.000205	2.047217	0.346808	0.000020
 470	4.6666e+01	4.6616	-0.423636	0.000197	1.965328	0.332936	0.000020
 471	4.6765e+01	4.6722	-0.401640	0.000221	2.210994	0.374552	0.000022
 472	4.6864e+01	4.6839	-0.383717	0.000180	1.801551	0.305191	0.000018
 473	4.6964e+01	4.6932	-0.360906	0.000229	2.292882	0.388425	0.000023
 474	4.7063e+01	4.7005	-0.336465	0.000246	2.456660	0.416169	0.000025
 475	4.7163e+01	4.7132	-0.317727	0.000188	1.883439	0.319063	0.000019
 476	4.7263e+01	4.7205	-0.295323	0.000225	2.251938	0.381489	0.000023
 477	4.7362e+01	4.7323	-0.281881	0.000135	1.351163	0.228893	0.000014
 478	4.7462e+01	4.7417	-0.259477	0.000225	2.251938	0.381489	0.000023
 479	4.7561e+01	4.7565	-0.234629	0.000250	2.497604	0.423106	0.000025
 480	4.7660e+01	4.7610	-0.216299	0.000184	1.842495	0.312127	0.000018
 481	4.7760e+01	4.7723	-0.198783	0.000176	1.760606	0.298255	0.000018
 482	4.7859e+01	4.7832	-0.178009	0.000209	2.088161	0.353744	0.000021
 483	4.7959e+01	4.7945	-0.157234	0.000209	2.088161	0.353744	0.000021
 484	4.8059e+01	4.8035	-0.131979	0.000254	2.538548	0.430042	0.000025
 485	4.8158e+01	4.8106	-0.111612	0.000205	2.047217	0.346808	0.000020
 486	4.8258e+01	4.8232	-0.091652	0.000201	2.006272	0.339872	0.000020
 487	4.8357e+01	4.8319	-0.066397	0.000254	2.538548	0.430042	0.000025
 488	4.8456e+01	4.8415	-0.052140	0.000143	1.433052	0.242766	0.000014
 489	4.8556e+01	4.8534	-0.030958	0.000213	2.129105	0.360680	0.000021
 490	4.8656e+01	4.8617	-0.011406	0.000197	1.965328	0.332936	0.000020
 491	4.8755e+01	4.8748	0.008554	0.000201	2.006272	0.339872	0.000020
 492	4.8855e+01	4.8829	0.027292	0.000188	1.883439	0.319063	0.000019
 493	4.8954e+01	4.8876	0.046844	0.000197	1.965328	0.332936	0.000020
 494	4.9053e+01	4.9019	0.068841	0.000221	2.210994	0.374552	0.000022
 495	4.9153e+01	4.9084	0.087579	0.000188	1.883439	0.319063	0.000019
 496	4.9252e+01	4.9215	0.107538	0.000201	2.006272	0.339872	0.000020
 497	4.9352e+01	4.9298	0.127091	0.000197	1.965328	0.332936	0.000020
 498	4.9452e+01	4.9406	0.149495	0.000225	2.251938	0.381489	0.000023
 499	4.9551e+01	4.9538	0.168232	0.000188	1.883439	0.319063	0.000019
 500	4.9651e+01	4.9609	0.189414	0.000213	2.129105	0.360680	0.000021
 501	4.9750e+01	4.9703	0.209374	0.000201	2.006272	0.339872	0.000020
 502	4.9849e+01	4.9813	0.230149	0.000209	2.088161	0.353744	0.000021
 503	4.9949e+01	4.9916	0.252552	0.000225	2.251938	0.381489	0.000023
 504	5.0048e+01	5.0005	0.271290	0.000188	1.883439	0.319063	0.000019
 505	5.0148e+01	5.0142	0.294916	0.000237	2.374771	0.402297	0.000024
 506	5.0248e+01	5.0230	0.311617	0.000168	1.678718	0.284382	0.000017
 507	5.0347e+01	5.0327	0.331577	0.000201	2.006272	0.339872	0.000020
 508	5.0447e+01	5.0410	0.351129	0.000197	1.965328	0.332936	0.000020
 509	5.0546e+01	5.0503	0.372718	0.000217	2.170050	0.367616	0.000022
 510	5.0645e+01	5.0603	0.396752	0.000242	2.415715	0.409233	0.000024
 511	5.0745e+01	5.0709	0.415897	0.000192	1.924384	0.325999	0.000019
 512	5.0844e+01	5.0789	0.439930	0.000242	2.415715	0.409233	0.000024
 513	5.0944e+01	5.0899	0.462334	0.000225	2.251938	0.381489	0.000023
 514	5.1044e+01	5.1014	0.483108	0.000209	2.088161	0.353744	0.000021
 515	5.1143e+01	5.1095	0.503883	0.000209	2.088161	0.353744	0.000021
 516	5.1242e+01	5.1180	0.522620	0.000188	1.883439	0.319063	0.000019
 517	5.1342e+01	5.1302	0.542173	0.000197	1.965328	0.332936	0.000020
 518	5.1441e+01	5.1400	0.564984	0.000229	2.292882	0.388425	0.000023
 519	5.1541e+01	5.1482	0.586166	0.000213	2.129105	0.360680	0.000021
 520	5.1641e+01	5.1606	0.602867	0.000168	1.678718	0.284382	0.000017
 521	5.1740e+01	5.1709	0.626493	0.000237	2.374771	0.402297	0.000024
 522	5.1840e+01	5.1804	0.646045	0.000197	1.965328	0.332936	0.000020
 523	5.1939e+01	5.1907	0.667634	0.000217	2.170050	0.367616	0.000022
 524	5.2038e+01	5.2004	0.689224	0.000217	2.170050	0.367616	0.000022
 525	5.2138e+01	5.2087	0.706332	0.000172	1.719662	0.291319	0.000017
 526	5.2237e+01	5.2229	0.727106	0.000209	2.088161	0.353744	0.000021
 527	5.2337e+01	5.2302	0.746252	0.000192	1.924384	0.325999	0.000019
 528	5.2437e+01	5.2403	0.769877	0.000237	2.374771	0.402297	0.000024
 529	5.2536e+01	5.2501	0.788208	0.000184	1.842495	0.312127	0.000018
 530	5.2636e+01	5.2592	0.809797	0.000217	2.170050	0.367616	0.000022
 531	5.2735e+01	5.2704	0.832201	0.000225	2.251938	0.381489	0.000023
 532	5.2834e+01	5.2792	0.852568	0.000205	2.047217	0.346808	0.000020
 533	5.2934e+01	5.2917	0.875379	0.000229	2.292882	0.388425	0.000023
 534	5.3033e+01	5.3001	0.891266	0.000160	1.596829	0.270510	0.000016
 535	5.3133e+01	5.3098	0.910818	0.000197	1.965328	0.332936	0.000020
 536	5.3233e+01	5.3187	0.932814	0.000221	2.210994	0.374552	0.000022
 537	5.3332e+01	5.3283	0.954811	0.000221	2.210994	0.374552	0.000022
 538	5.3431e+01	5.3399	0.974771	0.000201	2.006272	0.339872	0.000020
 539	5.3531e+01	5.3480	0.993508	0.000188	1.883439	0.319063	0.000019
 540	5.3630e+01	5.3585	1.016727	0.000233	2.333827	0.395361	0.000023
 541	5.3730e+01	5.3686	1.036279	0.000197	1.965328	0.332936	0.000020
 542	5.3830e+01	5.3771	1.057054	0.000209	2.088161	0.353744	0.000021
 543	5.3929e+01	5.3892	1.076199	0.000192	1.924384	0.325999	0.000019
 544	5.4029e+01	5.4011	1.096159	0.000201	2.006272	0.339872	0.000020
 545	5.4128e+01	5.4081	1.116933	0.000209	2.088161	0.353744	0.000021
 546	5.4227e+01	5.4183	1.138115	0.000213	2.129105	0.360680	0.000021
 547	5.4327e+01	5.4297	1.160519	0.000225	2.251938	0.381489	0.000023
 548	5.4426e+01	5.4394	1.178035	0.000176	1.760606	0.298255	0.000018
 549	5.4526e+01	5.4485	1.201253	0.000233	2.333827	0.395361	0.000023
 550	5.4626e+01	5.4581	1.222028	0.000209	2.088161	0.353744	0.000021
 551	5.4725e+01	5.4644	1.240765	0.000188	1.883439	0.319063	0.000019
 552	5.4825e+01	5.4755	1.261540	0.000209	2.088161	0.353744	0.000021
 553	5.4924e+01	5.4902	1.281092	0.000197	1.965328	0.332936	0.000020
 554	5.5023e+01	5.5001	1.303904	0.000229	2.292882	0.388425	0.000023
 555	5.5123e+01	5.5091	1.319790	0.000160	1.596829	0.270510	0.000016
 556	5.5222e+01	5.5189	1.341786	0.000221	2.210994	0.374552	0.000022
 557	5.5322e+01	5.5268	1.363783	0.000221	2.210994	0.374552	0.000022
 558	5.5422e+01	5.5373	1.381299	0.000176	1.760606	0.298255	0.000018
 559	5.5521e+01	5.5504	1.401666	0.000205	2.047217	0.346808	0.000020
 560	5.5620e+01	5.5563	1.420811	0.000192	1.924384	0.325999	0.000019
 561	5.5720e+01	5.5682	1.443622	0.000229	2.292882	0.388425	0.000023
 562	5.5819e+01	5.5788	1.464804	0.000213	2.129105	0.360680	0.000021
 563	5.5919e+01	5.5869	1.482320	0.000176	1.760606	0.298255	0.000018
 564	5.6019e+01	5.5982	1.505945	0.000237	2.374771	0.402297	0.000024
 565	5.6118e+01	5.6083	1.525091	0.000192	1.924384	0.325999	0.000019
 566	5.6218e+01	5.6201	1.542199	0.000172	1.719662	0.291319	0.000017
 567	5.6317e+01	5.6251	1.564603	0.000225	2.251938	0.381489	0.000023
 568	5.6416e+01	5.6391	1.584970	0.000205	2.047217	0.346808	0.000020
 569	5.6516e+01	5.6484	1.602486	0.000176	1.760606	0.298255	0.000018
 570	5.6615e+01	5.6592	1.622853	0.000205	2.047217	0.346808	0.000020
 571	5.6715e+01	5.6670	1.644035	0.000213	2.129105	0.360680	0.000021
 572	5.6815e+01	5.6760	1.663180	0.000192	1.924384	0.325999	0.000019
 573	5.6914e+01	5.6860	1.683954	0.000209	2.088161	0.353744	0.000021
 574	5.7014e+01	5.6973	1.707173	0.000233	2.333827	0.395361	0.000023
 575	5.7113e+01	5.7073	1.727132	0.000201	2.006272	0.339872	0.000020
 576	5.7212e+01	5.7183	1.750758	0.000237	2.374771	0.402297	0.000024
 577	5.7312e+01	5.7269	1.772755	0.000221	2.210994	0.374552	0.000022
 578	5.7411e+01	5.7366	1.791493	0.000188	1.883439	0.319063	0.000019
 579	5.7511e+01	5.7479	1.818377	0.000270	2.702326	0.457786	0.000027
 580	5.7611e+01	5.7558	1.835078	0.000168	1.678718	0.284382	0.000017
 581	5.7710e+01	5.7685	1.857075	0.000221	2.210994	0.374552	0.000022
 582	5.7809e+01	5.7774	1.876627	0.000197	1.965328	0.332936	0.000020
 583	5.7909e+01	5.7867	1.893328	0.000168	1.678718	0.284382	0.000017
 584	5.8008e+01	5.7931	1.914917	0.000217	2.170050	0.367616	0.000022
 585	5.8108e+01	5.8077	1.932433	0.000176	1.760606	0.298255	0.000018
 586	5.8208e+01	5.8185	1.954430	0.000221	2.210994	0.374552	0.000022
 587	5.8307e+01	5.8277	1.972760	0.000184	1.842495	0.312127	0.000018
 588	5.8407e+01	5.8376	1.995979	0.000233	2.333827	0.395361	0.000023
 589	5.8506e+01	5.8472	2.016346	0.000205	2.047217	0.346808	0.000020
 590	5.8605e+01	5.8587	2.034676	0.000184	1.842495	0.312127	0.000018
 591	5.8705e+01	5.8695	2.059117	0.000246	2.456660	0.416169	0.000025
 592	5.8804e+01	5.8772	2.077447	0.000184	1.842495	0.312127	0.000018
 593	5.8904e+01	5.8876	2.096592	0.000192	1.924384	0.325999	0.000019
 594	5.9004e+01	5.8996	2.114108	0.000176	1.760606	0.298255	0.000018
 595	5.9103e+01	5.9079	2.134068	0.000201	2.006272	0.339872	0.000020
 596	5.9203e+01	5.9161	2.149954	0.000160	1.596829	0.270510	0.000016
 597	5.9302e+01	5.9289	2.171136	0.000213	2.129105	0.360680	0.000021
 598	5.9401e+01	5.9399	2.189874	0.000188	1.883439	0.319063	0.000019
 599	5.9501e+01	5.9470	2.210648	0.000209	2.088161	0.353744	0.000021
 600	5.9600e+01	5.9556	2.226534	0.000160	1.596829	0.270510	0.000016
 601	5.9700e+01	5.9673	2.250975	0.000246	2.456660	0.416169	0.000025
 602	5.9800e+01	5.9778	2.267676	0.000168	1.678718	0.284382	0.000017
 603	5.9899e+01	5.9858	2.287636	0.000201	2.006272	0.339872	0.000020
 604	5.9998e+01	5.9954	2.307596	0.000201	2.006272	0.339872	0.000020
 605	6.0098e+01	6.0027	2.328370	0.000209	2.088161	0.353744	0.000021
 606	6.0197e+01	6.0162	2.349552	0.000213	2.129105	0.360680	0.000021
 607	6.0297e+01	6.0239	2.368697	0.000192	1.924384	0.325999	0.000019
 608	6.0397e+01	6.0354	2.390286	0.000217	2.170050	0.367616	0.000022
 609	6.0496e+01	6.0450	2.409024	0.000188	1.883439	0.319063	0.000019
 610	6.0596e+01	6.0551	2.428984	0.000201	2.006272	0.339872	0.000020
 611	6.0695e+01	6.0677	2.448536	0.000197	1.965328	0.332936	0.000020
 612	6.0794e+01	6.0780	2.468903	0.000205	2.047217	0.346808	0.000020
 613	6.0894e+01	6.0873	2.487641	0.000188	1.883439	0.319063	0.000019
 614	6.0993e+01	6.0964	2.508008	0.000205	2.047217	0.346808	0.000020
 615	6.1093e+01	6.1040	2.530005	0.000221	2.210994	0.374552	0.000022
 616	6.1193e+01	6.1158	2.549150	0.000192	1.924384	0.325999	0.000019
 617	6.1292e+01	6.1263	2.569517	0.000205	2.047217	0.346808	0.000020
 618	6.1392e+01	6.1339	2.589884	0.000205	2.047217	0.346808	0.000020
 619	6.1491e+01	6.1422	2.611066	0.000213	2.129105	0.360680	0.000021
 620	6.1590e+01	6.1573	2.627767	0.000168	1.678718	0.284382	0.000017
 621	6.1690e+01	6.1663	2.650171	0.000225	2.251938	0.381489	0.000023
 622	6.1789e+01	6.1745	2.666464	0.000164	1.637773	0.277446	0.000016
 623	6.1889e+01	6.1852	2.685609	0.000192	1.924384	0.325999	0.000019
 624	6.1989e+01	6.1951	2.707606	0.000221	2.210994	0.374552	0.000022
 625	6.2088e+01	6.2041	2.727158	0.000197	1.965328	0.332936	0.000020
 626	6.2188e+01	6.2154	2.747933	0.000209	2.088161	0.353744	0.000021
 627	6.2287e+01	6.2270	2.767078	0.000192	1.924384	0.325999	0.000019
 628	6.2386e+01	6.2321	2.789482	0.000225	2.251938	0.381489	0.000023
 629	6.2486e+01	6.2426	2.806183	0.000168	1.678718	0.284382	0.000017
 630	6.2586e+01	6.2551	2.826143	0.000201	2.006272	0.339872	0.000020
 631	6.2685e+01	6.2637	2.846917	0.000209	2.088161	0.353744	0.000021
 632	6.2785e+01	6.2761	2.867692	0.000209	2.088161	0.353744	0.000021
 633	6.2884e+01	6.2840	2.885207	0.000176	1.760606	0.298255	0.000018
 634	6.2983e+01	6.2964	2.905167	0.000201	2.006272	0.339872	0.000020
 635	6.3083e+01	6.3009	2.926349	0.000213	2.129105	0.360680	0.000021
 636	6.3182e+01	6.3123	2.945901	0.000197	1.965328	0.332936	0.000020
 637	6.3282e+01	6.3223	2.966268	0.000205	2.047217	0.346808	0.000020
 638	6.3382e+01	6.3337	2.986636	0.000205	2.047217	0.346808	0.000020
 639	6.3481e+01	6.3422	3.008225	0.000217	2.170050	0.367616	0.000022
 640	6.3581e+01	6.3531	3.025333	0.000172	1.719662	0.291319	0.000017
 641	6.3680e+01	6.3625	3.046922	0.000217	2.170050	0.367616	0.000022
 642	6.3779e+01	6.3739	3.066475	0.000197	1.965328	0.332936	0.000020
 643	6.3879e+01	6.3860	3.085212	0.000188	1.883439	0.319063	0.000019
 644	6.3978e+01	6.3911	3.107616	0.000225	2.251938	0.381489	0.000023
 645	6.4078e+01	6.4039	3.123095	0.000156	1.555885	0.263574	0.000016
 646	6.4177e+01	6.4138	3.145907	0.000229	2.292882	0.388425	0.000023
 647	6.4277e+01	6.4227	3.162200	0.000164	1.637773	0.277446	0.000016
 648	6.4376e+01	6.4336	3.184197	0.000221	2.210994	0.374552	0.000022
 649	6.4476e+01	6.4413	3.204971	0.000209	2.088161	0.353744	0.000021
 650	6.4576e+01	6.4551	3.226153	0.000213	2.129105	0.360680	0.000021
 651	6.4675e+01	6.4632	3.242447	0.000164	1.637773	0.277446	0.000016
 652	6.4775e+01	6.4748	3.263629	0.000213	2.129105	0.360680	0.000021
 653	6.4874e+01	6.4830	3.283588	0.000201	2.006272	0.339872	0.000020
 654	6.4974e+01	6.4917	3.305585	0.000221	2.210994	0.374552	0.000022
 655	6.5073e+01	6.5011	3.325137	0.000197	1.965328	0.332936	0.000020
 656	6.5172e+01	6.5123	3.341431	0.000164	1.637773	0.277446	0.000016
 657	6.5272e+01	6.5224	3.362613	0.000213	2.129105	0.360680	0.000021
 658	6.5371e+01	6.5347	3.383795	0.000213	2.129105	0.360680	0.000021
 659	6.5471e+01	6.5421	3.400496	0.000168	1.678718	0.284382	0.000017
 660	6.5570e+01	6.5531	3.423307	0.000229	2.292882	0.388425	0.000023
 661	6.5670e+01	6.5633	3.438378	0.000151	1.514940	0.256638	0.000015
 662	6.5769e+01	6.5728	3.455080	0.000168	1.678718	0.284382	0.000017
 663	6.5869e+01	6.5813	3.478298	0.000233	2.333827	0.395361	0.000023
 664	6.5969e+01	6.5934	3.495814	0.000176	1.760606	0.298255	0.000018
 665	6.6068e+01	6.6015	3.515366	0.000197	1.965328	0.332936	0.000020
 666	6.6168e+01	6.6146	3.535733	0.000205	2.047217	0.346808	0.000020
 667	6.6267e+01	6.6202	3.555286	0.000197	1.965328	0.332936	0.000020
 668	6.6367e+01	6.6319	3.576468	0.000213	2.129105	0.360680	0.000021
 669	6.6466e+01	6.6424	3.597242	0.000209	2.088161	0.353744	0.000021
 670	6.6566e+01	6.6504	3.617202	0.000201	2.006272	0.339872	0.000020
 671	6.6665e+01	6.6624	3.635940	0.000188	1.883439	0.319063	0.000019
 672	6.6764e+01	6.6732	3.654270	0.000184	1.842495	0.312127	0.000018
 673	6.6864e+01	6.6813	3.676267	0.000221	2.210994	0.374552	0.000022
 674	6.6963e+01	6.6914	3.693782	0.000176	1.760606	0.298255	0.000018
 675	6.7063e+01	6.7046	3.712520	0.000188	1.883439	0.319063	0.000019
 676	6.7162e+01	6.7121	3.736553	0.000242	2.415715	0.409233	0.000024
 677	6.7262e+01	6.7208	3.754069	0.000176	1.760606	0.298255	0.000018
 678	6.7362e+01	6.7313	3.774843	0.000209	2.088161	0.353744	0.000021
 679	6.7461e+01	6.7432	3.797247	0.000225	2.251938	0.381489	0.000023
 680	6.7561e+01	6.7507	3.816392	0.000192	1.924384	0.325999	0.000019
 681	6.7660e+01	6.7632	3.839611	0.000233	2.333827	0.395361	0.000023
 682	6.7760e+01	6.7690	3.862829	0.000233	2.333827	0.395361	0.000023
 683	6.7859e+01	6.7812	3.879938	0.000172	1.719662	0.291319	0.000017
 684	6.7959e+01	6.7935	3.901120	0.000213	2.129105	0.360680	0.000021
 685	6.8058e+01	6.8040	3.919857	0.000188	1.883439	0.319063	0.000019
 686	6.8157e+01	6.8132	3.940225	0.000205	2.047217	0.346808	0.000020
 687	6.8257e+01	6.8208	3.961406	0.000213	2.129105	0.360680	0.000021
 688	6.8356e+01	6.8331	3.980551	0.000192	1.924384	0.325999	0.000019
 689	6.8456e+01	6.8414	3.999697	0.000192	1.924384	0.325999	0.000019
 690	6.8555e+01	6.8493	4.017620	0.000180	1.801551	0.305191	0.000018
 691	6.8655e+01	6.8624	4.038394	0.000209	2.088161	0.353744	0.000021
 692	6.8754e+01	6.8732	4.058761	0.000205	2.047217	0.346808	0.000020
 693	6.8854e+01	6.8812	4.079128	0.000205	2.047217	0.346808	0.000020
 694	6.8954e+01	6.8923	4.099495	0.000205	2.047217	0.346808	0.000020
 695	6.9053e+01	6.9025	4.115789	0.000164	1.637773	0.277446	0.000016
 696	6.9153e+01	6.9106	4.138193	0.000225	2.251938	0.381489	0.000023
 697	6.9252e+01	6.9213	4.157745	0.000197	1.965328	0.332936	0.000020
 698	6.9352e+01	6.9299	4.178520	0.000209	2.088161	0.353744	0.000021
 699	6.9451e+01	6.9395	4.201331	0.000229	2.292882	0.388425	0.000023
 700	6.9550e+01	6.9501	4.215588	0.000143	1.433052	0.242766	0.000014
 701	6.9650e+01	6.9607	4.236363	0.000209	2.088161	0.353744	0.000021
 702	6.9749e+01	6.9706	4.255915	0.000197	1.965328	0.332936	0.000020
 703	6.9849e+01	6.9808	4.276689	0.000209	2.088161	0.353744	0.000021
 704	6.9948e+01	6.9939	4.297057	0.000205	2.047217	0.346808	0.000020
 705	7.0048e+01	7.0007	4.316202	0.000192	1.924384	0.325999	0.000019
 706	7.0147e+01	7.0111	4.336976	0.000209	2.088161	0.353744	0.000021
 707	7.0247e+01	7.0200	4.355307	0.000184	1.842495	0.312127	0.000018
 708	7.0347e+01	7.0306	4.375674	0.000205	2.047217	0.346808	0.000020
 709	7.0446e+01	7.0415	4.394819	0.000192	1.924384	0.325999	0.000019
 710	7.0546e+01	7.0494	4.412742	0.000180	1.801551	0.305191	0.000018
 711	7.0645e+01	7.0586	4.434331	0.000217	2.170050	0.367616	0.000022
 712	7.0745e+01	7.0715	4.456735	0.000225	2.251938	0.381489	0.000023
 713	7.0844e+01	7.0818	4.474251	0.000176	1.760606	0.298255	0.000018
 714	7.0944e+01	7.0900	4.495432	0.000213	2.129105	0.360680	0.000021
 715	7.1043e+01	7.0985	4.514985	0.000197	1.965328	0.332936	0.000020
 716	7.1142e+01	7.1117	4.535759	0.000209	2.088161	0.353744	0.000021
 717	7.1242e+01	7.1204	4.555312	0.000197	1.965328	0.332936	0.000020
 718	7.1341e+01	7.1314	4.572420	0.000172	1.719662	0.291319	0.000017
 719	7.1441e+01	7.1407	4.592787	0.000205	2.047217	0.346808	0.000020
 720	7.1540e+01	7.1484	4.612340	0.000197	1.965328	0.332936	0.000020
 721	7.1640e+01	7.1593	4.632299	0.000201	2.006272	0.339872	0.000020
 722	7.1740e+01	7.1681	4.651037	0.000188	1.883439	0.319063	0.000019
 723	7.1839e+01	7.1793	4.672626	0.000217	2.170050	0.367616	0.000022
 724	7.1939e+01	7.1929	4.694216	0.000217	2.170050	0.367616	0.000022
 725	7.2038e+01	7.2012	4.711324	0.000172	1.719662	0.291319	0.000017
 726	7.2138e+01	7.2086	4.730876	0.000197	1.965328	0.332936	0.000020
 727	7.2237e+01	7.2182	4.750836	0.000201	2.006272	0.339872	0.000020
 728	7.2337e+01	7.2276	4.772425	0.000217	2.170050	0.367616	0.000022
 729	7.2436e+01	7.2368	4.789126	0.000168	1.678718	0.284382	0.000017
 730	7.2535e+01	7.2483	4.810308	0.000213	2.129105	0.360680	0.000021
 731	7.2635e+01	7.2588	4.830675	0.000205	2.047217	0.346808	0.000020
 732	7.2734e+01	7.2697	4.847784	0.000172	1.719662	0.291319	0.000017
 733	7.2834e+01	7.2797	4.866929	0.000192	1.924384	0.325999	0.000019
 734	7.2933e+01	7.2887	4.890555	0.000237	2.374771	0.402297	0.000024
 735	7.3033e+01	7.3002	4.908070	0.000176	1.760606	0.298255	0.000018
 736	7.3132e+01	7.3087	4.928438	0.000205	2.047217	0.346808	0.000020
 737	7.3232e+01	7.3166	4.943509	0.000151	1.514940	0.256638	0.000015
 738	7.3332e+01	7.3312	4.964284	0.000209	2.088161	0.353744	0.000021
 739	7.3431e+01	7.3395	4.985873	0.000217	2.170050	0.367616	0.000022
 740	7.3531e+01	7.3494	5.005018	0.000192	1.924384	0.325999	0.000019
 741	7.3630e+01	7.3598	5.024978	0.000201	2.006272	0.339872	0.000020
 742	7.3730e+01	7.3653	5.045752	0.000209	2.088161	0.353744	0.000021
 743	7.3829e+01	7.3801	5.064490	0.000188	1.883439	0.319063	0.000019
 744	7.3928e+01	7.3881	5.088523	0.000242	2.415715	0.409233	0.000024
 745	7.4028e+01	7.3995	5.109298	0.000209	2.088161	0.353744	0.000021
 746	7.4127e+01	7.4080	5.130479	0.000213	2.129105	0.360680	0.000021
 747	7.4227e+01	7.4181	5.150439	0.000201	2.006272	0.339872	0.000020
 748	7.4326e+01	7.4293	5.169992	0.000197	1.965328	0.332936	0.000020
 749	7.4426e+01	7.4387	5.190766	0.000209	2.088161	0.353744	0.000021
 750	7.4525e+01	7.4490	5.209097	0.000184	1.842495	0.312127	0.000018
 751	7.4625e+01	7.4573	5.226612	0.000176	1.760606	0.298255	0.000018
 752	7.4725e+01	7.4688	5.244943	0.000184	1.842495	0.312127	0.000018
 753	7.4824e+01	7.4749	5.263273	0.000184	1.842495	0.312127	0.000018
 754	7.4924e+01	7.4886	5.285677	0.000225	2.251938	0.381489	0.000023
 755	7.5023e+01	7.4981	5.308488	0.000229	2.292882	0.388425	0.000023
 756	7.5123e+01	7.5057	5.326819	0.000184	1.842495	0.312127	0.000018
 757	7.5222e+01	7.5178	5.348815	0.000221	2.210994	0.374552	0.000022
 758	7.5322e+01	7.5298	5.368367	0.000197	1.965328	0.332936	0.000020
 759	7.5421e+01	7.5387	5.386291	0.000180	1.801551	0.305191	0.000018
 760	7.5520e+01	7.5452	5.405028	0.000188	1.883439	0.319063	0.000019
 761	7.5620e+01	7.5550	5.426210	0.000213	2.129105	0.360680	0.000021
 762	7.5719e+01	7.5666	5.444541	0.000184	1.842495	0.312127	0.000018
 763	7.5819e+01	7.5775	5.461242	0.000168	1.678718	0.284382	0.000017
 764	7.5918e+01	7.5870	5.477943	0.000168	1.678718	0.284382	0.000017
 765	7.6018e+01	7.5977	5.493829	0.000160	1.596829	0.270510	0.000016
 766	7.6118e+01	7.6050	5.515011	0.000213	2.129105	0.360680	0.000021
 767	7.6217e+01	7.6183	5.537007	0.000221	2.210994	0.374552	0.000022
 768	7.6317e+01	7.6278	5.553301	0.000164	1.637773	0.277446	0.000016
 769	7.6416e+01	7.6360	5.573668	0.000205	2.047217	0.346808	0.000020
 770	7.6516e+01	7.6482	5.592813	0.000192	1.924384	0.325999	0.000019
 771	7.6615e+01	7.6579	5.611551	0.000188	1.883439	0.319063	0.000019
 772	7.6715e+01	7.6682	5.633547	0.000221	2.210994	0.374552	0.000022
 773	7.6814e+01	7.6771	5.653915	0.000205	2.047217	0.346808	0.000020
 774	7.6913e+01	7.6875	5.672245	0.000184	1.842495	0.312127	0.000018
 775	7.7013e+01	7.6968	5.689761	0.000176	1.760606	0.298255	0.000018
 776	7.7112e+01	7.7072	5.710535	0.000209	2.088161	0.353744	0.000021
 777	7.7212e+01	7.7128	5.729273	0.000188	1.883439	0.319063	0.000019
 778	7.7311e+01	7.7259	5.752492	0.000233	2.333827	0.395361	0.000023
 779	7.7411e+01	7.7385	5.770415	0.000180	1.801551	0.305191	0.000018
 780	7.7510e+01	7.7456	5.788338	0.000180	1.801551	0.305191	0.000018
 781	7.7610e+01	7.7542	5.806261	0.000180	1.801551	0.305191	0.000018
 782	7.7710e+01	7.7676	5.830701	0.000246	2.456660	0.416169	0.000025
 783	7.7809e+01	7.7761	5.846995	0.000164	1.637773	0.277446	0.000016
 784	7.7909e+01	7.7843	5.868991	0.000221	2.210994	0.374552	0.000022
 785	7.8008e+01	7.7949	5.889359	0.000205	2.047217	0.346808	0.000020
 786	7.8108e+01	7.8057	5.905652	0.000164	1.637773	0.277446	0.000016
 787	7.8207e+01	7.8188	5.925205	0.000197	1.965328	0.332936	0.000020
 788	7.8306e+01	7.8271	5.943535	0.000184	1.842495	0.312127	0.000018
 789	7.8406e+01	7.8371	5.966346	0.000229	2.292882	0.388425	0.000023
 790	7.8505e+01	7.8459	5.989158	0.000229	2.292882	0.388425	0.000023
 791	7.8605e+01	7.8568	6.007895	0.000188	1.883439	0.319063	0.000019
 792	7.8704e+01	7.8662	6.025818	0.000180	1.801551	0.305191	0.000018
 793	7.8804e+01	7.8742	6.043334	0.000176	1.760606	0.298255	0.000018
 794	7.8903e+01	7.8858	6.066553	0.000233	2.333827	0.395361	0.000023
 795	7.9003e+01	7.8955	6.083254	0.000168	1.678718	0.284382	0.000017
 796	7.9103e+01	7.9054	6.102806	0.000197	1.965328	0.332936	0.000020
 797	7.9202e+01	7.9158	6.121951	0.000192	1.924384	0.325999	0.000019
 798	7.9302e+01	7.9248	6.143948	0.000221	2.210994	0.374552	0.000022
 799	7.9401e+01	7.9356	6.161463	0.000176	1.760606	0.298255	0.000018
 800	7.9501e+01	7.9474	6.180609	0.000192	1.924384	0.325999	0.000019
 801	7.9600e+01	7.9562	6.200161	0.000197	1.965328	0.332936	0.000020
 802	7.9700e+01	7.9675	6.220528	0.000205	2.047217	0.346808	0.000020
 803	7.9799e+01	7.9758	6.240488	0.000201	2.006272	0.339872	0.000020
 804	7.9898e+01	7.9855	6.260448	0.000201	2.006272	0.339872	0.000020
 805	7.9998e+01	7.9967	6.281222	0.000209	2.088161	0.353744	0.000021
 806	8.0097e+01	8.0061	6.297516	0.000164	1.637773	0.277446	0.000016
 807	8.0197e+01	8.0166	6.318698	0.000213	2.129105	0.360680	0.000021
 808	8.0296e+01	8.0261	6.339065	0.000205	2.047217	0.346808	0.000020
 809	8.0396e+01	8.0360	6.361469	0.000225	2.251938	0.381489	0.000023
 810	8.0496e+01	8.0453	6.381836	0.000205	2.047217	0.346808	0.000020
 811	8.0595e+01	8.0556	6.398944	0.000172	1.719662	0.291319	0.000017
 812	8.0695e+01	8.0667	6.417682	0.000188	1.883439	0.319063	0.000019
 813	8.0794e+01	8.0756	6.440493	0.000229	2.292882	0.388425	0.000023
 814	8.0894e+01	8.0862	6.453528	0.000131	1.310219	0.221957	0.000013
 815	8.0993e+01	8.0954	6.477969	0.000246	2.456660	0.416169	0.000025
 816	8.1093e+01	8.1048	6.496299	0.000184	1.842495	0.312127	0.000018
 817	8.1192e+01	8.1162	6.520740	0.000246	2.456660	0.416169	0.000025
 818	8.1291e+01	8.1235	6.537441	0.000168	1.678718	0.284382	0.000017
 819	8.1391e+01	8.1335	6.558215	0.000209	2.088161	0.353744	0.000021
 820	8.1490e+01	8.1447	6.576138	0.000180	1.801551	0.305191	0.000018
 821	8.1590e+01	8.1543	6.599764	0.000237	2.374771	0.402297	0.000024
 822	8.1689e+01	8.1676	6.615650	0.000160	1.596829	0.270510	0.000016
 823	8.1789e+01	8.1746	6.635203	0.000197	1.965328	0.332936	0.000020
 824	8.1888e+01	8.1846	6.655570	0.000205	2.047217	0.346808	0.000020
 825	8.1988e+01	8.1985	6.672271	0.000168	1.678718	0.284382	0.000017
 826	8.2088e+01	8.2040	6.694267	0.000221	2.210994	0.374552	0.000022
 827	8.2187e+01	8.2162	6.713005	0.000188	1.883439	0.319063	0.000019
 828	8.2287e+01	8.2234	6.728484	0.000156	1.555885	0.263574	0.000016
 829	8.2386e+01	8.2342	6.752110	0.000237	2.374771	0.402297	0.000024
 830	8.2486e+01	8.2455	6.770033	0.000180	1.801551	0.305191	0.000018
 831	8.2585e+01	8.2536	6.790400	0.000205	2.047217	0.346808	0.000020
 832	8.2684e+01	8.2630	6.806694	0.000164	1.637773	0.277446	0.000016
 833	8.2784e+01	8.2741	6.827876	0.000213	2.129105	0.360680	0.000021
 834	8.2883e+01	8.2830	6.849465	0.000217	2.170050	0.367616	0.000022
 835	8.2983e+01	8.2918	6.871869	0.000225	2.251938	0.381489	0.000023
 836	8.3082e+01	8.3012	6.893051	0.000213	2.129105	0.360680	0.000021
 837	8.3182e+01	8.3141	6.909752	0.000168	1.678718	0.284382	0.000017
 838	8.3281e+01	8.3225	6.929711	0.000201	2.006272	0.339872	0.000020
 839	8.3381e+01	8.3350	6.949671	0.000201	2.006272	0.339872	0.000020
 840	8.3481e+01	8.3437	6.968409	0.000188	1.883439	0.319063	0.000019
 841	8.3580e+01	8.3530	6.985517	0.000172	1.719662	0.291319	0.000017
 842	8.3680e+01	8.3655	7.006699	0.000213	2.129105	0.360680	0.000021
 843	8.3779e+01	8.3724	7.025030	0.000184	1.842495	0.312127	0.000018
 844	8.3879e+01	8.3854	7.048656	0.000237	2.374771	0.402297	0.000024
 845	8.3978e+01	8.3927	7.066579	0.000180	1.801551	0.305191	0.000018
 846	8.4078e+01	8.4051	7.090612	0.000242	2.415715	0.409233	0.000024
 847	8.4177e+01	8.4147	7.113423	0.000229	2.292882	0.388425	0.000023
 848	8.4276e+01	8.4251	7.134197	0.000209	2.088161	0.353744	0.000021
 849	8.4376e+01	8.4359	7.155379	0.000213	2.129105	0.360680	0.000021
 850	8.4475e+01	8.4432	7.173710	0.000184	1.842495	0.312127	0.000018
 851	8.4575e+01	8.4557	7.195706	0.000221	2.210994	0.374552	0.000022
 852	8.4674e+01	8.4622	7.212407	0.000168	1.678718	0.284382	0.000017
 853	8.4774e+01	8.4748	7.231960	0.000197	1.965328	0.332936	0.000020
 854	8.4874e+01	8.4840	7.253956	0.000221	2.210994	0.374552	0.000022
 855	8.4973e+01	8.4943	7.275545	0.000217	2.170050	0.367616	0.000022
 856	8.5073e+01	8.5030	7.292654	0.000172	1.719662	0.291319	0.000017
 857	8.5172e+01	8.5132	7.314243	0.000217	2.170050	0.367616	0.000022
 858	8.5272e+01	8.5239	7.332981	0.000188	1.883439	0.319063	0.000019
 859	8.5371e+01	8.5327	7.353348	0.000205	2.047217	0.346808	0.000020
 860	8.5471e+01	8.5394	7.374937	0.000217	2.170050	0.367616	0.000022
 861	8.5570e+01	8.5507	7.393267	0.000184	1.842495	0.312127	0.000018
 862	8.5669e+01	8.5615	7.416078	0.000229	2.292882	0.388425	0.000023
 863	8.5769e+01	8.5724	7.431150	0.000151	1.514940	0.256638	0.000015
 864	8.5868e+01	8.5825	7.458442	0.000274	2.743270	0.464723	0.000027
 865	8.5968e+01	8.5909	7.476365	0.000180	1.801551	0.305191	0.000018
 866	8.6067e+01	8.6025	7.494696	0.000184	1.842495	0.312127	0.000018
 867	8.6167e+01	8.6138	7.516692	0.000221	2.210994	0.374552	0.000022
 868	8.6266e+01	8.6225	7.537467	0.000209	2.088161	0.353744	0.000021
 869	8.6366e+01	8.6313	7.557019	0.000197	1.965328	0.332936	0.000020
 870	8.6466e+01	8.6442	7.577386	0.000205	2.047217	0.346808	0.000020
 871	8.6565e+01	8.6530	7.596124	0.000188	1.883439	0.319063	0.000019
 872	8.6665e+01	8.6634	7.616491	0.000205	2.047217	0.346808	0.000020
 873	8.6764e+01	8.6719	7.639302	0.000229	2.292882	0.388425	0.000023
 874	8.6864e+01	8.6832	7.659669	0.000205	2.047217	0.346808	0.000020
 875	8.6963e+01	8.6914	7.680444	0.000209	2.088161	0.353744	0.000021
 876	8.7063e+01	8.7036	7.700404	0.000201	2.006272	0.339872	0.000020
 877	8.7162e+01	8.7120	7.717512	0.000172	1.719662	0.291319	0.000017
 878	8.7261e+01	8.7217	7.740731	0.000233	2.333827	0.395361	0.000023
 879	8.7361e+01	8.7307	7.760690	0.000201	2.006272	0.339872	0.000020
 880	8.7460e+01	8.7431	7.783501	0.000229	2.292882	0.388425	0.000023
 881	8.7560e+01	8.7508	7.804276	0.000209	2.088161	0.353744	0.000021
 882	8.7659e+01	8.7614	7.824643	0.000205	2.047217	0.346808	0.000020
 883	8.7759e+01	8.7707	7.845010	0.000205	2.047217	0.346808	0.000020
 884	8.7859e+01	8.7811	7.866599	0.000217	2.170050	0.367616	0.000022
 885	8.7958e+01	8.7926	7.886559	0.000201	2.006272	0.339872	0.000020
 886	8.8058e+01	8.8007	7.906519	0.000201	2.006272	0.339872	0.000020
 887	8.8157e+01	8.8110	7.926071	0.000197	1.965328	0.332936	0.000020
 888	8.8257e+01	8.8227	7.949697	0.000237	2.374771	0.402297	0.000024
 889	8.8356e+01	8.8306	7.965584	0.000160	1.596829	0.270510	0.000016
 890	8.8456e+01	8.8380	7.988395	0.000229	2.292882	0.388425	0.000023
 891	8.8555e+01	8.8468	8.004281	0.000160	1.596829	0.270510	0.000016
 892	8.8654e+01	8.8624	8.026685	0.000225	2.251938	0.381489	0.000023
 893	8.8754e+01	8.8692	8.047052	0.000205	2.047217	0.346808	0.000020
 894	8.8853e+01	8.8824	8.070678	0.000237	2.374771	0.402297	0.000024
 895	8.8953e+01	8.8932	8.088601	0.000180	1.801551	0.305191	0.000018
 896	8.9052e+01	8.9005	8.115078	0.000266	2.661381	0.450850	0.000027
 897	8.9152e+01	8.9092	8.131779	0.000168	1.678718	0.284382	0.000017
 898	8.9251e+01	8.9202	8.155405	0.000237	2.374771	0.402297	0.000024
 899	8.9351e+01	8.9297	8.172921	0.000176	1.760606	0.298255	0.000018
 900	8.9451e+01	8.9417	8.197769	0.000250	2.497604	0.423106	0.000025
 901	8.9550e+01	8.9538	8.215285	0.000176	1.760606	0.298255	0.000018
 902	8.9650e+01	8.9635	8.236059	0.000209	2.088161	0.353744	0.000021
 903	8.9749e+01	8.9690	8.256426	0.000205	2.047217	0.346808	0.000020
 904	8.9849e+01	8.9795	8.277608	0.000213	2.129105	0.360680	0.000021
 905	8.9948e+01	8.9898	8.296346	0.000188	1.883439	0.319063	0.000019
 906	9.0047e+01	8.9996	8.316713	0.000205	2.047217	0.346808	0.000020
 907	9.0147e+01	9.0095	8.340746	0.000242	2.415715	0.409233	0.000024
 908	9.0246e+01	9.0215	8.362743	0.000221	2.210994	0.374552	0.000022
 909	9.0346e+01	9.0289	8.382702	0.000201	2.006272	0.339872	0.000020
 910	9.0445e+01	9.0398	8.402255	0.000197	1.965328	0.332936	0.000020
 911	9.0545e+01	9.0507	8.425066	0.000229	2.292882	0.388425	0.000023
 912	9.0644e+01	9.0606	8.447470	0.000225	2.251938	0.381489	0.000023
 913	9.0744e+01	9.0688	8.473132	0.000258	2.579493	0.436978	0.000026
 914	9.0844e+01	9.0791	8.497573	0.000246	2.456660	0.416169	0.000025
 915	9.0943e+01	9.0922	8.517940	0.000205	2.047217	0.346808	0.000020
 916	9.1043e+01	9.0997	8.541159	0.000233	2.333827	0.395361	0.000023
 917	9.1142e+01	9.1101	8.559896	0.000188	1.883439	0.319063	0.000019
 918	9.1242e+01	9.1201	8.579041	0.000192	1.924384	0.325999	0.000019
 919	9.1341e+01	9.1299	8.603482	0.000246	2.456660	0.416169	0.000025
 920	9.1441e+01	9.1396	8.620183	0.000168	1.678718	0.284382	0.000017
 921	9.1540e+01	9.1504	8.644624	0.000246	2.456660	0.416169	0.000025
 922	9.1639e+01	9.1626	8.660510	0.000160	1.596829	0.270510	0.000016
 923	9.1739e+01	9.1688	8.689839	0.000295	2.947992	0.499403	0.000029
 924	9.1838e+01	9.1788	8.708576	0.000188	1.883439	0.319063	0.000019
 925	9.1938e+01	9.1916	8.731388	0.000229	2.292882	0.388425	0.000023
 926	9.2037e+01	9.1956	8.754199	0.000229	2.292882	0.388425	0.000023
 927	9.2137e+01	9.2068	8.773751	0.000197	1.965328	0.332936	0.000020
 928	9.2237e+01	9.2172	8.795340	0.000217	2.170050	0.367616	0.000022
 929	9.2336e+01	9.2292	8.815707	0.000205	2.047217	0.346808	0.000020
 930	9.2436e+01	9.2387	8.835260	0.000197	1.965328	0.332936	0.000020
 931	9.2535e+01	9.2482	8.857664	0.000225	2.251938	0.381489	0.000023
 932	9.2635e+01	9.2578	8.876809	0.000192	1.924384	0.325999	0.000019
 933	9.2734e+01	9.2677	8.897583	0.000209	2.088161	0.353744	0.000021
 934	9.2834e+01	9.2786	8.919580	0.000221	2.210994	0.374552	0.000022
 935	9.2933e+01	9.2892	8.940354	0.000209	2.088161	0.353744	0.000021
 936	9.3032e+01	9.2983	8.966832	0.000266	2.661381	0.450850	0.000027
 937	9.3132e+01	9.3091	8.987606	0.000209	2.088161	0.353744	0.000021
 938	9.3231e+01	9.3164	9.008788	0.000213	2.129105	0.360680	0.000021
 939	9.3331e+01	9.3288	9.030784	0.000221	2.210994	0.374552	0.000022
 940	9.3430e+01	9.3369	9.050744	0.000201	2.006272	0.339872	0.000020
 941	9.3530e+01	9.3484	9.075185	0.000246	2.456660	0.416169	0.000025
 942	9.3629e+01	9.3595	9.095959	0.000209	2.088161	0.353744	0.000021
 943	9.3729e+01	9.3704	9.118770	0.000229	2.292882	0.388425	0.000023
 944	9.3829e+01	9.3783	9.140360	0.000217	2.170050	0.367616	0.000022
 945	9.3928e+01	9.3863	9.166022	0.000258	2.579493	0.436978	0.000026
 946	9.4028e+01	9.3958	9.184760	0.000188	1.883439	0.319063	0.000019
 947	9.4127e+01	9.4073	9.207164	0.000225	2.251938	0.381489	0.000023
 948	9.4227e+01	9.4180	9.232419	0.000254	2.538548	0.430042	0.000025
 949	9.4326e+01	9.4275	9.254823	0.000225	2.251938	0.381489	0.000023
 950	9.4425e+01	9.4363	9.277634	0.000229	2.292882	0.388425	0.000023
 951	9.4525e+01	9.4477	9.300445	0.000229	2.292882	0.388425	0.000023
 952	9.4624e+01	9.4572	9.319590	0.000192	1.924384	0.325999	0.000019
 953	9.4724e+01	9.4685	9.344031	0.000246	2.456660	0.416169	0.000025
 954	9.4823e+01	9.4751	9.367657	0.000237	2.374771	0.402297	0.000024
 955	9.4923e+01	9.4876	9.388431	0.000209	2.088161	0.353744	0.000021
 956	9.5022e+01	9.4945	9.412464	0.000242	2.415715	0.409233	0.000024
 957	9.5122e+01	9.5084	9.434868	0.000225	2.251938	0.381489	0.000023
 958	9.5222e+01	9.5166	9.460531	0.000258	2.579493	0.436978	0.000026
 959	9.5321e+01	9.5270	9.481305	0.000209	2.088161	0.353744	0.000021
 960	9.5421e+01	9.5374	9.506153	0.000250	2.497604	0.423106	0.000025
 961	9.5520e+01	9.5435	9.528150	0.000221	2.210994	0.374552	0.000022
 962	9.5620e+01	9.5605	9.554220	0.000262	2.620437	0.443914	0.000026
 963	9.5719e+01	9.5654	9.572550	0.000184	1.842495	0.312127	0.000018
 964	9.5819e+01	9.5759	9.600249	0.000278	2.784214	0.471659	0.000028
 965	9.5918e+01	9.5867	9.621024	0.000209	2.088161	0.353744	0.000021
 966	9.6017e+01	9.5953	9.643835	0.000229	2.292882	0.388425	0.000023
 967	9.6117e+01	9.6075	9.666646	0.000229	2.292882	0.388425	0.000023
 968	9.6216e+01	9.6174	9.690679	0.000242	2.415715	0.409233	0.000024
 969	9.6316e+01	9.6246	9.713490	0.000229	2.292882	0.388425	0.000023
 970	9.6415e+01	9.6379	9.740782	0.000274	2.743270	0.464723	0.000027
 971	9.6515e+01	9.6438	9.761557	0.000209	2.088161	0.353744	0.000021
 972	9.6615e+01	9.6555	9.788034	0.000266	2.661381	0.450850	0.000027
 973	9.6714e+01	9.6638	9.814104	0.000262	2.620437	0.443914	0.000026
 974	9.6814e+01	9.6753	9.831620	0.000176	1.760606	0.298255	0.000018
 975	9.6913e+01	9.6859	9.856875	0.000254	2.538548	0.430042	0.000025
 976	9.7013e+01	9.6954	9.884574	0.000278	2.784214	0.471659	0.000028
 977	9.7112e+01	9.7049	9.907793	0.000233	2.333827	0.395361	0.000023
 978	9.7212e+01	9.7146	9.929382	0.000217	2.170050	0.367616	0.000022
 979	9.7311e+01	9.7260	9.954230	0.000250	2.497604	0.423106	0.000025
 980	9.7410e+01	9.7352	9.978263	0.000242	2.415715	0.409233	0.000024
 981	9.7510e+01	9.7466	10.002704	0.000246	2.456660	0.416169	0.000025
 982	9.7609e+01	9.7566	10.027144	0.000246	2.456660	0.416169	0.000025
 983	9.7709e+01	9.7645	10.053214	0.000262	2.620437	0.443914	0.000026
 984	9.7808e+01	9.7770	10.079284	0.000262	2.620437	0.443914	0.000026
 985	9.7908e+01	9.7860	10.104539	0.000254	2.538548	0.430042	0.000025
 986	9.8007e+01	9.7932	10.130202	0.000258	2.579493	0.436978	0.000026
 987	9.8107e+01	9.8048	10.157087	0.000270	2.702326	0.457786	0.000027
 988	9.8207e+01	9.8157	10.185193	0.000283	2.825159	0.478595	0.000028
 989	9.8306e+01	9.8286	10.208004	0.000229	2.292882	0.388425	0.000023
 990	9.8406e+01	9.8348	10.231630	0.000237	2.374771	0.402297	0.000024
 991	9.8505e+01	9.8468	10.257293	0.000258	2.579493	0.436978	0.000026
 992	9.8605e+01	9.8553	10.283770	0.000266	2.661381	0.450850	0.000027
 993	9.8704e+01	9.8623	10.306581	0.000229	2.292882	0.388425	0.000023
 994	9.8803e+01	9.8737	10.337539	0.000311	3.111769	0.527148	0.000031
 995	9.8903e+01	9.8853	10.358314	0.000209	2.088161	0.353744	0.000021
 996	9.9002e+01	9.8951	10.382347	0.000242	2.415715	0.409233	0.000024
 997	9.9102e+01	9.9072	10.408010	0.000258	2.579493	0.436978	0.000026
 998	9.9201e+01	9.9164	10.433265	0.000254	2.538548	0.430042	0.000025
 999	9.9301e+01	9.9271	10.457705	0.000246	2.456660	0.416169	0.000025
1000	9.9400e+01	9.9344	10.484590	0.000270	2.702326	0.457786	0.000027
1001	9.9500e+01	9.9432	10.513919	0.000295	2.947992	0.499403	0.000029
1002	9.9600e+01	9.9552	10.541618	0.000278	2.784214	0.471659	0.000028
1003	9.9699e+01	9.9664	10.572983	0.000315	3.152713	0.534084	0.000032
1004	9.9799e+01	9.9761	10.599053	0.000262	2.620437	0.443914	0.000026
1005	9.9898e+01	9.9844	10.627975	0.000291	2.907047	0.492467	0.000029
1006	9.9998e+01	9.9928	10.658118	0.000303	3.029880	0.513276	0.000030
1007	1.0010e+02	9.9844	10.649971	0.000082	0.818887	0.138723	-0.000008
1008	1.0020e+02	9.9758	10.646305	0.000037	0.368499	0.062425	-0.000004
1009	1.0030e+02	9.9667	10.635714	0.000106	1.064553	0.180340	-0.000011
1010	1.0040e+02	9.9545	10.634085	0.000016	0.163777	0.027745	-0.000002
1011	1.0050e+02	9.9440	10.628789	0.000053	0.532276	0.090170	-0.000005
1012	1.0059e+02	9.9375	10.629604	-0.000008	-0.081889	-0.013872	0.000001
1013	1.0069e+02	9.9249	10.622679	0.000070	0.696054	0.117915	-0.000007
1014	1.0079e+02	9.9146	10.619013	0.000037	0.368499	0.062425	-0.000004
1015	1.0089e+02	9.9043	10.612903	0.000061	0.614165	0.104042	-0.000006
1016	1.0099e+02	9.8965	10.612088	0.000008	0.081889	0.013872	-0.000001
1017	1.0109e+02	9.8859	10.606385	0.000057	0.573221	0.097106	-0.000006
1018	1.0119e+02	9.8743	10.600683	0.000057	0.573221	0.097106	-0.000006
1019	1.0129e+02	9.8664	10.591314	0.000094	0.941720	0.159532	-0.000009
1020	1.0139e+02	9.8560	10.586426	0.000049	0.491332	0.083234	-0.000005
1021	1.0149e+02	9.8440	10.583574	0.000029	0.286610	0.048553	-0.000003
1022	1.0159e+02	9.8330	10.575427	0.000082	0.818887	0.138723	-0.000008
1023	1.0169e+02	9.8251	10.565651	0.000098	0.982664	0.166468	-0.000010
1024	1.0179e+02	9.8157	10.560763	0.000049	0.491332	0.083234	-0.000005
1025	1.0189e+02	9.8064	10.553431	0.000074	0.736998	0.124851	-0.000007
1026	1.0199e+02	9.7974	10.544469	0.000090	0.900775	0.152595	-0.000009
1027	1.0209e+02	9.7858	10.539174	0.000053	0.532276	0.090170	-0.000005
1028	1.0219e+02	9.7745	10.531027	0.000082	0.818887	0.138723	-0.000008
1029	1.0229e+02	9.7659	10.519621	0.000115	1.146441	0.194212	-0.000011
1030	1.0239e+02	9.7552	10.512289	0.000074	0.736998	0.124851	-0.000007
1031	1.0248e+02	9.7449	10.504957	0.000074	0.736998	0.124851	-0.000007
1032	1.0258e+02	9.7353	10.496403	0.000086	0.859831	0.145659	-0.000009
1033	1.0268e+02	9.7251	10.490700	0.000057	0.573221	0.097106	-0.000006
1034	1.0278e+02	9.7175	10.481331	0.000094	0.941720	0.159532	-0.000009
1035	1.0288e+02	9.7102	10.471962	0.000094	0.941720	0.159532	-0.000009
1036	1.0298e+02	9.6948	10.463815	0.000082	0.818887	0.138723	-0.000008
1037	1.0308e+02	9.6877	10.457705	0.000061	0.614165	0.104042	-0.000006
1038	1.0318e+02	9.6744	10.447114	0.000106	1.064553	0.180340	-0.000011
1039	1.0328e+02	9.6675	10.441004	0.000061	0.614165	0.104042	-0.000006
1040	1.0338e+02	9.6535	10.429599	0.000115	1.146441	0.194212	-0.000011
1041	1.0348e+02	9.6475	10.421452	0.000082	0.818887	0.138723	-0.000008
1042	1.0358e+02	9.6373	10.412898	0.000086	0.859831	0.145659	-0.000009
1043	1.0368e+02	9.6266	10.404343	0.000086	0.859831	0.145659	-0.000009
1044	1.0378e+02	9.6155	10.396604	0.000078	0.777942	0.131787	-0.000008
1045	1.0388e+02	9.6069	10.388050	0.000086	0.859831	0.145659	-0.000009
1046	1.0398e+02	9.5941	10.375015	0.000131	1.310219	0.221957	-0.000013
1047	1.0408e+02	9.5864	10.368090	0.000070	0.696054	0.117915	-0.000007
1048	1.0418e+02	9.5753	10.361572	0.000066	0.655109	0.110979	-0.000007
1049	1.0428e+02	9.5666	10.351796	0.000098	0.982664	0.166468	-0.000010
1050	1.0438e+02	9.5562	10.339576	0.000123	1.228330	0.208085	-0.000012
1051	1.0447e+02	9.5486	10.328578	0.000111	1.105497	0.187276	-0.000011
1052	1.0457e+02	9.5364	10.320024	0.000086	0.859831	0.145659	-0.000009
1053	1.0467e+02	9.5242	10.311469	0.000086	0.859831	0.145659	-0.000009
1054	1.0477e+02	9.5197	10.297620	0.000139	1.392107	0.235829	-0.000014
1055	1.0487e+02	9.5028	10.288251	0.000094	0.941720	0.159532	-0.000009
1056	1.0497e+02	9.4980	10.281326	0.000070	0.696054	0.117915	-0.000007
1057	1.0507e+02	9.4861	10.268291	0.000131	1.310219	0.221957	-0.000013
1058	1.0517e+02	9.4775	10.259330	0.000090	0.900775	0.152595	-0.000009
1059	1.0527e+02	9.4666	10.246702	0.000127	1.269274	0.215021	-0.000013
1060	1.0537e+02	9.4580	10.235296	0.000115	1.146441	0.194212	-0.000011
1061	1.0547e+02	9.4470	10.228371	0.000070	0.696054	0.117915	-0.000007
1062	1.0557e+02	9.4370	10.213707	0.000147	1.473996	0.249702	-0.000015
1063	1.0567e+02	9.4271	10.204746	0.000090	0.900775	0.152595	-0.000009
1064	1.0577e+02	9.4155	10.194155	0.000106	1.064553	0.180340	-0.000011
1065	1.0587e+02	9.4092	10.182749	0.000115	1.146441	0.194212	-0.000011
1066	1.0597e+02	9.3973	10.174195	0.000086	0.859831	0.145659	-0.000009
1067	1.0607e+02	9.3872	10.163604	0.000106	1.064553	0.180340	-0.000011
1068	1.0617e+02	9.3768	10.150569	0.000131	1.310219	0.221957	-0.000013
1069	1.0627e+02	9.3665	10.140793	0.000098	0.982664	0.166468	-0.000010
1070	1.0637e+02	9.3561	10.131017	0.000098	0.982664	0.166468	-0.000010
1071	1.0647e+02	9.3491	10.116352	0.000147	1.473996	0.249702	-0.000015
1072	1.0656e+02	9.3393	10.103317	0.000131	1.310219	0.221957	-0.000013
1073	1.0666e+02	9.3283	10.098837	0.000045	0.450388	0.076298	-0.000005
1074	1.0676e+02	9.3192	10.084172	0.000147	1.473996	0.249702	-0.000015
1075	1.0686e+02	9.3079	10.074803	0.000094	0.941720	0.159532	-0.000009
1076	1.0696e+02	9.2969	10.065027	0.000098	0.982664	0.166468	-0.000010
1077	1.0706e+02	9.2881	10.052399	0.000127	1.269274	0.215021	-0.000013
1078	1.0716e+02	9.2791	10.043031	0.000094	0.941720	0.159532	-0.000009
1079	1.0726e+02	9.2679	10.031218	0.000119	1.187386	0.201149	-0.000012
1080	1.0736e+02	9.2571	10.023071	0.000082	0.818887	0.138723	-0.000008
1081	1.0746e+02	9.2470	10.010036	0.000131	1.310219	0.221957	-0.000013
1082	1.0756e+02	9.2384	10.004740	0.000053	0.532276	0.090170	-0.000005
1083	1.0766e+02	9.2300	9.991705	0.000131	1.310219	0.221957	-0.000013
1084	1.0776e+02	9.2194	9.977856	0.000139	1.392107	0.235829	-0.000014
1085	1.0786e+02	9.2101	9.968894	0.000090	0.900775	0.152595	-0.000009
1086	1.0796e+02	9.1987	9.954230	0.000147	1.473996	0.249702	-0.000015
1087	1.0806e+02	9.1886	9.942824	0.000115	1.146441	0.194212	-0.000011
1088	1.0816e+02	9.1785	9.925716	0.000172	1.719662	0.291319	-0.000017
1089	1.0826e+02	9.1699	9.920420	0.000053	0.532276	0.090170	-0.000005
1090	1.0836e+02	9.1578	9.906164	0.000143	1.433052	0.242766	-0.000014
1091	1.0845e+02	9.1486	9.898017	0.000082	0.818887	0.138723	-0.000008
1092	1.0855e+02	9.1357	9.883760	0.000143	1.433052	0.242766	-0.000014
1093	1.0865e+02	9.1293	9.874391	0.000094	0.941720	0.159532	-0.000009
1094	1.0875e+02	9.1193	9.859726	0.000147	1.473996	0.249702	-0.000015
1095	1.0885e+02	9.1097	9.846284	0.000135	1.351163	0.228893	-0.000014
1096	1.0895e+02	9.0992	9.834064	0.000123	1.228330	0.208085	-0.000012
1097	1.0905e+02	9.0887	9.819400	0.000147	1.473996	0.249702	-0.000015
1098	1.0915e+02	9.0803	9.805143	0.000143	1.433052	0.242766	-0.000014
1099	1.0925e+02	9.0710	9.790071	0.000151	1.514940	0.256638	-0.000015
1100	1.0935e+02	9.0594	9.776629	0.000135	1.351163	0.228893	-0.000014
1101	1.0945e+02	9.0506	9.764816	0.000119	1.187386	0.201149	-0.000012
1102	1.0955e+02	9.0412	9.753003	0.000119	1.187386	0.201149	-0.000012
1103	1.0965e+02	9.0314	9.743226	0.000098	0.982664	0.166468	-0.000010
1104	1.0975e+02	9.0189	9.727340	0.000160	1.596829	0.270510	-0.000016
1105	1.0985e+02	9.0100	9.711861	0.000156	1.555885	0.263574	-0.000016
1106	1.0995e+02	9.0008	9.702900	0.000090	0.900775	0.152595	-0.000009
1107	1.1005e+02	8.9893	9.688235	0.000147	1.473996	0.249702	-0.000015
1108	1.1015e+02	8.9812	9.677644	0.000106	1.064553	0.180340	-0.000011
1109	1.1025e+02	8.9704	9.662980	0.000147	1.473996	0.249702	-0.000015
1110	1.1035e+02	8.9605	9.652796	0.000102	1.023608	0.173404	-0.000010
1111	1.1044e+02	8.9502	9.639354	0.000135	1.351163	0.228893	-0.000014
1112	1.1054e+02	8.9387	9.629985	0.000094	0.941720	0.159532	-0.000009
1113	1.1064e+02	8.9270	9.612062	0.000180	1.801551	0.305191	-0.000018
1114	1.1074e+02	8.9168	9.599435	0.000127	1.269274	0.215021	-0.000013
1115	1.1084e+02	8.9112	9.583956	0.000156	1.555885	0.263574	-0.000016
1116	1.1094e+02	8.8992	9.572550	0.000115	1.146441	0.194212	-0.000011
1117	1.1104e+02	8.8876	9.562774	0.000098	0.982664	0.166468	-0.000010
1118	1.1114e+02	8.8798	9.548109	0.000147	1.473996	0.249702	-0.000015
1119	1.1124e+02	8.8723	9.534260	0.000139	1.392107	0.235829	-0.000014
1120	1.1134e+02	8.8599	9.520817	0.000135	1.351163	0.228893	-0.000014
1121	1.1144e+02	8.8501	9.508190	0.000127	1.269274	0.215021	-0.000013
1122	1.1154e+02	8.8409	9.492711	0.000156	1.555885	0.263574	-0.000016
1123	1.1164e+02	8.8297	9.482527	0.000102	1.023608	0.173404	-0.000010
1124	1.1174e+02	8.8184	9.464604	0.000180	1.801551	0.305191	-0.000018
1125	1.1184e+02	8.8097	9.454828	0.000098	0.982664	0.166468	-0.000010
1126	1.1194e+02	8.8037	9.439756	0.000151	1.514940	0.256638	-0.000015
1127	1.1204e+02	8.7926	9.428351	0.000115	1.146441	0.194212	-0.000011
1128	1.1214e+02	8.7833	9.412464	0.000160	1.596829	0.270510	-0.000016
1129	1.1224e+02	8.7725	9.403095	0.000094	0.941720	0.159532	-0.000009
1130	1.1234e+02	8.7616	9.387616	0.000156	1.555885	0.263574	-0.000016
1131	1.1244e+02	8.7543	9.369693	0.000180	1.801551	0.305191	-0.000018
1132	1.1253e+02	8.7424	9.356658	0.000131	1.310219	0.221957	-0.000013
1133	1.1263e+02	8.7315	9.343623	0.000131	1.310219	0.221957	-0.000013
1134	1.1273e+02	8.7205	9.330181	0.000135	1.351163	0.228893	-0.000014
1135	1.1283e+02	8.7110	9.316739	0.000135	1.351163	0.228893	-0.000014
1136	1.1293e+02	8.7012	9.302482	0.000143	1.433052	0.242766	-0.000014
1137	1.1303e+02	8.6902	9.289447	0.000131	1.310219	0.221957	-0.000013
1138	1.1313e+02	8.6846	9.274375	0.000151	1.514940	0.256638	-0.000015
1139	1.1323e+02	8.6712	9.261340	0.000131	1.310219	0.221957	-0.000013
1140	1.1333e+02	8.6646	9.247898	0.000135	1.351163	0.228893	-0.000014
1141	1.1343e+02	8.6511	9.235270	0.000127	1.269274	0.215021	-0.000013
1142	1.1353e+02	8.6431	9.223865	0.000115	1.146441	0.194212	-0.000011
1143	1.1363e+02	8.6304	9.208386	0.000156	1.555885	0.263574	-0.000016
1144	1.1373e+02	8.6221	9.191685	0.000168	1.678718	0.284382	-0.000017
1145	1.1383e+02	8.6133	9.178242	0.000135	1.351163	0.228893	-0.000014
1146	1.1393e+02	8.6030	9.165207	0.000131	1.310219	0.221957	-0.000013
1147	1.1403e+02	8.5904	9.150543	0.000147	1.473996	0.249702	-0.000015
1148	1.1413e+02	8.5819	9.139545	0.000111	1.105497	0.187276	-0.000011
1149	1.1423e+02	8.5700	9.122844	0.000168	1.678718	0.284382	-0.000017
1150	1.1433e+02	8.5620	9.108587	0.000143	1.433052	0.242766	-0.000014
1151	1.1442e+02	8.5533	9.095144	0.000135	1.351163	0.228893	-0.000014
1152	1.1452e+02	8.5437	9.081295	0.000139	1.392107	0.235829	-0.000014
1153	1.1462e+02	8.5338	9.065816	0.000156	1.555885	0.263574	-0.000016
1154	1.1472e+02	8.5231	9.051966	0.000139	1.392107	0.235829	-0.000014
1155	1.1482e+02	8.5164	9.041783	0.000102	1.023608	0.173404	-0.000010
1156	1.1492e+02	8.5028	9.025896	0.000160	1.596829	0.270510	-0.000016
1157	1.1502e+02	8.4925	9.013676	0.000123	1.228330	0.208085	-0.000012
1158	1.1512e+02	8.4852	8.995753	0.000180	1.801551	0.305191	-0.000018
1159	1.1522e+02	8.4718	8.980274	0.000156	1.555885	0.263574	-0.000016
1160	1.1532e+02	8.4621	8.966017	0.000143	1.433052	0.242766	-0.000014
1161	1.1542e+02	8.4541	8.952982	0.000131	1.310219	0.221957	-0.000013
1162	1.1552e+02	8.4437	8.936281	0.000168	1.678718	0.284382	-0.000017
1163	1.1562e+02	8.4357	8.921617	0.000147	1.473996	0.249702	-0.000015
1164	1.1572e+02	8.4229	8.907767	0.000139	1.392107	0.235829	-0.000014
1165	1.1582e+02	8.4131	8.890251	0.000176	1.760606	0.298255	-0.000018
1166	1.1592e+02	8.4036	8.875994	0.000143	1.433052	0.242766	-0.000014
1167	1.1602e+02	8.3951	8.860515	0.000156	1.555885	0.263574	-0.000016
1168	1.1612e+02	8.3832	8.848295	0.000123	1.228330	0.208085	-0.000012
1169	1.1622e+02	8.3749	8.832001	0.000164	1.637773	0.277446	-0.000016
1170	1.1632e+02	8.3643	8.819781	0.000123	1.228330	0.208085	-0.000012
1171	1.1642e+02	8.3554	8.802265	0.000176	1.760606	0.298255	-0.000018
1172	1.1651e+02	8.3434	8.789230	0.000131	1.310219	0.221957	-0.000013
1173	1.1661e+02	8.3337	8.775381	0.000139	1.392107	0.235829	-0.000014
1174	1.1671e+02	8.3242	8.760309	0.000151	1.514940	0.256638	-0.000015
1175	1.1681e+02	8.3136	8.741164	0.000192	1.924384	0.325999	-0.000019
1176	1.1691e+02	8.3035	8.726092	0.000151	1.514940	0.256638	-0.000015
1177	1.1701e+02	8.2951	8.711835	0.000143	1.433052	0.242766	-0.000014
1178	1.1711e+02	8.2833	8.697986	0.000139	1.392107	0.235829	-0.000014
1179	1.1721e+02	8.2740	8.686987	0.000111	1.105497	0.187276	-0.000011
1180	1.1731e+02	8.2629	8.669064	0.000180	1.801551	0.305191	-0.000018
1181	1.1741e+02	8.2520	8.655215	0.000139	1.392107	0.235829	-0.000014
1182	1.1751e+02	8.2429	8.643402	0.000119	1.187386	0.201149	-0.000012
1183	1.1761e+02	8.2324	8.629959	0.000135	1.351163	0.228893	-0.000014
1184	1.1771e+02	8.2230	8.616517	0.000135	1.351163	0.228893	-0.000014
1185	1.1781e+02	8.2134	8.600223	0.000164	1.637773	0.277446	-0.000016
1186	1.1791e+02	8.2050	8.586781	0.000135	1.351163	0.228893	-0.000014
1187	1.1801e+02	8.1942	8.570487	0.000164	1.637773	0.277446	-0.000016
1188	1.1811e+02	8.1858	8.555008	0.000156	1.555885	0.263574	-0.000016
1189	1.1821e+02	8.1739	8.542381	0.000127	1.269274	0.215021	-0.000013
1190	1.1831e+02	8.1629	8.528531	0.000139	1.392107	0.235829	-0.000014
1191	1.1841e+02	8.1554	8.511015	0.000176	1.760606	0.298255	-0.000018
1192	1.1850e+02	8.1436	8.496758	0.000143	1.433052	0.242766	-0.000014
1193	1.1860e+02	8.1351	8.482501	0.000143	1.433052	0.242766	-0.000014
1194	1.1870e+02	8.1234	8.467022	0.000156	1.555885	0.263574	-0.000016
1195	1.1880e+02	8.1174	8.452358	0.000147	1.473996	0.249702	-0.000015
1196	1.1890e+02	8.1049	8.436879	0.000156	1.555885	0.263574	-0.000016
1197	1.1900e+02	8.0957	8.421400	0.000156	1.555885	0.263574	-0.000016
1198	1.1910e+02	8.0844	8.403477	0.000180	1.801551	0.305191	-0.000018
1199	1.1920e+02	8.0766	8.391257	0.000123	1.228330	0.208085	-0.000012
1200	1.1930e+02	8.0668	8.374963	0.000164	1.637773	0.277446	-0.000016
1201	1.1940e+02	8.0563	8.358669	0.000164	1.637773	0.277446	-0.000016
1202	1.1950e+02	8.0439	8.347264	0.000115	1.146441	0.194212	-0.000011
1203	1.1960e+02	8.0373	8.331377	0.000160	1.596829	0.270510	-0.000016
1204	1.1970e+02	8.0202	8.314676	0.000168	1.678718	0.284382	-0.000017
1205	1.1980e+02	8.0144	8.297568	0.000172	1.719662	0.291319	-0.000017
1206	1.1990e+02	8.0061	8.284533	0.000131	1.310219	0.221957	-0.000013
1207	1.2000e+02	7.9987	8.267832	0.000168	1.678718	0.284382	-0.000017
1208	1.2010e+02	7.9850	8.255611	0.000123	1.228330	0.208085	-0.000012
1209	1.2020e+02	7.9768	8.236466	0.000192	1.924384	0.325999	-0.000019
1210	1.2030e+02	7.9642	8.222617	0.000139	1.392107	0.235829	-0.000014
1211	1.2039e+02	7.9562	8.209174	0.000135	1.351163	0.228893	-0.000014
1212	1.2049e+02	7.9443	8.187585	0.000217	2.170050	0.367616	-0.000022
1213	1.2059e+02	7.9379	8.180253	0.000074	0.736998	0.124851	-0.000007
1214	1.2069e+02	7.9253	8.157442	0.000229	2.292882	0.388425	-0.000023
1215	1.2079e+02	7.9168	8.143185	0.000143	1.433052	0.242766	-0.000014
1216	1.2089e+02	7.9076	8.127299	0.000160	1.596829	0.270510	-0.000016
1217	1.2099e+02	7.8955	8.112634	0.000147	1.473996	0.249702	-0.000015
1218	1.2109e+02	7.8854	8.098785	0.000139	1.392107	0.235829	-0.000014
1219	1.2119e+02	7.8753	8.082084	0.000168	1.678718	0.284382	-0.000017
1220	1.2129e+02	7.8648	8.069456	0.000127	1.269274	0.215021	-0.000013
1221	1.2139e+02	7.8580	8.051940	0.000176	1.760606	0.298255	-0.000018
1222	1.2149e+02	7.8452	8.033202	0.000188	1.883439	0.319063	-0.000019
1223	1.2159e+02	7.8358	8.018945	0.000143	1.433052	0.242766	-0.000014
1224	1.2169e+02	7.8234	8.001837	0.000172	1.719662	0.291319	-0.000017
1225	1.2179e+02	7.8177	7.985136	0.000168	1.678718	0.284382	-0.000017
1226	1.2189e+02	7.8076	7.972101	0.000131	1.310219	0.221957	-0.000013
1227	1.2199e+02	7.7956	7.955400	0.000168	1.678718	0.284382	-0.000017
1228	1.2209e+02	7.7857	7.939106	0.000164	1.637773	0.277446	-0.000016
1229	1.2219e+02	7.7749	7.922813	0.000164	1.637773	0.277446	-0.000016
1230	1.2229e+02	7.7661	7.909778	0.000131	1.310219	0.221957	-0.000013
1231	1.2239e+02	7.7580	7.891447	0.000184	1.842495	0.312127	-0.000018
1232	1.2248e+02	7.7462	7.877598	0.000139	1.392107	0.235829	-0.000014
1233	1.2258e+02	7.7344	7.860897	0.000168	1.678718	0.284382	-0.000017
1234	1.2268e+02	7.7277	7.845825	0.000151	1.514940	0.256638	-0.000015
1235	1.2278e+02	7.7151	7.830753	0.000151	1.514940	0.256638	-0.000015
1236	1.2288e+02	7.7102	7.813645	0.000172	1.719662	0.291319	-0.000017
1237	1.2298e+02	7.6962	7.797351	0.000164	1.637773	0.277446	-0.000016
1238	1.2308e+02	7.6871	7.778206	0.000192	1.924384	0.325999	-0.000019
1239	1.2318e+02	7.6739	7.764356	0.000139	1.392107	0.235829	-0.000014
1240	1.2328e+02	7.6656	7.746841	0.000176	1.760606	0.298255	-0.000018
1241	1.2338e+02	7.6593	7.728918	0.000180	1.801551	0.305191	-0.000018
1242	1.2348e+02	7.6479	7.718734	0.000102	1.023608	0.173404	-0.000010
1243	1.2358e+02	7.6389	7.701626	0.000172	1.719662	0.291319	-0.000017
1244	1.2368e+02	7.6247	7.685332	0.000164	1.637773	0.277446	-0.000016
1245	1.2378e+02	7.6177	7.671482	0.000139	1.392107	0.235829	-0.000014
1246	1.2388e+02	7.6074	7.657225	0.000143	1.433052	0.242766	-0.000014
1247	1.2398e+02	7.5991	7.641339	0.000160	1.596829	0.270510	-0.000016
1248	1.2408e+02	7.5869	7.626267	0.000151	1.514940	0.256638	-0.000015
1249	1.2418e+02	7.5774	7.609159	0.000172	1.719662	0.291319	-0.000017
1250	1.2428e+02	7.5668	7.594087	0.000151	1.514940	0.256638	-0.000015
1251	1.2438e+02	7.5555	7.580238	0.000139	1.392107	0.235829	-0.000014
1252	1.2447e+02	7.5492	7.561907	0.000184	1.842495	0.312127	-0.000018
1253	1.2457e+02	7.5382	7.541947	0.000201	2.006272	0.339872	-0.000020
1254	1.2467e+02	7.5262	7.526468	0.000156	1.555885	0.263574	-0.000016
1255	1.2477e+02	7.5178	7.510175	0.000164	1.637773	0.277446	-0.000016
1256	1.2487e+02	7.5080	7.493474	0.000168	1.678718	0.284382	-0.000017
1257	1.2497e+02	7.4988	7.480439	0.000131	1.310219	0.221957	-0.000013
1258	1.2507e+02	7.4886	7.464552	0.000160	1.596829	0.270510	-0.000016
1259	1.2517e+02	7.4782	7.448259	0.000164	1.637773	0.277446	-0.000016
1260	1.2527e+02	7.4694	7.430335	0.000180	1.801551	0.305191	-0.000018
1261	1.2537e+02	7.4602	7.414856	0.000156	1.555885	0.263574	-0.000016
1262	1.2547e+02	7.4497	7.398563	0.000164	1.637773	0.277446	-0.000016
1263	1.2557e+02	7.4376	7.377381	0.000213	2.129105	0.360680	-0.000021
1264	1.2567e+02	7.4325	7.362717	0.000147	1.473996	0.249702	-0.000015
1265	1.2577e+02	7.4191	7.344386	0.000184	1.842495	0.312127	-0.000018
1266	1.2587e+02	7.4097	7.329722	0.000147	1.473996	0.249702	-0.000015
1267	1.2597e+02	7.3984	7.309355	0.000205	2.047217	0.346808	-0.000020
1268	1.2607e+02	7.3915	7.291024	0.000184	1.842495	0.312127	-0.000018
1269	1.2617e+02	7.3794	7.272694	0.000184	1.842495	0.312127	-0.000018
1270	1.2627e+02	7.3658	7.259252	0.000135	1.351163	0.228893	-0.000014
1271	1.2636e+02	7.3608	7.243773	0.000156	1.555885	0.263574	-0.000016
1272	1.2646e+02	7.3465	7.225442	0.000184	1.842495	0.312127	-0.000018
1273	1.2656e+02	7.3389	7.205890	0.000197	1.965328	0.332936	-0.000020
1274	1.2666e+02	7.3289	7.187967	0.000180	1.801551	0.305191	-0.000018
1275	1.2676e+02	7.3186	7.178598	0.000094	0.941720	0.159532	-0.000009
1276	1.2686e+02	7.3137	7.156194	0.000225	2.251938	0.381489	-0.000023
1277	1.2696e+02	7.2960	7.139900	0.000164	1.637773	0.277446	-0.000016
1278	1.2706e+02	7.2901	7.123199	0.000168	1.678718	0.284382	-0.000017
1279	1.2716e+02	7.2785	7.105276	0.000180	1.801551	0.305191	-0.000018
1280	1.2726e+02	7.2688	7.091426	0.000139	1.392107	0.235829	-0.000014
1281	1.2736e+02	7.2601	7.074318	0.000172	1.719662	0.291319	-0.000017
1282	1.2746e+02	7.2491	7.058432	0.000160	1.596829	0.270510	-0.000016
1283	1.2756e+02	7.2389	7.042138	0.000164	1.637773	0.277446	-0.000016
1284	1.2766e+02	7.2294	7.027474	0.000147	1.473996	0.249702	-0.000015
1285	1.2776e+02	7.2179	7.008329	0.000192	1.924384	0.325999	-0.000019
1286	1.2786e+02	7.2095	6.992035	0.000164	1.637773	0.277446	-0.000016
1287	1.2796e+02	7.1951	6.970038	0.000221	2.210994	0.374552	-0.000022
1288	1.2806e+02	7.1877	6.956189	0.000139	1.392107	0.235829	-0.000014
1289	1.2816e+02	7.1806	6.941524	0.000147	1.473996	0.249702	-0.000015
1290	1.2826e+02	7.1680	6.924823	0.000168	1.678718	0.284382	-0.000017
1291	1.2835e+02	7.1609	6.910566	0.000143	1.433052	0.242766	-0.000014
1292	1.2845e+02	7.1510	6.890607	0.000201	2.006272	0.339872	-0.000020
1293	1.2855e+02	7.1389	6.876350	0.000143	1.433052	0.242766	-0.000014
1294	1.2865e+02	7.1333	6.857205	0.000192	1.924384	0.325999	-0.000019
1295	1.2875e+02	7.1228	6.842133	0.000151	1.514940	0.256638	-0.000015
1296	1.2885e+02	7.1106	6.822580	0.000197	1.965328	0.332936	-0.000020
1297	1.2895e+02	7.1030	6.803028	0.000197	1.965328	0.332936	-0.000020
1298	1.2905e+02	7.0905	6.785512	0.000176	1.760606	0.298255	-0.000018
1299	1.2915e+02	7.0783	6.770441	0.000151	1.514940	0.256638	-0.000015
1300	1.2925e+02	7.0713	6.754554	0.000160	1.596829	0.270510	-0.000016
1301	1.2935e+02	7.0581	6.738668	0.000160	1.596829	0.270510	-0.000016
1302	1.2945e+02	7.0485	6.720337	0.000184	1.842495	0.312127	-0.000018
1303	1.2955e+02	7.0422	6.704858	0.000156	1.555885	0.263574	-0.000016
1304	1.2965e+02	7.0296	6.688972	0.000160	1.596829	0.270510	-0.000016
1305	1.2975e+02	7.0211	6.670234	0.000188	1.883439	0.319063	-0.000019
1306	1.2985e+02	7.0100	6.656385	0.000139	1.392107	0.235829	-0.000014
1307	1.2995e+02	6.9985	6.638462	0.000180	1.801551	0.305191	-0.000018
1308	1.3005e+02	6.9891	6.622983	0.000156	1.555885	0.263574	-0.000016
1309	1.3015e+02	6.9801	6.602615	0.000205	2.047217	0.346808	-0.000020
1310	1.3025e+02	6.9720	6.583878	0.000188	1.883439	0.319063	-0.000019
1311	1.3034e+02	6.9593	6.567991	0.000160	1.596829	0.270510	-0.000016
1312	1.3044e+02	6.9498	6.551290	0.000168	1.678718	0.284382	-0.000017
1313	1.3054e+02	6.9414	6.532552	0.000188	1.883439	0.319063	-0.000019
1314	1.3064e+02	6.9317	6.517888	0.000147	1.473996	0.249702	-0.000015
1315	1.3074e+02	6.9212	6.500780	0.000172	1.719662	0.291319	-0.000017
1316	1.3084e+02	6.9122	6.483671	0.000172	1.719662	0.291319	-0.000017
1317	1.3094e+02	6.9003	6.464119	0.000197	1.965328	0.332936	-0.000020
1318	1.3104e+02	6.8925	6.447418	0.000168	1.678718	0.284382	-0.000017
1319	1.3114e+02	6.8807	6.432754	0.000147	1.473996	0.249702	-0.000015
1320	1.3124e+02	6.8701	6.418904	0.000139	1.392107	0.235829	-0.000014
1321	1.3134e+02	6.8600	6.397722	0.000213	2.129105	0.360680	-0.000021
1322	1.3144e+02	6.8526	6.382650	0.000151	1.514940	0.256638	-0.000015
1323	1.3154e+02	6.8408	6.365542	0.000172	1.719662	0.291319	-0.000017
1324	1.3164e+02	6.8320	6.347212	0.000184	1.842495	0.312127	-0.000018
1325	1.3174e+02	6.8203	6.329696	0.000176	1.760606	0.298255	-0.000018
1326	1.3184e+02	6.8127	6.311773	0.000180	1.801551	0.305191	-0.000018
1327	1.3194e+02	6.8018	6.292628	0.000192	1.924384	0.325999	-0.000019
1328	1.3204e+02	6.7925	6.275519	0.000172	1.719662	0.291319	-0.000017
1329	1.3214e+02	6.7806	6.258004	0.000176	1.760606	0.298255	-0.000018
1330	1.3224e+02	6.7725	6.240488	0.000176	1.760606	0.298255	-0.000018
1331	1.3234e+02	6.7611	6.221750	0.000188	1.883439	0.319063	-0.000019
1332	1.3243e+02	6.7505	6.203420	0.000184	1.842495	0.312127	-0.000018
1333	1.3253e+02	6.7413	6.187941	0.000156	1.555885	0.263574	-0.000016
1334	1.3263e+02	6.7327	6.167574	0.000205	2.047217	0.346808	-0.000020
1335	1.3273e+02	6.7204	6.149650	0.000180	1.801551	0.305191	-0.000018
1336	1.3283e+02	6.7139	6.131727	0.000180	1.801551	0.305191	-0.000018
1337	1.3293e+02	6.7042	6.115841	0.000160	1.596829	0.270510	-0.000016
1338	1.3303e+02	6.6924	6.101584	0.000143	1.433052	0.242766	-0.000014
1339	1.3313e+02	6.6818	6.084476	0.000172	1.719662	0.291319	-0.000017
1340	1.3323e+02	6.6741	6.068182	0.000164	1.637773	0.277446	-0.000016
1341	1.3333e+02	6.6615	6.048630	0.000197	1.965328	0.332936	-0.000020
1342	1.3343e+02	6.6549	6.030706	0.000180	1.801551	0.305191	-0.000018
1343	1.3353e+02	6.6461	6.013191	0.000176	1.760606	0.298255	-0.000018
1344	1.3363e+02	6.6320	5.992824	0.000205	2.047217	0.346808	-0.000020
1345	1.3373e+02	6.6228	5.976530	0.000164	1.637773	0.277446	-0.000016
1346	1.3383e+02	6.6123	5.959422	0.000172	1.719662	0.291319	-0.000017
1347	1.3393e+02	6.6022	5.941906	0.000176	1.760606	0.298255	-0.000018
1348	1.3403e+02	6.5929	5.928056	0.000139	1.392107	0.235829	-0.000014
1349	1.3413e+02	6.5824	5.912170	0.000160	1.596829	0.270510	-0.000016
1350	1.3423e+02	6.5712	5.898320	0.000139	1.392107	0.235829	-0.000014
1351	1.3432e+02	6.5623	5.880397	0.000180	1.801551	0.305191	-0.000018
1352	1.3442e+02	6.5549	5.864918	0.000156	1.555885	0.263574	-0.000016
1353	1.3452e+02	6.5430	5.844144	0.000209	2.088161	0.353744	-0.000021
1354	1.3462e+02	6.5340	5.825406	0.000188	1.883439	0.319063	-0.000019
1355	1.3472e+02	6.5222	5.809519	0.000160	1.596829	0.270510	-0.000016
1356	1.3482e+02	6.5115	5.793226	0.000164	1.637773	0.277446	-0.000016
1357	1.3492e+02	6.5073	5.777339	0.000160	1.596829	0.270510	-0.000016
1358	1.3502e+02	6.4956	5.756158	0.000213	2.129105	0.360680	-0.000021
1359	1.3512e+02	6.4834	5.741901	0.000143	1.433052	0.242766	-0.000014
1360	1.3522e+02	6.4744	5.725200	0.000168	1.678718	0.284382	-0.000017
1361	1.3532e+02	6.4628	5.706054	0.000192	1.924384	0.325999	-0.000019
1362	1.3542e+02	6.4538	5.688539	0.000176	1.760606	0.298255	-0.000018
1363	1.3552e+02	6.4434	5.674282	0.000143	1.433052	0.242766	-0.000014
1364	1.3562e+02	6.4326	5.654729	0.000197	1.965328	0.332936	-0.000020
1365	1.3572e+02	6.4243	5.640065	0.000147	1.473996	0.249702	-0.000015
1366	1.3582e+02	6.4181	5.618068	0.000221	2.210994	0.374552	-0.000022
1367	1.3592e+02	6.4043	5.598923	0.000192	1.924384	0.325999	-0.000019
1368	1.3602e+02	6.3917	5.581815	0.000172	1.719662	0.291319	-0.000017
1369	1.3612e+02	6.3833	5.566743	0.000151	1.514940	0.256638	-0.000015
1370	1.3622e+02	6.3738	5.552486	0.000143	1.433052	0.242766	-0.000014
1371	1.3631e+02	6.3616	5.534971	0.000176	1.760606	0.298255	-0.000018
1372	1.3641e+02	6.3526	5.516640	0.000184	1.842495	0.312127	-0.000018
1373	1.3651e+02	6.3441	5.496273	0.000205	2.047217	0.346808	-0.000020
1374	1.3661e+02	6.3349	5.479165	0.000172	1.719662	0.291319	-0.000017
1375	1.3671e+02	6.3262	5.460427	0.000188	1.883439	0.319063	-0.000019
1376	1.3681e+02	6.3147	5.444948	0.000156	1.555885	0.263574	-0.000016
1377	1.3691e+02	6.3017	5.426617	0.000184	1.842495	0.312127	-0.000018
1378	1.3701e+02	6.2966	5.409916	0.000168	1.678718	0.284382	-0.000017
1379	1.3711e+02	6.2844	5.393623	0.000164	1.637773	0.277446	-0.000016
1380	1.3721e+02	6.2734	5.373256	0.000205	2.047217	0.346808	-0.000020
1381	1.3731e+02	6.2652	5.358591	0.000147	1.473996	0.249702	-0.000015
1382	1.3741e+02	6.2540	5.338631	0.000201	2.006272	0.339872	-0.000020
1383	1.3751e+02	6.2457	5.321523	0.000172	1.719662	0.291319	-0.000017
1384	1.3761e+02	6.2368	5.306044	0.000156	1.555885	0.263574	-0.000016
1385	1.3771e+02	6.2252	5.286084	0.000201	2.006272	0.339872	-0.000020
1386	1.3781e+02	6.2157	5.270198	0.000160	1.596829	0.270510	-0.000016
1387	1.3791e+02	6.2051	5.251868	0.000184	1.842495	0.312127	-0.000018
1388	1.3801e+02	6.1974	5.235981	0.000160	1.596829	0.270510	-0.000016
1389	1.3811e+02	6.1838	5.215207	0.000209	2.088161	0.353744	-0.000021
1390	1.3821e+02	6.1733	5.197691	0.000176	1.760606	0.298255	-0.000018
1391	1.3831e+02	6.1671	5.177731	0.000201	2.006272	0.339872	-0.000020
1392	1.3840e+02	6.1576	5.158179	0.000197	1.965328	0.332936	-0.000020
1393	1.3850e+02	6.1446	5.142292	0.000160	1.596829	0.270510	-0.000016
1394	1.3860e+02	6.1366	5.125184	0.000172	1.719662	0.291319	-0.000017
1395	1.3870e+02	6.1272	5.108076	0.000172	1.719662	0.291319	-0.000017
1396	1.3880e+02	6.1144	5.089338	0.000188	1.883439	0.319063	-0.000019
1397	1.3890e+02	6.1043	5.070600	0.000188	1.883439	0.319063	-0.000019
1398	1.3900e+02	6.0951	5.055121	0.000156	1.555885	0.263574	-0.000016
1399	1.3910e+02	6.0853	5.036383	0.000188	1.883439	0.319063	-0.000019
1400	1.3920e+02	6.0738	5.017238	0.000192	1.924384	0.325999	-0.000019
1401	1.3930e+02	6.0657	5.002167	0.000151	1.514940	0.256638	-0.000015
1402	1.3940e+02	6.0558	4.984651	0.000176	1.760606	0.298255	-0.000018
1403	1.3950e+02	6.0453	4.967135	0.000176	1.760606	0.298255	-0.000018
1404	1.3960e+02	6.0369	4.949619	0.000176	1.760606	0.298255	-0.000018
1405	1.3970e+02	6.0257	4.926808	0.000229	2.292882	0.388425	-0.000023
1406	1.3980e+02	6.0180	4.909700	0.000172	1.719662	0.291319	-0.000017
1407	1.3990e+02	6.0075	4.892591	0.000172	1.719662	0.291319	-0.000017
1408	1.4000e+02	5.9968	4.873854	0.000188	1.883439	0.319063	-0.000019
1409	1.4010e+02	5.9863	4.856745	0.000172	1.719662	0.291319	-0.000017
1410	1.4020e+02	5.9754	4.838822	0.000180	1.801551	0.305191	-0.000018
1411	1.4029e+02	5.9650	4.822528	0.000164	1.637773	0.277446	-0.000016
1412	1.4039e+02	5.9542	4.803791	0.000188	1.883439	0.319063	-0.000019
1413	1.4049e+02	5.9469	4.786682	0.000172	1.719662	0.291319	-0.000017
1414	1.4059e+02	5.9353	4.768759	0.000180	1.801551	0.305191	-0.000018
1415	1.4069e+02	5.9269	4.754502	0.000143	1.433052	0.242766	-0.000014
1416	1.4079e+02	5.9185	4.742282	0.000123	1.228330	0.208085	-0.000012
1417	1.4089e+02	5.9055	4.723952	0.000184	1.842495	0.312127	-0.000018
1418	1.4099e+02	5.8967	4.701140	0.000229	2.292882	0.388425	-0.000023
1419	1.4109e+02	5.8846	4.682810	0.000184	1.842495	0.312127	-0.000018
1420	1.4119e+02	5.8783	4.665294	0.000176	1.760606	0.298255	-0.000018
1421	1.4129e+02	5.8685	4.647371	0.000180	1.801551	0.305191	-0.000018
1422	1.4139e+02	5.8566	4.628226	0.000192	1.924384	0.325999	-0.000019
1423	1.4149e+02	5.8485	4.609488	0.000188	1.883439	0.319063	-0.000019
1424	1.4159e+02	5.8384	4.591565	0.000180	1.801551	0.305191	-0.000018
1425	1.4169e+02	5.8270	4.572013	0.000197	1.965328	0.332936	-0.000020
1426	1.4179e+02	5.8172	4.556534	0.000156	1.555885	0.263574	-0.000016
1427	1.4189e+02	5.8097	4.540647	0.000160	1.596829	0.270510	-0.000016
1428	1.4199e+02	5.7964	4.524354	0.000164	1.637773	0.277446	-0.000016
1429	1.4209e+02	5.7865	4.503172	0.000213	2.129105	0.360680	-0.000021
1430	1.4219e+02	5.7778	4.481583	0.000217	2.170050	0.367616	-0.000022
1431	1.4228e+02	5.7653	4.463660	0.000180	1.801551	0.305191	-0.000018
1432	1.4238e+02	5.7533	4.444922	0.000188	1.883439	0.319063	-0.000019
1433	1.4248e+02	5.7488	4.424555	0.000205	2.047217	0.346808	-0.000020
1434	1.4258e+02	5.7366	4.405002	0.000197	1.965328	0.332936	-0.000020
1435	1.4268e+02	5.7292	4.385857	0.000192	1.924384	0.325999	-0.000019
1436	1.4278e+02	5.7169	4.366712	0.000192	1.924384	0.325999	-0.000019
1437	1.4288e+02	5.7055	4.348789	0.000180	1.801551	0.305191	-0.000018
1438	1.4298e+02	5.6963	4.329644	0.000192	1.924384	0.325999	-0.000019
1439	1.4308e+02	5.6847	4.309684	0.000201	2.006272	0.339872	-0.000020
1440	1.4318e+02	5.6762	4.291354	0.000184	1.842495	0.312127	-0.000018
1441	1.4328e+02	5.6672	4.275875	0.000156	1.555885	0.263574	-0.000016
1442	1.4338e+02	5.6581	4.256730	0.000192	1.924384	0.325999	-0.000019
1443	1.4348e+02	5.6470	4.240436	0.000164	1.637773	0.277446	-0.000016
1444	1.4358e+02	5.6394	4.219254	0.000213	2.129105	0.360680	-0.000021
1445	1.4368e+02	5.6268	4.203775	0.000156	1.555885	0.263574	-0.000016
1446	1.4378e+02	5.6174	4.181371	0.000225	2.251938	0.381489	-0.000023
1447	1.4388e+02	5.6097	4.162226	0.000192	1.924384	0.325999	-0.000019
1448	1.4398e+02	5.5964	4.147562	0.000147	1.473996	0.249702	-0.000015
1449	1.4408e+02	5.5886	4.127195	0.000205	2.047217	0.346808	-0.000020
1450	1.4418e+02	5.5781	4.107642	0.000197	1.965328	0.332936	-0.000020
1451	1.4428e+02	5.5678	4.089719	0.000180	1.801551	0.305191	-0.000018
1452	1.4437e+02	5.5583	4.068945	0.000209	2.088161	0.353744	-0.000021
1453	1.4447e+02	5.5480	4.052651	0.000164	1.637773	0.277446	-0.000016
1454	1.4457e+02	5.5383	4.033913	0.000188	1.883439	0.319063	-0.000019
1455	1.4467e+02	5.5280	4.013546	0.000205	2.047217	0.346808	-0.000020
1456	1.4477e+02	5.5189	3.996845	0.000168	1.678718	0.284382	-0.000017
1457	1.4487e+02	5.5078	3.978107	0.000188	1.883439	0.319063	-0.000019
1458	1.4497e+02	5.4998	3.959370	0.000188	1.883439	0.319063	-0.000019
1459	1.4507e+02	5.4879	3.938188	0.000213	2.129105	0.360680	-0.000021
1460	1.4517e+02	5.4794	3.920265	0.000180	1.801551	0.305191	-0.000018
1461	1.4527e+02	5.4682	3.903971	0.000164	1.637773	0.277446	-0.000016
1462	1.4537e+02	5.4583	3.886048	0.000180	1.801551	0.305191	-0.000018
1463	1.4547e+02	5.4504	3.864866	0.000213	2.129105	0.360680	-0.000021
1464	1.4557e+02	5.4375	3.846128	0.000188	1.883439	0.319063	-0.000019
1465	1.4567e+02	5.4284	3.830242	0.000160	1.596829	0.270510	-0.000016
1466	1.4577e+02	5.4180	3.808653	0.000217	2.170050	0.367616	-0.000022
1467	1.4587e+02	5.4082	3.789100	0.000197	1.965328	0.332936	-0.000020
1468	1.4597e+02	5.3979	3.771177	0.000180	1.801551	0.305191	-0.000018
1469	1.4607e+02	5.3883	3.749181	0.000221	2.210994	0.374552	-0.000022
1470	1.4617e+02	5.3793	3.729628	0.000197	1.965328	0.332936	-0.000020
1471	1.4626e+02	5.3708	3.712927	0.000168	1.678718	0.284382	-0.000017
1472	1.4636e+02	5.3594	3.694597	0.000184	1.842495	0.312127	-0.000018
1473	1.4646e+02	5.3529	3.675859	0.000188	1.883439	0.319063	-0.000019
1474	1.4656e+02	5.3385	3.657936	0.000180	1.801551	0.305191	-0.000018
1475	1.4666e+02	5.3298	3.637569	0.000205	2.047217	0.346808	-0.000020
1476	1.4676e+02	5.3194	3.618424	0.000192	1.924384	0.325999	-0.000019
1477	1.4686e+02	5.3092	3.599686	0.000188	1.883439	0.319063	-0.000019
1478	1.4696e+02	5.2982	3.581763	0.000180	1.801551	0.305191	-0.000018
1479	1.4706e+02	5.2888	3.565877	0.000160	1.596829	0.270510	-0.000016
1480	1.4716e+02	5.2797	3.544288	0.000217	2.170050	0.367616	-0.000022
1481	1.4726e+02	5.2682	3.525957	0.000184	1.842495	0.312127	-0.000018
1482	1.4736e+02	5.2608	3.508849	0.000172	1.719662	0.291319	-0.000017
1483	1.4746e+02	5.2483	3.491333	0.000176	1.760606	0.298255	-0.000018
1484	1.4756e+02	5.2413	3.466078	0.000254	2.538548	0.430042	-0.000025
1485	1.4766e+02	5.2319	3.451006	0.000151	1.514940	0.256638	-0.000015
1486	1.4776e+02	5.2206	3.430639	0.000205	2.047217	0.346808	-0.000020
1487	1.4786e+02	5.2100	3.413938	0.000168	1.678718	0.284382	-0.000017
1488	1.4796e+02	5.2008	3.397237	0.000168	1.678718	0.284382	-0.000017
1489	1.4806e+02	5.1911	3.374426	0.000229	2.292882	0.388425	-0.000023
1490	1.4816e+02	5.1798	3.355281	0.000192	1.924384	0.325999	-0.000019
1491	1.4825e+02	5.1697	3.341024	0.000143	1.433052	0.242766	-0.000014
1492	1.4835e+02	5.1608	3.318620	0.000225	2.251938	0.381489	-0.000023
1493	1.4845e+02	5.1472	3.299475	0.000192	1.924384	0.325999	-0.000019
1494	1.4855e+02	5.1389	3.279922	0.000197	1.965328	0.332936	-0.000020
1495	1.4865e+02	5.1318	3.258740	0.000213	2.129105	0.360680	-0.000021
1496	1.4875e+02	5.1186	3.245705	0.000131	1.310219	0.221957	-0.000013
1497	1.4885e+02	5.1102	3.222487	0.000233	2.333827	0.395361	-0.000023
1498	1.4895e+02	5.1020	3.202120	0.000205	2.047217	0.346808	-0.000020
1499	1.4905e+02	5.0900	3.182567	0.000197	1.965328	0.332936	-0.000020
1500	1.4915e+02	5.0811	3.161386	0.000213	2.129105	0.360680	-0.000021
1501	1.4925e+02	5.0695	3.138982	0.000225	2.251938	0.381489	-0.000023
1502	1.4935e+02	5.0599	3.122688	0.000164	1.637773	0.277446	-0.000016
1503	1.4945e+02	5.0510	3.107209	0.000156	1.555885	0.263574	-0.000016
1504	1.4955e+02	5.0405	3.085620	0.000217	2.170050	0.367616	-0.000022
1505	1.4965e+02	5.0320	3.066475	0.000192	1.924384	0.325999	-0.000019
1506	1.4975e+02	5.0193	3.052218	0.000143	1.433052	0.242766	-0.000014
1507	1.4985e+02	5.0123	3.030629	0.000217	2.170050	0.367616	-0.000022
1508	1.4995e+02	5.0014	3.013928	0.000168	1.678718	0.284382	-0.000017
1509	1.5005e+02	4.9902	2.994375	0.000197	1.965328	0.332936	-0.000020
1510	1.5015e+02	4.9810	2.973601	0.000209	2.088161	0.353744	-0.000021
1511	1.5025e+02	4.9700	2.953233	0.000205	2.047217	0.346808	-0.000020
1512	1.5034e+02	4.9610	2.932866	0.000205	2.047217	0.346808	-0.000020
1513	1.5044e+02	4.9519	2.911277	0.000217	2.170050	0.367616	-0.000022
1514	1.5054e+02	4.9414	2.897020	0.000143	1.433052	0.242766	-0.000014
1515	1.5064e+02	4.9318	2.875431	0.000217	2.170050	0.367616	-0.000022
1516	1.5074e+02	4.9227	2.860359	0.000151	1.514940	0.256638	-0.000015
1517	1.5084e+02	4.9108	2.841214	0.000192	1.924384	0.325999	-0.000019
1518	1.5094e+02	4.9017	2.822884	0.000184	1.842495	0.312127	-0.000018
1519	1.5104e+02	4.8913	2.805368	0.000176	1.760606	0.298255	-0.000018
1520	1.5114e+02	4.8824	2.785408	0.000201	2.006272	0.339872	-0.000020
1521	1.5124e+02	4.8710	2.767078	0.000184	1.842495	0.312127	-0.000018
1522	1.5134e+02	4.8653	2.749562	0.000176	1.760606	0.298255	-0.000018
1523	1.5144e+02	4.8513	2.730824	0.000188	1.883439	0.319063	-0.000019
1524	1.5154e+02	4.8410	2.712901	0.000180	1.801551	0.305191	-0.000018
1525	1.5164e+02	4.8342	2.690905	0.000221	2.210994	0.374552	-0.000022
1526	1.5174e+02	4.8240	2.672167	0.000188	1.883439	0.319063	-0.000019
1527	1.5184e+02	4.8125	2.651800	0.000205	2.047217	0.346808	-0.000020
1528	1.5194e+02	4.8019	2.635914	0.000160	1.596829	0.270510	-0.000016
1529	1.5204e+02	4.7927	2.615954	0.000201	2.006272	0.339872	-0.000020
1530	1.5214e+02	4.7827	2.597623	0.000184	1.842495	0.312127	-0.000018
1531	1.5224e+02	4.7717	2.577664	0.000201	2.006272	0.339872	-0.000020
1532	1.5233e+02	4.7646	2.558111	0.000197	1.965328	0.332936	-0.000020
1533	1.5243e+02	4.7535	2.539373	0.000188	1.883439	0.319063	-0.000019
1534	1.5253e+02	4.7428	2.516970	0.000225	2.251938	0.381489	-0.000023
1535	1.5263e+02	4.7320	2.497825	0.000192	1.924384	0.325999	-0.000019
1536	1.5273e+02	4.7231	2.481531	0.000164	1.637773	0.277446	-0.000016
1537	1.5283e+02	4.7147	2.461978	0.000197	1.965328	0.332936	-0.000020
1538	1.5293e+02	4.7031	2.441611	0.000205	2.047217	0.346808	-0.000020
1539	1.5303e+02	4.6946	2.424096	0.000176	1.760606	0.298255	-0.000018
1540	1.5313e+02	4.6821	2.408209	0.000160	1.596829	0.270510	-0.000016
1541	1.5323e+02	4.6716	2.384583	0.000237	2.374771	0.402297	-0.000024
1542	1.5333e+02	4.6658	2.368290	0.000164	1.637773	0.277446	-0.000016
1543	1.5343e+02	4.6511	2.346293	0.000221	2.210994	0.374552	-0.000022
1544	1.5353e+02	4.6458	2.325926	0.000205	2.047217	0.346808	-0.000020
1545	1.5363e+02	4.6334	2.309225	0.000168	1.678718	0.284382	-0.000017
1546	1.5373e+02	4.6230	2.286821	0.000225	2.251938	0.381489	-0.000023
1547	1.5383e+02	4.6127	2.268083	0.000188	1.883439	0.319063	-0.000019
1548	1.5393e+02	4.6021	2.247716	0.000205	2.047217	0.346808	-0.000020
1549	1.5403e+02	4.5936	2.230608	0.000172	1.719662	0.291319	-0.000017
1550	1.5413e+02	4.5825	2.210648	0.000201	2.006272	0.339872	-0.000020
1551	1.5422e+02	4.5728	2.192318	0.000184	1.842495	0.312127	-0.000018
1552	1.5432e+02	4.5619	2.173987	0.000184	1.842495	0.312127	-0.000018
1553	1.5442e+02	4.5553	2.153213	0.000209	2.088161	0.353744	-0.000021
1554	1.5452e+02	4.5422	2.135697	0.000176	1.760606	0.298255	-0.000018
1555	1.5462e+02	4.5304	2.110442	0.000254	2.538548	0.430042	-0.000025
1556	1.5472e+02	4.5203	2.094963	0.000156	1.555885	0.263574	-0.000016
1557	1.5482e+02	4.5128	2.073781	0.000213	2.129105	0.360680	-0.000021
1558	1.5492e+02	4.5021	2.054228	0.000197	1.965328	0.332936	-0.000020
1559	1.5502e+02	4.4954	2.030195	0.000242	2.415715	0.409233	-0.000024
1560	1.5512e+02	4.4827	2.013087	0.000172	1.719662	0.291319	-0.000017
1561	1.5522e+02	4.4709	1.994349	0.000188	1.883439	0.319063	-0.000019
1562	1.5532e+02	4.4642	1.976019	0.000184	1.842495	0.312127	-0.000018
1563	1.5542e+02	4.4547	1.954430	0.000217	2.170050	0.367616	-0.000022
1564	1.5552e+02	4.4438	1.934877	0.000197	1.965328	0.332936	-0.000020
1565	1.5562e+02	4.4343	1.915732	0.000192	1.924384	0.325999	-0.000019
1566	1.5572e+02	4.4205	1.897402	0.000184	1.842495	0.312127	-0.000018
1567	1.5582e+02	4.4141	1.878664	0.000188	1.883439	0.319063	-0.000019
1568	1.5592e+02	4.4032	1.858297	0.000205	2.047217	0.346808	-0.000020
1569	1.5602e+02	4.3932	1.838744	0.000197	1.965328	0.332936	-0.000020
1570	1.5612e+02	4.3855	1.816340	0.000225	2.251938	0.381489	-0.000023
1571	1.5622e+02	4.3753	1.798825	0.000176	1.760606	0.298255	-0.000018
1572	1.5631e+02	4.3625	1.777236	0.000217	2.170050	0.367616	-0.000022
1573	1.5641e+02	4.3570	1.756868	0.000205	2.047217	0.346808	-0.000020
1574	1.5651e+02	4.3464	1.737723	0.000192	1.924384	0.325999	-0.000019
1575	1.5661e+02	4.3340	1.716134	0.000217	2.170050	0.367616	-0.000022
1576	1.5671e+02	4.3240	1.699026	0.000172	1.719662	0.291319	-0.000017
1577	1.5681e+02	4.3143	1.679473	0.000197	1.965328	0.332936	-0.000020
1578	1.5691e+02	4.3046	1.657884	0.000217	2.170050	0.367616	-0.000022
1579	1.5701e+02	4.2962	1.637924	0.000201	2.006272	0.339872	-0.000020
1580	1.5711e+02	4.2843	1.617965	0.000201	2.006272	0.339872	-0.000020
1581	1.5721e+02	4.2758	1.603300	0.000147	1.473996	0.249702	-0.000015
1582	1.5731e+02	4.2676	1.585377	0.000180	1.801551	0.305191	-0.000018
1583	1.5741e+02	4.2521	1.562566	0.000229	2.292882	0.388425	-0.000023
1584	1.5751e+02	4.2426	1.549938	0.000127	1.269274	0.215021	-0.000013
1585	1.5761e+02	4.2324	1.524276	0.000258	2.579493	0.436978	-0.000026
1586	1.5771e+02	4.2248	1.503094	0.000213	2.129105	0.360680	-0.000021
1587	1.5781e+02	4.2128	1.485986	0.000172	1.719662	0.291319	-0.000017
1588	1.5791e+02	4.2055	1.464396	0.000217	2.170050	0.367616	-0.000022
1589	1.5801e+02	4.1975	1.443215	0.000213	2.129105	0.360680	-0.000021
1590	1.5811e+02	4.1844	1.422440	0.000209	2.088161	0.353744	-0.000021
1591	1.5821e+02	4.1745	1.404517	0.000180	1.801551	0.305191	-0.000018
1592	1.5830e+02	4.1627	1.380891	0.000237	2.374771	0.402297	-0.000024
1593	1.5840e+02	4.1543	1.365005	0.000160	1.596829	0.270510	-0.000016
1594	1.5850e+02	4.1467	1.346674	0.000184	1.842495	0.312127	-0.000018
1595	1.5860e+02	4.1360	1.324271	0.000225	2.251938	0.381489	-0.000023
1596	1.5870e+02	4.1277	1.306348	0.000180	1.801551	0.305191	-0.000018
1597	1.5880e+02	4.1135	1.283944	0.000225	2.251938	0.381489	-0.000023
1598	1.5890e+02	4.1061	1.263169	0.000209	2.088161	0.353744	-0.000021
1599	1.5900e+02	4.0943	1.241580	0.000217	2.170050	0.367616	-0.000022
1600	1.5910e+02	4.0872	1.218769	0.000229	2.292882	0.388425	-0.000023
1601	1.5920e+02	4.0763	1.199624	0.000192	1.924384	0.325999	-0.000019
1602	1.5930e+02	4.0641	1.175998	0.000237	2.374771	0.402297	-0.000024
1603	1.5940e+02	4.0561	1.154409	0.000217	2.170050	0.367616	-0.000022
1604	1.5950e+02	4.0454	1.138115	0.000164	1.637773	0.277446	-0.000016
1605	1.5960e+02	4.0351	1.115711	0.000225	2.251938	0.381489	-0.000023
1606	1.5970e+02	4.0258	1.094122	0.000217	2.170050	0.367616	-0.000022
1607	1.5980e+02	4.0163	1.074977	0.000192	1.924384	0.325999	-0.000019
1608	1.5990e+02	4.0060	1.057869	0.000172	1.719662	0.291319	-0.000017
1609	1.6000e+02	3.9967	1.032613	0.000254	2.538548	0.430042	-0.000025
1610	1.6010e+02	3.9857	1.013876	0.000188	1.883439	0.319063	-0.000019
1611	1.6019e+02	3.9742	0.999211	0.000147	1.473996	0.249702	-0.000015
1612	1.6029e+02	3.9653	0.975178	0.000242	2.415715	0.409233	-0.000024
1613	1.6039e+02	3.9541	0.954811	0.000205	2.047217	0.346808	-0.000020
1614	1.6049e+02	3.9466	0.934851	0.000201	2.006272	0.339872	-0.000020
1615	1.6059e+02	3.9365	0.914891	0.000201	2.006272	0.339872	-0.000020
1616	1.6069e+02	3.9279	0.893710	0.000213	2.129105	0.360680	-0.000021
1617	1.6079e+02	3.9133	0.870898	0.000229	2.292882	0.388425	-0.000023
1618	1.6089e+02	3.9081	0.852568	0.000184	1.842495	0.312127	-0.000018
1619	1.6099e+02	3.8970	0.835867	0.000168	1.678718	0.284382	-0.000017
1620	1.6109e+02	3.8873	0.811019	0.000250	2.497604	0.423106	-0.000025
1621	1.6119e+02	3.8757	0.791874	0.000192	1.924384	0.325999	-0.000019
1622	1.6129e+02	3.8660	0.772321	0.000197	1.965328	0.332936	-0.000020
1623	1.6139e+02	3.8564	0.750325	0.000221	2.210994	0.374552	-0.000022
1624	1.6149e+02	3.8479	0.731180	0.000192	1.924384	0.325999	-0.000019
1625	1.6159e+02	3.8345	0.707961	0.000233	2.333827	0.395361	-0.000023
1626	1.6169e+02	3.8248	0.689631	0.000184	1.842495	0.312127	-0.000018
1627	1.6179e+02	3.8160	0.669671	0.000201	2.006272	0.339872	-0.000020
1628	1.6189e+02	3.8071	0.649304	0.000205	2.047217	0.346808	-0.000020
1629	1.6199e+02	3.7943	0.626086	0.000233	2.333827	0.395361	-0.000023
1630	1.6209e+02	3.7864	0.608977	0.000172	1.719662	0.291319	-0.000017
1631	1.6219e+02	3.7768	0.589425	0.000197	1.965328	0.332936	-0.000020
1632	1.6228e+02	3.7668	0.568243	0.000213	2.129105	0.360680	-0.000021
1633	1.6238e+02	3.7582	0.545432	0.000229	2.292882	0.388425	-0.000023
1634	1.6248e+02	3.7479	0.529545	0.000160	1.596829	0.270510	-0.000016
1635	1.6258e+02	3.7394	0.506734	0.000229	2.292882	0.388425	-0.000023
1636	1.6268e+02	3.7302	0.485552	0.000213	2.129105	0.360680	-0.000021
1637	1.6278e+02	3.7177	0.464371	0.000213	2.129105	0.360680	-0.000021
1638	1.6288e+02	3.7060	0.444411	0.000201	2.006272	0.339872	-0.000020
1639	1.6298e+02	3.6980	0.421600	0.000229	2.292882	0.388425	-0.000023
1640	1.6308e+02	3.6860	0.399603	0.000221	2.210994	0.374552	-0.000022
1641	1.6318e+02	3.6772	0.382087	0.000176	1.760606	0.298255	-0.000018
1642	1.6328e+02	3.6662	0.359683	0.000225	2.251938	0.381489	-0.000023
1643	1.6338e+02	3.6559	0.341760	0.000180	1.801551	0.305191	-0.000018
1644	1.6348e+02	3.6474	0.321393	0.000205	2.047217	0.346808	-0.000020
1645	1.6358e+02	3.6388	0.298989	0.000225	2.251938	0.381489	-0.000023
1646	1.6368e+02	3.6282	0.277808	0.000213	2.129105	0.360680	-0.000021
1647	1.6378e+02	3.6174	0.261921	0.000160	1.596829	0.270510	-0.000016
1648	1.6388e+02	3.6056	0.239110	0.000229	2.292882	0.388425	-0.000023
1649	1.6398e+02	3.5976	0.219965	0.000192	1.924384	0.325999	-0.000019
1650	1.6408e+02	3.5862	0.198376	0.000217	2.170050	0.367616	-0.000022
1651	1.6418e+02	3.5793	0.178009	0.000205	2.047217	0.346808	-0.000020
1652	1.6427e+02	3.5663	0.155605	0.000225	2.251938	0.381489	-0.000023
1653	1.6437e+02	3.5607	0.134016	0.000217	2.170050	0.367616	-0.000022
1654	1.6447e+02	3.5464	0.113241	0.000209	2.088161	0.353744	-0.000021
1655	1.6457e+02	3.5373	0.093689	0.000197	1.965328	0.332936	-0.000020
1656	1.6467e+02	3.5265	0.073322	0.000205	2.047217	0.346808	-0.000020
1657	1.6477e+02	3.5170	0.056621	0.000168	1.678718	0.284382	-0.000017
1658	1.6487e+02	3.5091	0.034624	0.000221	2.210994	0.374552	-0.000022
1659	1.6497e+02	3.4999	0.013035	0.000217	2.170050	0.367616	-0.000022
1660	1.6507e+02	3.4894	-0.009369	0.000225	2.251938	0.381489	-0.000023
1661	1.6517e+02	3.4792	-0.029736	0.000205	2.047217	0.346808	-0.000020
1662	1.6527e+02	3.4687	-0.050510	0.000209	2.088161	0.353744	-0.000021
1663	1.6537e+02	3.4592	-0.072914	0.000225	2.251938	0.381489	-0.000023
1664	1.6547e+02	3.4496	-0.092874	0.000201	2.006272	0.339872	-0.000020
1665	1.6557e+02	3.4399	-0.118537	0.000258	2.579493	0.436978	-0.000026
1666	1.6567e+02	3.4306	-0.140941	0.000225	2.251938	0.381489	-0.000023
1667	1.6577e+02	3.4187	-0.160900	0.000201	2.006272	0.339872	-0.000020
1668	1.6587e+02	3.4092	-0.183304	0.000225	2.251938	0.381489	-0.000023
1669	1.6597e+02	3.3994	-0.202449	0.000192	1.924384	0.325999	-0.000019
1670	1.6607e+02	3.3890	-0.223224	0.000209	2.088161	0.353744	-0.000021
1671	1.6616e+02	3.3794	-0.243184	0.000201	2.006272	0.339872	-0.000020
1672	1.6626e+02	3.3688	-0.263958	0.000209	2.088161	0.353744	-0.000021
1673	1.6636e+02	3.3573	-0.284732	0.000209	2.088161	0.353744	-0.000021
1674	1.6646e+02	3.3501	-0.303063	0.000184	1.842495	0.312127	-0.000018
1675	1.6656e+02	3.3392	-0.328318	0.000254	2.538548	0.430042	-0.000025
1676	1.6666e+02	3.3282	-0.345426	0.000172	1.719662	0.291319	-0.000017
1677	1.6676e+02	3.3193	-0.367016	0.000217	2.170050	0.367616	-0.000022
1678	1.6686e+02	3.3102	-0.391456	0.000246	2.456660	0.416169	-0.000025
1679	1.6696e+02	3.3004	-0.413045	0.000217	2.170050	0.367616	-0.000022
1680	1.6706e+02	3.2891	-0.433005	0.000201	2.006272	0.339872	-0.000020
1681	1.6716e+02	3.2795	-0.449299	0.000164	1.637773	0.277446	-0.000016
1682	1.6726e+02	3.2673	-0.472517	0.000233	2.333827	0.395361	-0.000023
1683	1.6736e+02	3.2583	-0.488404	0.000160	1.596829	0.270510	-0.000016
1684	1.6746e+02	3.2507	-0.510808	0.000225	2.251938	0.381489	-0.000023
1685	1.6756e+02	3.2394	-0.531989	0.000213	2.129105	0.360680	-0.000021
1686	1.6766e+02	3.2313	-0.549098	0.000172	1.719662	0.291319	-0.000017
1687	1.6776e+02	3.2206	-0.569872	0.000209	2.088161	0.353744	-0.000021
1688	1.6786e+02	3.2113	-0.595535	0.000258	2.579493	0.436978	-0.000026
1689	1.6796e+02	3.2000	-0.611421	0.000160	1.596829	0.270510	-0.000016
1690	1.6806e+02	3.1905	-0.633418	0.000221	2.210994	0.374552	-0.000022
1691	1.6816e+02	3.1828	-0.654192	0.000209	2.088161	0.353744	-0.000021
1692	1.6825e+02	3.1717	-0.679447	0.000254	2.538548	0.430042	-0.000025
1693	1.6835e+02	3.1609	-0.694112	0.000147	1.473996	0.249702	-0.000015
1694	1.6845e+02	3.1492	-0.716923	0.000229	2.292882	0.388425	-0.000023
1695	1.6855e+02	3.1409	-0.740141	0.000233	2.333827	0.395361	-0.000023
1696	1.6865e+02	3.1284	-0.761323	0.000213	2.129105	0.360680	-0.000021
1697	1.6875e+02	3.1227	-0.781283	0.000201	2.006272	0.339872	-0.000020
1698	1.6885e+02	3.1098	-0.801243	0.000201	2.006272	0.339872	-0.000020
1699	1.6895e+02	3.1006	-0.823647	0.000225	2.251938	0.381489	-0.000023
1700	1.6905e+02	3.0906	-0.844014	0.000205	2.047217	0.346808	-0.000020
1701	1.6915e+02	3.0788	-0.860715	0.000168	1.678718	0.284382	-0.000017
1702	1.6925e+02	3.0711	-0.889636	0.000291	2.907047	0.492467	-0.000029
1703	1.6935e+02	3.0606	-0.907559	0.000180	1.801551	0.305191	-0.000018
1704	1.6945e+02	3.0480	-0.927926	0.000205	2.047217	0.346808	-0.000020
1705	1.6955e+02	3.0402	-0.947479	0.000197	1.965328	0.332936	-0.000020
1706	1.6965e+02	3.0317	-0.970290	0.000229	2.292882	0.388425	-0.000023
1707	1.6975e+02	3.0199	-0.992286	0.000221	2.210994	0.374552	-0.000022
1708	1.6985e+02	3.0122	-1.011432	0.000192	1.924384	0.325999	-0.000019
1709	1.6995e+02	3.0012	-1.035465	0.000242	2.415715	0.409233	-0.000024
1710	1.7005e+02	2.9912	-1.053388	0.000180	1.801551	0.305191	-0.000018
1711	1.7015e+02	2.9810	-1.075384	0.000221	2.210994	0.374552	-0.000022
1712	1.7024e+02	2.9716	-1.098196	0.000229	2.292882	0.388425	-0.000023
1713	1.7034e+02	2.9623	-1.119377	0.000213	2.129105	0.360680	-0.000021
1714	1.7044e+02	2.9514	-1.140966	0.000217	2.170050	0.367616	-0.000022
1715	1.7054e+02	2.9427	-1.162148	0.000213	2.129105	0.360680	-0.000021
1716	1.7064e+02	2.9335	-1.180886	0.000188	1.883439	0.319063	-0.000019
1717	1.7074e+02	2.9216	-1.206141	0.000254	2.538548	0.430042	-0.000025
1718	1.7084e+02	2.9115	-1.223250	0.000172	1.719662	0.291319	-0.000017
1719	1.7094e+02	2.9021	-1.241580	0.000184	1.842495	0.312127	-0.000018
1720	1.7104e+02	2.8923	-1.266428	0.000250	2.497604	0.423106	-0.000025
1721	1.7114e+02	2.8853	-1.288424	0.000221	2.210994	0.374552	-0.000022
1722	1.7124e+02	2.8740	-1.307977	0.000197	1.965328	0.332936	-0.000020
1723	1.7134e+02	2.8596	-1.327529	0.000197	1.965328	0.332936	-0.000020
1724	1.7144e+02	2.8500	-1.351155	0.000237	2.374771	0.402297	-0.000024
1725	1.7154e+02	2.8423	-1.374781	0.000237	2.374771	0.402297	-0.000024
1726	1.7164e+02	2.8312	-1.397185	0.000225	2.251938	0.381489	-0.000023
1727	1.7174e+02	2.8241	-1.419181	0.000221	2.210994	0.374552	-0.000022
1728	1.7184e+02	2.8149	-1.438327	0.000192	1.924384	0.325999	-0.000019
1729	1.7194e+02	2.8036	-1.457879	0.000197	1.965328	0.332936	-0.000020
1730	1.7204e+02	2.7906	-1.479468	0.000217	2.170050	0.367616	-0.000022
1731	1.7213e+02	2.7827	-1.503909	0.000246	2.456660	0.416169	-0.000025
1732	1.7223e+02	2.7711	-1.525091	0.000213	2.129105	0.360680	-0.000021
1733	1.7233e+02	2.7628	-1.543421	0.000184	1.842495	0.312127	-0.000018
1734	1.7243e+02	2.7544	-1.563788	0.000205	2.047217	0.346808	-0.000020
1735	1.7253e+02	2.7425	-1.587821	0.000242	2.415715	0.409233	-0.000024
1736	1.7263e+02	2.7306	-1.608188	0.000205	2.047217	0.346808	-0.000020
1737	1.7273e+02	2.7209	-1.626519	0.000184	1.842495	0.312127	-0.000018
1738	1.7283e+02	2.7126	-1.652996	0.000266	2.661381	0.450850	-0.000027
1739	1.7293e+02	2.7032	-1.668475	0.000156	1.555885	0.263574	-0.000016
1740	1.7303e+02	2.6915	-1.694545	0.000262	2.620437	0.443914	-0.000026
1741	1.7313e+02	2.6826	-1.716949	0.000225	2.251938	0.381489	-0.000023
1742	1.7323e+02	2.6721	-1.737316	0.000205	2.047217	0.346808	-0.000020
1743	1.7333e+02	2.6620	-1.760942	0.000237	2.374771	0.402297	-0.000024
1744	1.7343e+02	2.6529	-1.780902	0.000201	2.006272	0.339872	-0.000020
1745	1.7353e+02	2.6414	-1.802491	0.000217	2.170050	0.367616	-0.000022
1746	1.7363e+02	2.6310	-1.824895	0.000225	2.251938	0.381489	-0.000023
1747	1.7373e+02	2.6226	-1.846484	0.000217	2.170050	0.367616	-0.000022
1748	1.7383e+02	2.6128	-1.865222	0.000188	1.883439	0.319063	-0.000019
1749	1.7393e+02	2.6028	-1.885181	0.000201	2.006272	0.339872	-0.000020
1750	1.7403e+02	2.5903	-1.905548	0.000205	2.047217	0.346808	-0.000020
1751	1.7413e+02	2.5832	-1.923879	0.000184	1.842495	0.312127	-0.000018
1752	1.7422e+02	2.5757	-1.948319	0.000246	2.456660	0.416169	-0.000025
1753	1.7432e+02	2.5633	-1.965428	0.000172	1.719662	0.291319	-0.000017
1754	1.7442e+02	2.5530	-1.992312	0.000270	2.702326	0.457786	-0.000027
1755	1.7452e+02	2.5433	-2.016346	0.000242	2.415715	0.409233	-0.000024
1756	1.7462e+02	2.5327	-2.037120	0.000209	2.088161	0.353744	-0.000021
1757	1.7472e+02	2.5242	-2.055451	0.000184	1.842495	0.312127	-0.000018
1758	1.7482e+02	2.5118	-2.081113	0.000258	2.579493	0.436978	-0.000026
1759	1.7492e+02	2.5040	-2.103517	0.000225	2.251938	0.381489	-0.000023
1760	1.7502e+02	2.4938	-2.123477	0.000201	2.006272	0.339872	-0.000020
1761	1.7512e+02	2.4844	-2.145473	0.000221	2.210994	0.374552	-0.000022
1762	1.7522e+02	2.4760	-2.165433	0.000201	2.006272	0.339872	-0.000020
1763	1.7532e+02	2.4643	-2.185393	0.000201	2.006272	0.339872	-0.000020
1764	1.7542e+02	2.4514	-2.207797	0.000225	2.251938	0.381489	-0.000023
1765	1.7552e+02	2.4426	-2.227349	0.000197	1.965328	0.332936	-0.000020
1766	1.7562e+02	2.4348	-2.257900	0.000307	3.070825	0.520212	-0.000031
1767	1.7572e+02	2.4267	-2.273786	0.000160	1.596829	0.270510	-0.000016
1768	1.7582e+02	2.4126	-2.301485	0.000278	2.784214	0.471659	-0.000028
1769	1.7592e+02	2.4011	-2.326741	0.000254	2.538548	0.430042	-0.000025
1770	1.7602e+02	2.3950	-2.347922	0.000213	2.129105	0.360680	-0.000021
1771	1.7612e+02	2.3846	-2.365031	0.000172	1.719662	0.291319	-0.000017
1772	1.7621e+02	2.3731	-2.389471	0.000246	2.456660	0.416169	-0.000025
1773	1.7631e+02	2.3648	-2.412283	0.000229	2.292882	0.388425	-0.000023
1774	1.7641e+02	2.3569	-2.434279	0.000221	2.210994	0.374552	-0.000022
1775	1.7651e+02	2.3428	-2.457090	0.000229	2.292882	0.388425	-0.000023
1776	1.7661e+02	2.3322	-2.476235	0.000192	1.924384	0.325999	-0.000019
1777	1.7671e+02	2.3245	-2.499454	0.000233	2.333827	0.395361	-0.000023
1778	1.7681e+02	2.3145	-2.525116	0.000258	2.579493	0.436978	-0.000026
1779	1.7691e+02	2.3043	-2.542632	0.000176	1.760606	0.298255	-0.000018
1780	1.7701e+02	2.2944	-2.567073	0.000246	2.456660	0.416169	-0.000025
1781	1.7711e+02	2.2845	-2.588255	0.000213	2.129105	0.360680	-0.000021
1782	1.7721e+02	2.2735	-2.612695	0.000246	2.456660	0.416169	-0.000025
1783	1.7731e+02	2.2650	-2.631026	0.000184	1.842495	0.312127	-0.000018
1784	1.7741e+02	2.2533	-2.656688	0.000258	2.579493	0.436978	-0.000026
1785	1.7751e+02	2.2432	-2.673389	0.000168	1.678718	0.284382	-0.000017
1786	1.7761e+02	2.2335	-2.696200	0.000229	2.292882	0.388425	-0.000023
1787	1.7771e+02	2.2231	-2.723492	0.000274	2.743270	0.464723	-0.000027
1788	1.7781e+02	2.2156	-2.741823	0.000184	1.842495	0.312127	-0.000018
1789	1.7791e+02	2.2048	-2.766263	0.000246	2.456660	0.416169	-0.000025
1790	1.7801e+02	2.1957	-2.790296	0.000242	2.415715	0.409233	-0.000024
1791	1.7810e+02	2.1835	-2.808627	0.000184	1.842495	0.312127	-0.000018
1792	1.7820e+02	2.1747	-2.832253	0.000237	2.374771	0.402297	-0.000024
1793	1.7830e+02	2.1642	-2.857101	0.000250	2.497604	0.423106	-0.000025
1794	1.7840e+02	2.1552	-2.875838	0.000188	1.883439	0.319063	-0.000019
1795	1.7850e+02	2.1463	-2.898650	0.000229	2.292882	0.388425	-0.000023
1796	1.7860e+02	2.1352	-2.922683	0.000242	2.415715	0.409233	-0.000024
1797	1.7870e+02	2.1263	-2.940606	0.000180	1.801551	0.305191	-0.000018
1798	1.7880e+02	2.1145	-2.963010	0.000225	2.251938	0.381489	-0.000023
1799	1.7890e+02	2.1066	-2.984599	0.000217	2.170050	0.367616	-0.000022
1800	1.7900e+02	2.0951	-3.010261	0.000258	2.579493	0.436978	-0.000026
1801	1.7910e+02	2.0862	-3.030221	0.000201	2.006272	0.339872	-0.000020
1802	1.7920e+02	2.0771	-3.050588	0.000205	2.047217	0.346808	-0.000020
1803	1.7930e+02	2.0661	-3.078288	0.000278	2.784214	0.471659	-0.000028
1804	1.7940e+02	2.0561	-3.097025	0.000188	1.883439	0.319063	-0.000019
1805	1.7950e+02	2.0450	-3.121873	0.000250	2.497604	0.423106	-0.000025
1806	1.7960e+02	2.0371	-3.142240	0.000205	2.047217	0.346808	-0.000020
1807	1.7970e+02	2.0256	-3.165459	0.000233	2.333827	0.395361	-0.000023
1808	1.7980e+02	2.0145	-3.187048	0.000217	2.170050	0.367616	-0.000022
1809	1.7990e+02	2.0055	-3.209859	0.000229	2.292882	0.388425	-0.000023
1810	1.8000e+02	1.9968	-3.229412	0.000197	1.965328	0.332936	-0.000020
1811	1.8009e+02	1.9875	-3.259148	0.000299	2.988936	0.506339	-0.000030
1812	1.8019e+02	1.9747	-3.277478	0.000184	1.842495	0.312127	-0.000018
1813	1.8029e+02	1.9662	-3.300697	0.000233	2.333827	0.395361	-0.000023
1814	1.8039e+02	1.9558	-3.319434	0.000188	1.883439	0.319063	-0.000019
1815	1.8049e+02	1.9448	-3.342653	0.000233	2.333827	0.395361	-0.000023
1816	1.8059e+02	1.9370	-3.365872	0.000233	2.333827	0.395361	-0.000023
1817	1.8069e+02	1.9265	-3.388275	0.000225	2.251938	0.381489	-0.000023
1818	1.8079e+02	1.9164	-3.412716	0.000246	2.456660	0.416169	-0.000025
1819	1.8089e+02	1.9073	-3.434305	0.000217	2.170050	0.367616	-0.000022
1820	1.8099e+02	1.8974	-3.458746	0.000246	2.456660	0.416169	-0.000025
1821	1.8109e+02	1.8857	-3.482371	0.000237	2.374771	0.402297	-0.000024
1822	1.8119e+02	1.8777	-3.499887	0.000176	1.760606	0.298255	-0.000018
1823	1.8129e+02	1.8661	-3.523920	0.000242	2.415715	0.409233	-0.000024
1824	1.8139e+02	1.8564	-3.545917	0.000221	2.210994	0.374552	-0.000022
1825	1.8149e+02	1.8478	-3.567099	0.000213	2.129105	0.360680	-0.000021
1826	1.8159e+02	1.8365	-3.589095	0.000221	2.210994	0.374552	-0.000022
1827	1.8169e+02	1.8255	-3.612721	0.000237	2.374771	0.402297	-0.000024
1828	1.8179e+02	1.8163	-3.637569	0.000250	2.497604	0.423106	-0.000025
1829	1.8189e+02	1.8087	-3.656714	0.000192	1.924384	0.325999	-0.000019
1830	1.8199e+02	1.7961	-3.682377	0.000258	2.579493	0.436978	-0.000026
1831	1.8209e+02	1.7883	-3.703966	0.000217	2.170050	0.367616	-0.000022
1832	1.8218e+02	1.7765	-3.728406	0.000246	2.456660	0.416169	-0.000025
1833	1.8228e+02	1.7692	-3.749181	0.000209	2.088161	0.353744	-0.000021
1834	1.8238e+02	1.7554	-3.778510	0.000295	2.947992	0.499403	-0.000029
1835	1.8248e+02	1.7490	-3.799691	0.000213	2.129105	0.360680	-0.000021
1836	1.8258e+02	1.7337	-3.825354	0.000258	2.579493	0.436978	-0.000026
1837	1.8268e+02	1.7316	-3.842870	0.000176	1.760606	0.298255	-0.000018
1838	1.8278e+02	1.7137	-3.870162	0.000274	2.743270	0.464723	-0.000027
1839	1.8288e+02	1.7093	-3.887270	0.000172	1.719662	0.291319	-0.000017
1840	1.8298e+02	1.6981	-3.911303	0.000242	2.415715	0.409233	-0.000024
1841	1.8308e+02	1.6879	-3.931263	0.000201	2.006272	0.339872	-0.000020
1842	1.8318e+02	1.6776	-3.952852	0.000217	2.170050	0.367616	-0.000022
1843	1.8328e+02	1.6667	-3.979329	0.000266	2.661381	0.450850	-0.000027
1844	1.8338e+02	1.6572	-3.999697	0.000205	2.047217	0.346808	-0.000020
1845	1.8348e+02	1.6457	-4.024137	0.000246	2.456660	0.416169	-0.000025
1846	1.8358e+02	1.6388	-4.046948	0.000229	2.292882	0.388425	-0.000023
1847	1.8368e+02	1.6309	-4.070981	0.000242	2.415715	0.409233	-0.000024
1848	1.8378e+02	1.6177	-4.094200	0.000233	2.333827	0.395361	-0.000023
1849	1.8388e+02	1.6063	-4.114567	0.000205	2.047217	0.346808	-0.000020
1850	1.8398e+02	1.5978	-4.136971	0.000225	2.251938	0.381489	-0.000023
1851	1.8407e+02	1.5872	-4.158153	0.000213	2.129105	0.360680	-0.000021
1852	1.8417e+02	1.5775	-4.181371	0.000233	2.333827	0.395361	-0.000023
1853	1.8427e+02	1.5697	-4.198072	0.000168	1.678718	0.284382	-0.000017
1854	1.8437e+02	1.5569	-4.223328	0.000254	2.538548	0.430042	-0.000025
1855	1.8447e+02	1.5475	-4.246953	0.000237	2.374771	0.402297	-0.000024
1856	1.8457e+02	1.5393	-4.267321	0.000205	2.047217	0.346808	-0.000020
1857	1.8467e+02	1.5278	-4.287280	0.000201	2.006272	0.339872	-0.000020
1858	1.8477e+02	1.5170	-4.317424	0.000303	3.029880	0.513276	-0.000030
1859	1.8487e+02	1.5093	-4.338198	0.000209	2.088161	0.353744	-0.000021
1860	1.8497e+02	1.4975	-4.357751	0.000197	1.965328	0.332936	-0.000020
1861	1.8507e+02	1.4870	-4.379747	0.000221	2.210994	0.374552	-0.000022
1862	1.8517e+02	1.4749	-4.404595	0.000250	2.497604	0.423106	-0.000025
1863	1.8527e+02	1.4684	-4.425369	0.000209	2.088161	0.353744	-0.000021
1864	1.8537e+02	1.4577	-4.449810	0.000246	2.456660	0.416169	-0.000025
1865	1.8547e+02	1.4478	-4.470585	0.000209	2.088161	0.353744	-0.000021
1866	1.8557e+02	1.4375	-4.492988	0.000225	2.251938	0.381489	-0.000023
1867	1.8567e+02	1.4281	-4.517836	0.000250	2.497604	0.423106	-0.000025
1868	1.8577e+02	1.4185	-4.539425	0.000217	2.170050	0.367616	-0.000022
1869	1.8587e+02	1.4079	-4.559793	0.000205	2.047217	0.346808	-0.000020
1870	1.8597e+02	1.3988	-4.583418	0.000237	2.374771	0.402297	-0.000024
1871	1.8606e+02	1.3887	-4.607859	0.000246	2.456660	0.416169	-0.000025
1872	1.8616e+02	1.3782	-4.628633	0.000209	2.088161	0.353744	-0.000021
1873	1.8626e+02	1.3680	-4.655111	0.000266	2.661381	0.450850	-0.000027
1874	1.8636e+02	1.3622	-4.676700	0.000217	2.170050	0.367616	-0.000022
1875	1.8646e+02	1.3490	-4.698289	0.000217	2.170050	0.367616	-0.000022
1876	1.8656e+02	1.3389	-4.723544	0.000254	2.538548	0.430042	-0.000025
1877	1.8666e+02	1.3300	-4.743911	0.000205	2.047217	0.346808	-0.000020
1878	1.8676e+02	1.3169	-4.766723	0.000229	2.292882	0.388425	-0.000023
1879	1.8686e+02	1.3099	-4.794014	0.000274	2.743270	0.464723	-0.000027
1880	1.8696e+02	1.2988	-4.813567	0.000197	1.965328	0.332936	-0.000020
1881	1.8706e+02	1.2875	-4.838822	0.000254	2.538548	0.430042	-0.000025
1882	1.8716e+02	1.2778	-4.860819	0.000221	2.210994	0.374552	-0.000022
1883	1.8726e+02	1.2689	-4.884037	0.000233	2.333827	0.395361	-0.000023
1884	1.8736e+02	1.2590	-4.907663	0.000237	2.374771	0.402297	-0.000024
1885	1.8746e+02	1.2493	-4.926808	0.000192	1.924384	0.325999	-0.000019
1886	1.8756e+02	1.2415	-4.950434	0.000237	2.374771	0.402297	-0.000024
1887	1.8766e+02	1.2299	-4.970394	0.000201	2.006272	0.339872	-0.000020
1888	1.8776e+02	1.2209	-4.998908	0.000287	2.866103	0.485531	-0.000029
1889	1.8786e+02	1.2108	-5.017646	0.000188	1.883439	0.319063	-0.000019
1890	1.8796e+02	1.1991	-5.044530	0.000270	2.702326	0.457786	-0.000027
1891	1.8806e+02	1.1884	-5.064083	0.000197	1.965328	0.332936	-0.000020
1892	1.8815e+02	1.1786	-5.090560	0.000266	2.661381	0.450850	-0.000027
1893	1.8825e+02	1.1680	-5.113371	0.000229	2.292882	0.388425	-0.000023
1894	1.8835e+02	1.1588	-5.137404	0.000242	2.415715	0.409233	-0.000024
1895	1.8845e+02	1.1490	-5.160623	0.000233	2.333827	0.395361	-0.000023
1896	1.8855e+02	1.1400	-5.184656	0.000242	2.415715	0.409233	-0.000024
1897	1.8865e+02	1.1333	-5.205430	0.000209	2.088161	0.353744	-0.000021
1898	1.8875e+02	1.1230	-5.230686	0.000254	2.538548	0.430042	-0.000025
1899	1.8885e+02	1.1092	-5.251053	0.000205	2.047217	0.346808	-0.000020
1900	1.8895e+02	1.0973	-5.274679	0.000237	2.374771	0.402297	-0.000024
1901	1.8905e+02	1.0900	-5.295453	0.000209	2.088161	0.353744	-0.000021
1902	1.8915e+02	1.0811	-5.317042	0.000217	2.170050	0.367616	-0.000022
1903	1.8925e+02	1.0710	-5.341076	0.000242	2.415715	0.409233	-0.000024
1904	1.8935e+02	1.0630	-5.368367	0.000274	2.743270	0.464723	-0.000027
1905	1.8945e+02	1.0491	-5.387920	0.000197	1.965328	0.332936	-0.000020
1906	1.8955e+02	1.0417	-5.414805	0.000270	2.702326	0.457786	-0.000027
1907	1.8965e+02	1.0316	-5.431506	0.000168	1.678718	0.284382	-0.000017
1908	1.8975e+02	1.0221	-5.460020	0.000287	2.866103	0.485531	-0.000029
1909	1.8985e+02	1.0100	-5.484053	0.000242	2.415715	0.409233	-0.000024
1910	1.8995e+02	0.9989	-5.507271	0.000233	2.333827	0.395361	-0.000023
1911	1.9004e+02	0.9893	-5.531712	0.000246	2.456660	0.416169	-0.000025
1912	1.9014e+02	0.9816	-5.550450	0.000188	1.883439	0.319063	-0.000019
1913	1.9024e+02	0.9695	-5.577742	0.000274	2.743270	0.464723	-0.000027
1914	1.9034e+02	0.9607	-5.600553	0.000229	2.292882	0.388425	-0.000023
1915	1.9044e+02	0.9507	-5.621735	0.000213	2.129105	0.360680	-0.000021
1916	1.9054e+02	0.9416	-5.640880	0.000192	1.924384	0.325999	-0.000019
1917	1.9064e+02	0.9296	-5.665320	0.000246	2.456660	0.416169	-0.000025
1918	1.9074e+02	0.9198	-5.686502	0.000213	2.129105	0.360680	-0.000021
1919	1.9084e+02	0.9099	-5.710535	0.000242	2.415715	0.409233	-0.000024
1920	1.9094e+02	0.9011	-5.732939	0.000225	2.251938	0.381489	-0.000023
1921	1.9104e+02	0.8904	-5.757380	0.000246	2.456660	0.416169	-0.000025
1922	1.9114e+02	0.8811	-5.783042	0.000258	2.579493	0.436978	-0.000026
1923	1.9124e+02	0.8724	-5.805446	0.000225	2.251938	0.381489	-0.000023
1924	1.9134e+02	0.8614	-5.829479	0.000242	2.415715	0.409233	-0.000024
1925	1.9144e+02	0.8520	-5.852290	0.000229	2.292882	0.388425	-0.000023
1926	1.9154e+02	0.8418	-5.875509	0.000233	2.333827	0.395361	-0.000023
1927	1.9164e+02	0.8305	-5.900357	0.000250	2.497604	0.423106	-0.000025
1928	1.9174e+02	0.8204	-5.920317	0.000201	2.006272	0.339872	-0.000020
1929	1.9184e+02	0.8095	-5.943943	0.000237	2.374771	0.402297	-0.000024
1930	1.9194e+02	0.7991	-5.967568	0.000237	2.374771	0.402297	-0.000024
1931	1.9203e+02	0.7918	-5.991602	0.000242	2.415715	0.409233	-0.000024
1932	1.9213e+02	0.7820	-6.012376	0.000209	2.088161	0.353744	-0.000021
1933	1.9223e+02	0.7706	-6.040890	0.000287	2.866103	0.485531	-0.000029
1934	1.9233e+02	0.7629	-6.070626	0.000299	2.988936	0.506339	-0.000030
1935	1.9243e+02	0.7516	-6.091808	0.000213	2.129105	0.360680	-0.000021
1936	1.9253e+02	0.7422	-6.117063	0.000254	2.538548	0.430042	-0.000025
1937	1.9263e+02	0.7327	-6.137838	0.000209	2.088161	0.353744	-0.000021
1938	1.9273e+02	0.7191	-6.167574	0.000299	2.988936	0.506339	-0.000030
1939	1.9283e+02	0.7143	-6.188755	0.000213	2.129105	0.360680	-0.000021
1940	1.9293e+02	0.7019	-6.213603	0.000250	2.497604	0.423106	-0.000025
1941	1.9303e+02	0.6912	-6.238044	0.000246	2.456660	0.416169	-0.000025
1942	1.9313e+02	0.6815	-6.264114	0.000262	2.620437	0.443914	-0.000026
1943	1.9323e+02	0.6719	-6.284888	0.000209	2.088161	0.353744	-0.000021
1944	1.9333e+02	0.6628	-6.306070	0.000213	2.129105	0.360680	-0.000021
1945	1.9343e+02	0.6512	-6.335399	0.000295	2.947992	0.499403	-0.000029
1946	1.9353e+02	0.6437	-6.355358	0.000201	2.006272	0.339872	-0.000020
1947	1.9363e+02	0.6332	-6.379799	0.000246	2.456660	0.416169	-0.000025
1948	1.9373e+02	0.6219	-6.401796	0.000221	2.210994	0.374552	-0.000022
1949	1.9383e+02	0.6140	-6.425421	0.000237	2.374771	0.402297	-0.000024
1950	1.9393e+02	0.6010	-6.451899	0.000266	2.661381	0.450850	-0.000027
1951	1.9403e+02	0.5934	-6.470229	0.000184	1.842495	0.312127	-0.000018
1952	1.9412e+02	0.5835	-6.495484	0.000254	2.538548	0.430042	-0.000025
1953	1.9422e+02	0.5719	-6.523184	0.000278	2.784214	0.471659	-0.000028
1954	1.9432e+02	0.5634	-6.545180	0.000221	2.210994	0.374552	-0.000022
1955	1.9442e+02	0.5542	-6.567991	0.000229	2.292882	0.388425	-0.000023
1956	1.9452e+02	0.5431	-6.591617	0.000237	2.374771	0.402297	-0.000024
1957	1.9462e+02	0.5338	-6.616058	0.000246	2.456660	0.416169	-0.000025
1958	1.9472e+02	0.5247	-6.640498	0.000246	2.456660	0.416169	-0.000025
1959	1.9482e+02	0.5138	-6.665754	0.000254	2.538548	0.430042	-0.000025
1960	1.9492e+02	0.5020	-6.687750	0.000221	2.210994	0.374552	-0.000022
1961	1.9502e+02	0.4935	-6.709339	0.000217	2.170050	0.367616	-0.000022
1962	1.9512e+02	0.4848	-6.738668	0.000295	2.947992	0.499403	-0.000029
1963	1.9522e+02	0.4769	-6.759850	0.000213	2.129105	0.360680	-0.000021
1964	1.9532e+02	0.4639	-6.783883	0.000242	2.415715	0.409233	-0.000024
1965	1.9542e+02	0.4525	-6.809138	0.000254	2.538548	0.430042	-0.000025
1966	1.9552e+02	0.4465	-6.831542	0.000225	2.251938	0.381489	-0.000023
1967	1.9562e+02	0.4336	-6.858427	0.000270	2.702326	0.457786	-0.000027
1968	1.9572e+02	0.4229	-6.878386	0.000201	2.006272	0.339872	-0.000020
1969	1.9582e+02	0.4151	-6.903234	0.000250	2.497604	0.423106	-0.000025
1970	1.9592e+02	0.4041	-6.929711	0.000266	2.661381	0.450850	-0.000027
1971	1.9601e+02	0.3938	-6.951301	0.000217	2.170050	0.367616	-0.000022
1972	1.9611e+02	0.3829	-6.980222	0.000291	2.907047	0.492467	-0.000029
1973	1.9621e+02	0.3738	-6.998552	0.000184	1.842495	0.312127	-0.000018
1974	1.9631e+02	0.3642	-7.026252	0.000278	2.784214	0.471659	-0.000028
1975	1.9641e+02	0.3543	-7.049063	0.000229	2.292882	0.388425	-0.000023
1976	1.9651e+02	0.3434	-7.075540	0.000266	2.661381	0.450850	-0.000027
1977	1.9661e+02	0.3348	-7.097537	0.000221	2.210994	0.374552	-0.000022
1978	1.9671e+02	0.3230	-7.119533	0.000221	2.210994	0.374552	-0.000022
1979	1.9681e+02	0.3152	-7.148862	0.000295	2.947992	0.499403	-0.000029
1980	1.9691e+02	0.3052	-7.171673	0.000229	2.292882	0.388425	-0.000023
1981	1.9701e+02	0.2946	-7.193669	0.000221	2.210994	0.374552	-0.000022
1982	1.9711e+02	0.2847	-7.220961	0.000274	2.743270	0.464723	-0.000027
1983	1.9721e+02	0.2725	-7.240514	0.000197	1.965328	0.332936	-0.000020
1984	1.9731e+02	0.2660	-7.270250	0.000299	2.988936	0.506339	-0.000030
1985	1.9741e+02	0.2547	-7.289802	0.000197	1.965328	0.332936	-0.000020
1986	1.9751e+02	0.2413	-7.314650	0.000250	2.497604	0.423106	-0.000025
1987	1.9761e+02	0.2359	-7.337461	0.000229	2.292882	0.388425	-0.000023
1988	1.9771e+02	0.2264	-7.362717	0.000254	2.538548	0.430042	-0.000025
1989	1.9781e+02	0.2165	-7.387565	0.000250	2.497604	0.423106	-0.000025
1990	1.9791e+02	0.2042	-7.409561	0.000221	2.210994	0.374552	-0.000022
1991	1.9800e+02	0.1949	-7.429113	0.000197	1.965328	0.332936	-0.000020
1992	1.9810e+02	0.1842	-7.455998	0.000270	2.702326	0.457786	-0.000027
1993	1.9820e+02	0.1744	-7.482475	0.000266	2.661381	0.450850	-0.000027
1994	1.9830e+02	0.1632	-7.505287	0.000229	2.292882	0.388425	-0.000023
1995	1.9840e+02	0.1546	-7.528505	0.000233	2.333827	0.395361	-0.000023
1996	1.9850e+02	0.1473	-7.553760	0.000254	2.538548	0.430042	-0.000025
1997	1.9860e+02	0.1336	-7.580645	0.000270	2.702326	0.457786	-0.000027
1998	1.9870e+02	0.1254	-7.603863	0.000233	2.333827	0.395361	-0.000023
1999	1.9880e+02	0.1163	-7.628711	0.000250	2.497604	0.423106	-0.000025
2000	1.9890e+02	0.1048	-7.651115	0.000225	2.251938	0.381489	-0.000023
2001	1.9900e+02	0.0940	-7.680851	0.000299	2.988936	0.506339	-0.000030
2002	1.9910e+02	0.0850	-7.708958	0.000283	2.825159	0.478595	-0.000028
2003	1.9920e+02	0.0739	-7.729732	0.000209	2.088161	0.353744	-0.000021
2004	1.9930e+02	0.0670	-7.755802	0.000262	2.620437	0.443914	-0.000026
2005	1.9940e+02	0.0552	-7.777391	0.000217	2.170050	0.367616	-0.000022
2006	1.9950e+02	0.0451	-7.802647	0.000254	2.538548	0.430042	-0.000025
2007	1.9960e+02	0.0373	-7.827087	0.000246	2.456660	0.416169	-0.000025
2008	1.9970e+02	0.0243	-7.853157	0.000262	2.620437	0.443914	-0.000026
2009	1.9980e+02	0.0175	-7.874339	0.000213	2.129105	0.360680	-0.000021
2010	1.9990e+02	0.0081	-7.896743	0.000225	2.251938	0.381489	-0.000023
2011	2.0000e+02	-0.0053	-7.921591	0.000225	2.251938	0.381489	-0.000025

PMax (uC/cm2):	2.13e+01
Pr (uC/cm2):	2.74e+00
-Pr (uC/cm2):	0.00e+00
PLoss (uC/cm2):	0.00e+00
C (Max-Eff) (nF):	2.13e-01
K (Eff):	3.61e+02
Vert. (+/-Pr) Shift (uC/cm2):	1.37e+00
Offset (uC/cm2):	1.07e+01

A (Loop Area - uC/cm2·Volts):	-2.68e-02



Hysteresis Version: 5.48.1 - Radiant Technologies, Inc., 1999 - 9/12/24

