»»»»»»»»»»»»»»»»»»»»»»»»»»»»»»»»»»»» Hysteresis ««««««««««««««««««««««««««««««««««««
»»»  Executed Version:	5.48.1
»»»  Vision Version:	5.48.4 (R)
»»»  Vision Compiled:	9/18/24
»»»  Driver Version:	5.47.0
»»»  Windows Version:	Windows 8 or 8.1
»»»  Processor Information:	x86 (AMD or Intel) - 32 Processors
»»»  Tester Name:	PMF21124-494 (100V)
»»»  Tester S/N:	PMF21124-494
»»»  Internal Amp Type:	100V RevK 270k
»»»  Internal Amp S/N:	iAB2-596/K     
»»»  Execution Count:	1
»»»»»»»»»»»»»»»»»»»»»»»»»»»»»»»»»»»»»»»»»»««««««««««««««««««««««««««««««««««««««««««

Stored:	6/26/2025 - 15:26:2
Configured:	06/26/25 10:24:47 AM
Executed:	06/26/25 03:25:06 PM

»»»»»»»»»»»»»»»»»»»»»»»»»»»»»»»»»»» Sample Info ««««««««««««««««««««««««««««««««««««
Sample Name:	
Lot Name:	
Wafer Name:	
Die Row/Column:	0/0
Capacitor Number:	0
Sample Area (cm2):	1.00e-04
Sample Thickness (microns):	1.50e-01

Amplifier:	Internal

»»»»»»»»»»»»»»»»»»»»»»»»»»»»»»»»»»» Tester Info «««««««««««««««««««««««««««««««««««
Tester Name:	PMF21124-494 (100V)
Tester Serial Number:	PMF21124-494
Return Signal Amp. Level:	1.9 [Index: 2]

»»»»»»»»»»»»»»»»»»»»»»»»»»»»»»»» Hysteresis Info ««««««««««««««««««««««««««««««««««
Task Name:	Hyst-562
Volts:	10.00
Field:	666.67 (kV/cm)
DCBias:	0.00
DCField:	0.00 (kV/cm)
Hysteresis Period (ms):	2.00e+02
Preset:	Enabled
Preset Delay (ms):	1.00e+03
Profile:	Standard Monopolar

»»»»»»»»»»»»»»»»»»»»»»»»»»»»»»»»»»»»»» Data «««««««««««««««««««««««««««««««««««««««
Points:	2011

Valid Data

Point	Time (ms)	Drive Voltage	Measured Polarization (uC/cm2)	Capacitance (uF)	Normalized Capacitance (uF/cm2)	Dielectric Constant	Instantaneous Current (mA)
   1	0.0000e+00	-0.0043	-23.792471	0.000176	1.760875	0.298300	0.000018
   2	9.9500e-02	0.0031	-23.774955	0.000176	1.760875	0.298300	0.000018
   3	1.9900e-01	0.0169	-23.745627	0.000295	2.948442	0.499480	0.000029
   4	2.9850e-01	0.0241	-23.727704	0.000180	1.801826	0.305238	0.000018
   5	3.9800e-01	0.0341	-23.700819	0.000270	2.702738	0.457856	0.000027
   6	4.9750e-01	0.0457	-23.675156	0.000258	2.579887	0.437045	0.000026
   7	5.9700e-01	0.0538	-23.646642	0.000287	2.866541	0.485605	0.000029
   8	6.9650e-01	0.0653	-23.627497	0.000192	1.924677	0.326049	0.000019
   9	7.9600e-01	0.0753	-23.597761	0.000299	2.989392	0.506417	0.000030
  10	8.9550e-01	0.0855	-23.572506	0.000254	2.538936	0.430107	0.000025
  11	9.9500e-01	0.0970	-23.545622	0.000270	2.702738	0.457856	0.000027
  12	1.0945e+00	0.1070	-23.523218	0.000225	2.252282	0.381547	0.000023
  13	1.1940e+00	0.1164	-23.493889	0.000295	2.948442	0.499480	0.000029
  14	1.2935e+00	0.1221	-23.470670	0.000233	2.334183	0.395421	0.000023
  15	1.3930e+00	0.1340	-23.445008	0.000258	2.579887	0.437045	0.000026
  16	1.4925e+00	0.1446	-23.423011	0.000221	2.211331	0.374610	0.000022
  17	1.5920e+00	0.1535	-23.400608	0.000225	2.252282	0.381547	0.000023
  18	1.6915e+00	0.1634	-23.371686	0.000291	2.907491	0.492542	0.000029
  19	1.7910e+00	0.1736	-23.349690	0.000221	2.211331	0.374610	0.000022
  20	1.8905e+00	0.1838	-23.325249	0.000246	2.457035	0.416233	0.000025
  21	1.9900e+00	0.1969	-23.304882	0.000205	2.047529	0.346861	0.000020
  22	2.0895e+00	0.2041	-23.278812	0.000262	2.620837	0.443982	0.000026
  23	2.1890e+00	0.2161	-23.253150	0.000258	2.579887	0.437045	0.000026
  24	2.2885e+00	0.2238	-23.230338	0.000229	2.293232	0.388484	0.000023
  25	2.3880e+00	0.2347	-23.210786	0.000197	1.965628	0.332986	0.000020
  26	2.4875e+00	0.2452	-23.183087	0.000278	2.784639	0.471731	0.000028
  27	2.5870e+00	0.2538	-23.159868	0.000233	2.334183	0.395421	0.000023
  28	2.6865e+00	0.2641	-23.135428	0.000246	2.457035	0.416233	0.000025
  29	2.7860e+00	0.2726	-23.116690	0.000188	1.883727	0.319112	0.000019
  30	2.8855e+00	0.2847	-23.089805	0.000270	2.702738	0.457856	0.000027
  31	2.9850e+00	0.2924	-23.066994	0.000229	2.293232	0.388484	0.000023
  32	3.0845e+00	0.3062	-23.045405	0.000217	2.170381	0.367672	0.000022
  33	3.1840e+00	0.3147	-23.022186	0.000233	2.334183	0.395421	0.000023
  34	3.2835e+00	0.3221	-23.000190	0.000221	2.211331	0.374610	0.000022
  35	3.3830e+00	0.3336	-22.971269	0.000291	2.907491	0.492542	0.000029
  36	3.4825e+00	0.3434	-22.950901	0.000205	2.047529	0.346861	0.000020
  37	3.5820e+00	0.3497	-22.923202	0.000278	2.784639	0.471731	0.000028
  38	3.6815e+00	0.3632	-22.897132	0.000262	2.620837	0.443982	0.000026
  39	3.7810e+00	0.3738	-22.871470	0.000258	2.579887	0.437045	0.000026
  40	3.8805e+00	0.3838	-22.849066	0.000225	2.252282	0.381547	0.000023
  41	3.9800e+00	0.3928	-22.822996	0.000262	2.620837	0.443982	0.000026
  42	4.0795e+00	0.4069	-22.797741	0.000254	2.538936	0.430107	0.000025
  43	4.1790e+00	0.4128	-22.775337	0.000225	2.252282	0.381547	0.000023
  44	4.2785e+00	0.4222	-22.750896	0.000246	2.457035	0.416233	0.000025
  45	4.3780e+00	0.4334	-22.727270	0.000238	2.375134	0.402359	0.000024
  46	4.4775e+00	0.4430	-22.702830	0.000246	2.457035	0.416233	0.000025
  47	4.5770e+00	0.4536	-22.679204	0.000238	2.375134	0.402359	0.000024
  48	4.6765e+00	0.4594	-22.653949	0.000254	2.538936	0.430107	0.000025
  49	4.7760e+00	0.4738	-22.628286	0.000258	2.579887	0.437045	0.000026
  50	4.8755e+00	0.4868	-22.600587	0.000278	2.784639	0.471731	0.000028
  51	4.9750e+00	0.4958	-22.579812	0.000209	2.088480	0.353798	0.000021
  52	5.0745e+00	0.5029	-22.554964	0.000250	2.497985	0.423170	0.000025
  53	5.1740e+00	0.5123	-22.530117	0.000250	2.497985	0.423170	0.000025
  54	5.2735e+00	0.5233	-22.511786	0.000184	1.842776	0.312175	0.000018
  55	5.3730e+00	0.5344	-22.486531	0.000254	2.538936	0.430107	0.000025
  56	5.4725e+00	0.5434	-22.459239	0.000274	2.743689	0.464793	0.000027
  57	5.5720e+00	0.5535	-22.439279	0.000201	2.006578	0.339924	0.000020
  58	5.6715e+00	0.5623	-22.412802	0.000266	2.661788	0.450919	0.000027
  59	5.7710e+00	0.5723	-22.394879	0.000180	1.801826	0.305238	0.000018
  60	5.8705e+00	0.5834	-22.370031	0.000250	2.497985	0.423170	0.000025
  61	5.9700e+00	0.5934	-22.346405	0.000238	2.375134	0.402359	0.000024
  62	6.0695e+00	0.6033	-22.325631	0.000209	2.088480	0.353798	0.000021
  63	6.1690e+00	0.6126	-22.302819	0.000229	2.293232	0.388484	0.000023
  64	6.2685e+00	0.6223	-22.282860	0.000201	2.006578	0.339924	0.000020
  65	6.3680e+00	0.6330	-22.257604	0.000254	2.538936	0.430107	0.000025
  66	6.4675e+00	0.6413	-22.233571	0.000242	2.416084	0.409296	0.000024
  67	6.5670e+00	0.6544	-22.214426	0.000192	1.924677	0.326049	0.000019
  68	6.6665e+00	0.6638	-22.189171	0.000254	2.538936	0.430107	0.000025
  69	6.7660e+00	0.6747	-22.169211	0.000201	2.006578	0.339924	0.000020
  70	6.8655e+00	0.6844	-22.145992	0.000233	2.334183	0.395421	0.000023
  71	6.9650e+00	0.6936	-22.121959	0.000242	2.416084	0.409296	0.000024
  72	7.0645e+00	0.7014	-22.099148	0.000229	2.293232	0.388484	0.000023
  73	7.1640e+00	0.7142	-22.076744	0.000225	2.252282	0.381547	0.000023
  74	7.2635e+00	0.7228	-22.055970	0.000209	2.088480	0.353798	0.000021
  75	7.3630e+00	0.7310	-22.033973	0.000221	2.211331	0.374610	0.000022
  76	7.4625e+00	0.7435	-22.011977	0.000221	2.211331	0.374610	0.000022
  77	7.5620e+00	0.7506	-21.989980	0.000221	2.211331	0.374610	0.000022
  78	7.6615e+00	0.7606	-21.965132	0.000250	2.497985	0.423170	0.000025
  79	7.7610e+00	0.7723	-21.948024	0.000172	1.719924	0.291363	0.000017
  80	7.8605e+00	0.7813	-21.923991	0.000242	2.416084	0.409296	0.000024
  81	7.9600e+00	0.7907	-21.901587	0.000225	2.252282	0.381547	0.000023
  82	8.0595e+00	0.8012	-21.882442	0.000192	1.924677	0.326049	0.000019
  83	8.1590e+00	0.8121	-21.858409	0.000242	2.416084	0.409296	0.000024
  84	8.2585e+00	0.8226	-21.840078	0.000184	1.842776	0.312175	0.000018
  85	8.3580e+00	0.8347	-21.818489	0.000217	2.170381	0.367672	0.000022
  86	8.4575e+00	0.8427	-21.794456	0.000242	2.416084	0.409296	0.000024
  87	8.5570e+00	0.8474	-21.780199	0.000143	1.433270	0.242803	0.000014
  88	8.6565e+00	0.8639	-21.758610	0.000217	2.170381	0.367672	0.000022
  89	8.7560e+00	0.8732	-21.735799	0.000229	2.293232	0.388484	0.000023
  90	8.8555e+00	0.8797	-21.715024	0.000209	2.088480	0.353798	0.000021
  91	8.9550e+00	0.8930	-21.695064	0.000201	2.006578	0.339924	0.000020
  92	9.0545e+00	0.8994	-21.677549	0.000176	1.760875	0.298300	0.000018
  93	9.1540e+00	0.9107	-21.658811	0.000188	1.883727	0.319112	0.000019
  94	9.2535e+00	0.9201	-21.637222	0.000217	2.170381	0.367672	0.000022
  95	9.3530e+00	0.9299	-21.615225	0.000221	2.211331	0.374610	0.000022
  96	9.4525e+00	0.9413	-21.596895	0.000184	1.842776	0.312175	0.000018
  97	9.5520e+00	0.9516	-21.575306	0.000217	2.170381	0.367672	0.000022
  98	9.6515e+00	0.9612	-21.554124	0.000213	2.129430	0.360735	0.000021
  99	9.7510e+00	0.9707	-21.531720	0.000225	2.252282	0.381547	0.000023
 100	9.8505e+00	0.9798	-21.509723	0.000221	2.211331	0.374610	0.000022
 101	9.9500e+00	0.9917	-21.486912	0.000229	2.293232	0.388484	0.000023
 102	1.0050e+01	1.0009	-21.466545	0.000205	2.047529	0.346861	0.000020
 103	1.0149e+01	1.0100	-21.443327	0.000233	2.334183	0.395421	0.000023
 104	1.0248e+01	1.0201	-21.422145	0.000213	2.129430	0.360735	0.000021
 105	1.0348e+01	1.0311	-21.400148	0.000221	2.211331	0.374610	0.000022
 106	1.0447e+01	1.0393	-21.377744	0.000225	2.252282	0.381547	0.000023
 107	1.0547e+01	1.0505	-21.358192	0.000197	1.965628	0.332986	0.000020
 108	1.0646e+01	1.0602	-21.334566	0.000238	2.375134	0.402359	0.000024
 109	1.0746e+01	1.0666	-21.311755	0.000229	2.293232	0.388484	0.000023
 110	1.0845e+01	1.0780	-21.289758	0.000221	2.211331	0.374610	0.000022
 111	1.0945e+01	1.0889	-21.268169	0.000217	2.170381	0.367672	0.000022
 112	1.1044e+01	1.1001	-21.251061	0.000172	1.719924	0.291363	0.000017
 113	1.1144e+01	1.1098	-21.223362	0.000278	2.784639	0.471731	0.000028
 114	1.1243e+01	1.1196	-21.198514	0.000250	2.497985	0.423170	0.000025
 115	1.1343e+01	1.1307	-21.178554	0.000201	2.006578	0.339924	0.000020
 116	1.1443e+01	1.1387	-21.151262	0.000274	2.743689	0.464793	0.000027
 117	1.1542e+01	1.1499	-21.134968	0.000164	1.638023	0.277489	0.000016
 118	1.1642e+01	1.1622	-21.110120	0.000250	2.497985	0.423170	0.000025
 119	1.1741e+01	1.1711	-21.090975	0.000192	1.924677	0.326049	0.000019
 120	1.1841e+01	1.1781	-21.068164	0.000229	2.293232	0.388484	0.000023
 121	1.1940e+01	1.1919	-21.048204	0.000201	2.006578	0.339924	0.000020
 122	1.2040e+01	1.1958	-21.032318	0.000160	1.597073	0.270551	0.000016
 123	1.2139e+01	1.2090	-21.006248	0.000262	2.620837	0.443982	0.000026
 124	1.2239e+01	1.2201	-20.983030	0.000233	2.334183	0.395421	0.000023
 125	1.2338e+01	1.2283	-20.962662	0.000205	2.047529	0.346861	0.000020
 126	1.2438e+01	1.2385	-20.943925	0.000188	1.883727	0.319112	0.000019
 127	1.2537e+01	1.2505	-20.923150	0.000209	2.088480	0.353798	0.000021
 128	1.2636e+01	1.2605	-20.901154	0.000221	2.211331	0.374610	0.000022
 129	1.2736e+01	1.2704	-20.878342	0.000229	2.293232	0.388484	0.000023
 130	1.2835e+01	1.2783	-20.860012	0.000184	1.842776	0.312175	0.000018
 131	1.2935e+01	1.2905	-20.837608	0.000225	2.252282	0.381547	0.000023
 132	1.3034e+01	1.2992	-20.818056	0.000197	1.965628	0.332986	0.000020
 133	1.3134e+01	1.3100	-20.794430	0.000238	2.375134	0.402359	0.000024
 134	1.3233e+01	1.3208	-20.772841	0.000217	2.170381	0.367672	0.000022
 135	1.3333e+01	1.3288	-20.747993	0.000250	2.497985	0.423170	0.000025
 136	1.3432e+01	1.3366	-20.729255	0.000188	1.883727	0.319112	0.000019
 137	1.3532e+01	1.3474	-20.704407	0.000250	2.497985	0.423170	0.000025
 138	1.3632e+01	1.3589	-20.687299	0.000172	1.719924	0.291363	0.000017
 139	1.3731e+01	1.3691	-20.662451	0.000250	2.497985	0.423170	0.000025
 140	1.3831e+01	1.3798	-20.640454	0.000221	2.211331	0.374610	0.000022
 141	1.3930e+01	1.3885	-20.618865	0.000217	2.170381	0.367672	0.000022
 142	1.4030e+01	1.3980	-20.596054	0.000229	2.293232	0.388484	0.000023
 143	1.4129e+01	1.4056	-20.573650	0.000225	2.252282	0.381547	0.000023
 144	1.4229e+01	1.4196	-20.548395	0.000254	2.538936	0.430107	0.000025
 145	1.4328e+01	1.4290	-20.527213	0.000213	2.129430	0.360735	0.000021
 146	1.4428e+01	1.4364	-20.502773	0.000246	2.457035	0.416233	0.000025
 147	1.4527e+01	1.4502	-20.480776	0.000221	2.211331	0.374610	0.000022
 148	1.4627e+01	1.4600	-20.455114	0.000258	2.579887	0.437045	0.000026
 149	1.4726e+01	1.4693	-20.431488	0.000238	2.375134	0.402359	0.000024
 150	1.4825e+01	1.4754	-20.409084	0.000225	2.252282	0.381547	0.000023
 151	1.4925e+01	1.4861	-20.386680	0.000225	2.252282	0.381547	0.000023
 152	1.5024e+01	1.4994	-20.362239	0.000246	2.457035	0.416233	0.000025
 153	1.5124e+01	1.5075	-20.336984	0.000254	2.538936	0.430107	0.000025
 154	1.5223e+01	1.5176	-20.314988	0.000221	2.211331	0.374610	0.000022
 155	1.5323e+01	1.5265	-20.286881	0.000283	2.825590	0.478668	0.000028
 156	1.5422e+01	1.5379	-20.266514	0.000205	2.047529	0.346861	0.000020
 157	1.5522e+01	1.5472	-20.243703	0.000229	2.293232	0.388484	0.000023
 158	1.5621e+01	1.5569	-20.223743	0.000201	2.006578	0.339924	0.000020
 159	1.5721e+01	1.5688	-20.197266	0.000266	2.661788	0.450919	0.000027
 160	1.5820e+01	1.5762	-20.176084	0.000213	2.129430	0.360735	0.000021
 161	1.5920e+01	1.5875	-20.151643	0.000246	2.457035	0.416233	0.000025
 162	1.6020e+01	1.5976	-20.128832	0.000229	2.293232	0.388484	0.000023
 163	1.6119e+01	1.6055	-20.104799	0.000242	2.416084	0.409296	0.000024
 164	1.6218e+01	1.6205	-20.077507	0.000274	2.743689	0.464793	0.000027
 165	1.6318e+01	1.6263	-20.053474	0.000242	2.416084	0.409296	0.000024
 166	1.6418e+01	1.6380	-20.025775	0.000278	2.784639	0.471731	0.000028
 167	1.6517e+01	1.6470	-20.004593	0.000213	2.129430	0.360735	0.000021
 168	1.6616e+01	1.6557	-19.976893	0.000278	2.784639	0.471731	0.000028
 169	1.6716e+01	1.6650	-19.952453	0.000246	2.457035	0.416233	0.000025
 170	1.6816e+01	1.6781	-19.925161	0.000274	2.743689	0.464793	0.000027
 171	1.6915e+01	1.6855	-19.903572	0.000217	2.170381	0.367672	0.000022
 172	1.7015e+01	1.6965	-19.877502	0.000262	2.620837	0.443982	0.000026
 173	1.7114e+01	1.7068	-19.853469	0.000242	2.416084	0.409296	0.000024
 174	1.7213e+01	1.7166	-19.826991	0.000266	2.661788	0.450919	0.000027
 175	1.7313e+01	1.7236	-19.804588	0.000225	2.252282	0.381547	0.000023
 176	1.7413e+01	1.7362	-19.773629	0.000311	3.112244	0.527228	0.000031
 177	1.7512e+01	1.7458	-19.751226	0.000225	2.252282	0.381547	0.000023
 178	1.7611e+01	1.7553	-19.726378	0.000250	2.497985	0.423170	0.000025
 179	1.7711e+01	1.7683	-19.700308	0.000262	2.620837	0.443982	0.000026
 180	1.7811e+01	1.7774	-19.672201	0.000283	2.825590	0.478668	0.000028
 181	1.7910e+01	1.7863	-19.645724	0.000266	2.661788	0.450919	0.000027
 182	1.8009e+01	1.7973	-19.625357	0.000205	2.047529	0.346861	0.000020
 183	1.8109e+01	1.8053	-19.600509	0.000250	2.497985	0.423170	0.000025
 184	1.8209e+01	1.8142	-19.576476	0.000242	2.416084	0.409296	0.000024
 185	1.8308e+01	1.8264	-19.551628	0.000250	2.497985	0.423170	0.000025
 186	1.8407e+01	1.8350	-19.528409	0.000233	2.334183	0.395421	0.000023
 187	1.8507e+01	1.8432	-19.502339	0.000262	2.620837	0.443982	0.000026
 188	1.8607e+01	1.8576	-19.477084	0.000254	2.538936	0.430107	0.000025
 189	1.8706e+01	1.8661	-19.451422	0.000258	2.579887	0.437045	0.000026
 190	1.8805e+01	1.8759	-19.427796	0.000238	2.375134	0.402359	0.000024
 191	1.8905e+01	1.8877	-19.409873	0.000180	1.801826	0.305238	0.000018
 192	1.9005e+01	1.8948	-19.385432	0.000246	2.457035	0.416233	0.000025
 193	1.9104e+01	1.9039	-19.363843	0.000217	2.170381	0.367672	0.000022
 194	1.9203e+01	1.9130	-19.336958	0.000270	2.702738	0.457856	0.000027
 195	1.9303e+01	1.9265	-19.319443	0.000176	1.760875	0.298300	0.000018
 196	1.9402e+01	1.9337	-19.292558	0.000270	2.702738	0.457856	0.000027
 197	1.9502e+01	1.9473	-19.270561	0.000221	2.211331	0.374610	0.000022
 198	1.9602e+01	1.9533	-19.245714	0.000250	2.497985	0.423170	0.000025
 199	1.9701e+01	1.9661	-19.224939	0.000209	2.088480	0.353798	0.000021
 200	1.9800e+01	1.9793	-19.200499	0.000246	2.457035	0.416233	0.000025
 201	1.9900e+01	1.9843	-19.175651	0.000250	2.497985	0.423170	0.000025
 202	2.0000e+01	1.9958	-19.152025	0.000238	2.375134	0.402359	0.000024
 203	2.0099e+01	2.0047	-19.126362	0.000258	2.579887	0.437045	0.000026
 204	2.0198e+01	2.0152	-19.105995	0.000205	2.047529	0.346861	0.000020
 205	2.0298e+01	2.0262	-19.079518	0.000266	2.661788	0.450919	0.000027
 206	2.0398e+01	2.0383	-19.055077	0.000246	2.457035	0.416233	0.000025
 207	2.0497e+01	2.0442	-19.028600	0.000266	2.661788	0.450919	0.000027
 208	2.0596e+01	2.0556	-19.003345	0.000254	2.538936	0.430107	0.000025
 209	2.0696e+01	2.0641	-18.983385	0.000201	2.006578	0.339924	0.000020
 210	2.0796e+01	2.0750	-18.956908	0.000266	2.661788	0.450919	0.000027
 211	2.0895e+01	2.0854	-18.932874	0.000242	2.416084	0.409296	0.000024
 212	2.0994e+01	2.0959	-18.912507	0.000205	2.047529	0.346861	0.000020
 213	2.1094e+01	2.1055	-18.886845	0.000258	2.579887	0.437045	0.000026
 214	2.1194e+01	2.1146	-18.858738	0.000283	2.825590	0.478668	0.000028
 215	2.1293e+01	2.1239	-18.839186	0.000197	1.965628	0.332986	0.000020
 216	2.1392e+01	2.1331	-18.810672	0.000287	2.866541	0.485605	0.000029
 217	2.1492e+01	2.1468	-18.786638	0.000242	2.416084	0.409296	0.000024
 218	2.1591e+01	2.1536	-18.760976	0.000258	2.579887	0.437045	0.000026
 219	2.1691e+01	2.1648	-18.739794	0.000213	2.129430	0.360735	0.000021
 220	2.1791e+01	2.1755	-18.716168	0.000238	2.375134	0.402359	0.000024
 221	2.1890e+01	2.1845	-18.695394	0.000209	2.088480	0.353798	0.000021
 222	2.1989e+01	2.1925	-18.670139	0.000254	2.538936	0.430107	0.000025
 223	2.2089e+01	2.2073	-18.647327	0.000229	2.293232	0.388484	0.000023
 224	2.2189e+01	2.2167	-18.623701	0.000238	2.375134	0.402359	0.000024
 225	2.2288e+01	2.2243	-18.603334	0.000205	2.047529	0.346861	0.000020
 226	2.2387e+01	2.2350	-18.580523	0.000229	2.293232	0.388484	0.000023
 227	2.2487e+01	2.2440	-18.553231	0.000274	2.743689	0.464793	0.000027
 228	2.2587e+01	2.2548	-18.534493	0.000188	1.883727	0.319112	0.000019
 229	2.2686e+01	2.2632	-18.510053	0.000246	2.457035	0.416233	0.000025
 230	2.2785e+01	2.2733	-18.490500	0.000197	1.965628	0.332986	0.000020
 231	2.2885e+01	2.2829	-18.468504	0.000221	2.211331	0.374610	0.000022
 232	2.2985e+01	2.2916	-18.447322	0.000213	2.129430	0.360735	0.000021
 233	2.3084e+01	2.3026	-18.424104	0.000233	2.334183	0.395421	0.000023
 234	2.3183e+01	2.3168	-18.404959	0.000192	1.924677	0.326049	0.000019
 235	2.3283e+01	2.3242	-18.380925	0.000242	2.416084	0.409296	0.000024
 236	2.3383e+01	2.3331	-18.357299	0.000238	2.375134	0.402359	0.000024
 237	2.3482e+01	2.3444	-18.338154	0.000192	1.924677	0.326049	0.000019
 238	2.3581e+01	2.3538	-18.313306	0.000250	2.497985	0.423170	0.000025
 239	2.3681e+01	2.3646	-18.293754	0.000197	1.965628	0.332986	0.000020
 240	2.3780e+01	2.3751	-18.272572	0.000213	2.129430	0.360735	0.000021
 241	2.3880e+01	2.3830	-18.246502	0.000262	2.620837	0.443982	0.000026
 242	2.3980e+01	2.3938	-18.225728	0.000209	2.088480	0.353798	0.000021
 243	2.4079e+01	2.4049	-18.205768	0.000201	2.006578	0.339924	0.000020
 244	2.4178e+01	2.4139	-18.187030	0.000188	1.883727	0.319112	0.000019
 245	2.4278e+01	2.4255	-18.165441	0.000217	2.170381	0.367672	0.000022
 246	2.4378e+01	2.4336	-18.142630	0.000229	2.293232	0.388484	0.000023
 247	2.4477e+01	2.4438	-18.120633	0.000221	2.211331	0.374610	0.000022
 248	2.4576e+01	2.4527	-18.098230	0.000225	2.252282	0.381547	0.000023
 249	2.4676e+01	2.4639	-18.082343	0.000160	1.597073	0.270551	0.000016
 250	2.4776e+01	2.4747	-18.060754	0.000217	2.170381	0.367672	0.000022
 251	2.4875e+01	2.4819	-18.038758	0.000221	2.211331	0.374610	0.000022
 252	2.4974e+01	2.4927	-18.022464	0.000164	1.638023	0.277489	0.000016
 253	2.5074e+01	2.4992	-17.999653	0.000229	2.293232	0.388484	0.000023
 254	2.5174e+01	2.5144	-17.981322	0.000184	1.842776	0.312175	0.000018
 255	2.5273e+01	2.5240	-17.958918	0.000225	2.252282	0.381547	0.000023
 256	2.5372e+01	2.5317	-17.939366	0.000197	1.965628	0.332986	0.000020
 257	2.5472e+01	2.5425	-17.919406	0.000201	2.006578	0.339924	0.000020
 258	2.5572e+01	2.5516	-17.902705	0.000168	1.678974	0.284426	0.000017
 259	2.5671e+01	2.5618	-17.881931	0.000209	2.088480	0.353798	0.000021
 260	2.5770e+01	2.5720	-17.861564	0.000205	2.047529	0.346861	0.000020
 261	2.5870e+01	2.5851	-17.842826	0.000188	1.883727	0.319112	0.000019
 262	2.5970e+01	2.5925	-17.823681	0.000192	1.924677	0.326049	0.000019
 263	2.6069e+01	2.6064	-17.803721	0.000201	2.006578	0.339924	0.000020
 264	2.6169e+01	2.6142	-17.784168	0.000197	1.965628	0.332986	0.000020
 265	2.6268e+01	2.6230	-17.763394	0.000209	2.088480	0.353798	0.000021
 266	2.6367e+01	2.6340	-17.742620	0.000209	2.088480	0.353798	0.000021
 267	2.6467e+01	2.6437	-17.722252	0.000205	2.047529	0.346861	0.000020
 268	2.6567e+01	2.6522	-17.698219	0.000242	2.416084	0.409296	0.000024
 269	2.6666e+01	2.6620	-17.678667	0.000197	1.965628	0.332986	0.000020
 270	2.6765e+01	2.6720	-17.662373	0.000164	1.638023	0.277489	0.000016
 271	2.6865e+01	2.6824	-17.639562	0.000229	2.293232	0.388484	0.000023
 272	2.6965e+01	2.6929	-17.616343	0.000233	2.334183	0.395421	0.000023
 273	2.7064e+01	2.7048	-17.594347	0.000221	2.211331	0.374610	0.000022
 274	2.7163e+01	2.7142	-17.569906	0.000246	2.457035	0.416233	0.000025
 275	2.7263e+01	2.7219	-17.551576	0.000184	1.842776	0.312175	0.000018
 276	2.7363e+01	2.7339	-17.532023	0.000197	1.965628	0.332986	0.000020
 277	2.7462e+01	2.7399	-17.511656	0.000205	2.047529	0.346861	0.000020
 278	2.7561e+01	2.7506	-17.488438	0.000233	2.334183	0.395421	0.000023
 279	2.7661e+01	2.7633	-17.465219	0.000233	2.334183	0.395421	0.000023
 280	2.7761e+01	2.7742	-17.442815	0.000225	2.252282	0.381547	0.000023
 281	2.7860e+01	2.7833	-17.418782	0.000242	2.416084	0.409296	0.000024
 282	2.7959e+01	2.7917	-17.399637	0.000192	1.924677	0.326049	0.000019
 283	2.8059e+01	2.8016	-17.378863	0.000209	2.088480	0.353798	0.000021
 284	2.8159e+01	2.8110	-17.356051	0.000229	2.293232	0.388484	0.000023
 285	2.8258e+01	2.8190	-17.337721	0.000184	1.842776	0.312175	0.000018
 286	2.8358e+01	2.8332	-17.312466	0.000254	2.538936	0.430107	0.000025
 287	2.8457e+01	2.8419	-17.293728	0.000188	1.883727	0.319112	0.000019
 288	2.8556e+01	2.8529	-17.270509	0.000233	2.334183	0.395421	0.000023
 289	2.8656e+01	2.8628	-17.251772	0.000188	1.883727	0.319112	0.000019
 290	2.8756e+01	2.8752	-17.229775	0.000221	2.211331	0.374610	0.000022
 291	2.8855e+01	2.8821	-17.209001	0.000209	2.088480	0.353798	0.000021
 292	2.8954e+01	2.8933	-17.189856	0.000192	1.924677	0.326049	0.000019
 293	2.9054e+01	2.9018	-17.171525	0.000184	1.842776	0.312175	0.000018
 294	2.9154e+01	2.9119	-17.147085	0.000246	2.457035	0.416233	0.000025
 295	2.9253e+01	2.9211	-17.126718	0.000205	2.047529	0.346861	0.000020
 296	2.9352e+01	2.9301	-17.105128	0.000217	2.170381	0.367672	0.000022
 297	2.9452e+01	2.9402	-17.084354	0.000209	2.088480	0.353798	0.000021
 298	2.9552e+01	2.9496	-17.065209	0.000192	1.924677	0.326049	0.000019
 299	2.9651e+01	2.9600	-17.043212	0.000221	2.211331	0.374610	0.000022
 300	2.9750e+01	2.9720	-17.024475	0.000188	1.883727	0.319112	0.000019
 301	2.9850e+01	2.9802	-17.001663	0.000229	2.293232	0.388484	0.000023
 302	2.9950e+01	2.9896	-16.981704	0.000201	2.006578	0.339924	0.000020
 303	3.0049e+01	3.0004	-16.959707	0.000221	2.211331	0.374610	0.000022
 304	3.0148e+01	3.0086	-16.937711	0.000221	2.211331	0.374610	0.000022
 305	3.0248e+01	3.0208	-16.918973	0.000188	1.883727	0.319112	0.000019
 306	3.0348e+01	3.0298	-16.896569	0.000225	2.252282	0.381547	0.000023
 307	3.0447e+01	3.0420	-16.874573	0.000221	2.211331	0.374610	0.000022
 308	3.0547e+01	3.0515	-16.850132	0.000246	2.457035	0.416233	0.000025
 309	3.0646e+01	3.0610	-16.829358	0.000209	2.088480	0.353798	0.000021
 310	3.0745e+01	3.0714	-16.804102	0.000254	2.538936	0.430107	0.000025
 311	3.0845e+01	3.0804	-16.783735	0.000205	2.047529	0.346861	0.000020
 312	3.0945e+01	3.0864	-16.760109	0.000238	2.375134	0.402359	0.000024
 313	3.1044e+01	3.1010	-16.736483	0.000238	2.375134	0.402359	0.000024
 314	3.1143e+01	3.1115	-16.714894	0.000217	2.170381	0.367672	0.000022
 315	3.1243e+01	3.1190	-16.693712	0.000213	2.129430	0.360735	0.000021
 316	3.1343e+01	3.1316	-16.668050	0.000258	2.579887	0.437045	0.000026
 317	3.1442e+01	3.1403	-16.646053	0.000221	2.211331	0.374610	0.000022
 318	3.1541e+01	3.1541	-16.620391	0.000258	2.579887	0.437045	0.000026
 319	3.1641e+01	3.1615	-16.600024	0.000205	2.047529	0.346861	0.000020
 320	3.1741e+01	3.1709	-16.574361	0.000258	2.579887	0.437045	0.000026
 321	3.1840e+01	3.1800	-16.551550	0.000229	2.293232	0.388484	0.000023
 322	3.1939e+01	3.1877	-16.525480	0.000262	2.620837	0.443982	0.000026
 323	3.2039e+01	3.2001	-16.505520	0.000201	2.006578	0.339924	0.000020
 324	3.2139e+01	3.2101	-16.480672	0.000250	2.497985	0.423170	0.000025
 325	3.2238e+01	3.2204	-16.459083	0.000217	2.170381	0.367672	0.000022
 326	3.2337e+01	3.2281	-16.436272	0.000229	2.293232	0.388484	0.000023
 327	3.2437e+01	3.2417	-16.410609	0.000258	2.579887	0.437045	0.000026
 328	3.2536e+01	3.2481	-16.390242	0.000205	2.047529	0.346861	0.000020
 329	3.2636e+01	3.2583	-16.362950	0.000274	2.743689	0.464793	0.000027
 330	3.2736e+01	3.2702	-16.337288	0.000258	2.579887	0.437045	0.000026
 331	3.2835e+01	3.2779	-16.311218	0.000262	2.620837	0.443982	0.000026
 332	3.2934e+01	3.2879	-16.292073	0.000192	1.924677	0.326049	0.000019
 333	3.3034e+01	3.3010	-16.263966	0.000283	2.825590	0.478668	0.000028
 334	3.3133e+01	3.3100	-16.236267	0.000278	2.784639	0.471731	0.000028
 335	3.3233e+01	3.3198	-16.211826	0.000246	2.457035	0.416233	0.000025
 336	3.3333e+01	3.3306	-16.190237	0.000217	2.170381	0.367672	0.000022
 337	3.3432e+01	3.3395	-16.164167	0.000262	2.620837	0.443982	0.000026
 338	3.3532e+01	3.3488	-16.137690	0.000266	2.661788	0.450919	0.000027
 339	3.3631e+01	3.3591	-16.114879	0.000229	2.293232	0.388484	0.000023
 340	3.3730e+01	3.3677	-16.087179	0.000278	2.784639	0.471731	0.000028
 341	3.3830e+01	3.3801	-16.057851	0.000295	2.948442	0.499480	0.000029
 342	3.3929e+01	3.3881	-16.034225	0.000238	2.375134	0.402359	0.000024
 343	3.4029e+01	3.3981	-16.008970	0.000254	2.538936	0.430107	0.000025
 344	3.4129e+01	3.4093	-15.982085	0.000270	2.702738	0.457856	0.000027
 345	3.4228e+01	3.4183	-15.954386	0.000278	2.784639	0.471731	0.000028
 346	3.4328e+01	3.4303	-15.929538	0.000250	2.497985	0.423170	0.000025
 347	3.4427e+01	3.4378	-15.903468	0.000262	2.620837	0.443982	0.000026
 348	3.4526e+01	3.4490	-15.875361	0.000283	2.825590	0.478668	0.000028
 349	3.4626e+01	3.4594	-15.849699	0.000258	2.579887	0.437045	0.000026
 350	3.4725e+01	3.4696	-15.824443	0.000254	2.538936	0.430107	0.000025
 351	3.4825e+01	3.4804	-15.800818	0.000238	2.375134	0.402359	0.000024
 352	3.4925e+01	3.4880	-15.775970	0.000250	2.497985	0.423170	0.000025
 353	3.5024e+01	3.4987	-15.753158	0.000229	2.293232	0.388484	0.000023
 354	3.5123e+01	3.5074	-15.725867	0.000274	2.743689	0.464793	0.000027
 355	3.5223e+01	3.5191	-15.697353	0.000287	2.866541	0.485605	0.000029
 356	3.5322e+01	3.5287	-15.675356	0.000221	2.211331	0.374610	0.000022
 357	3.5422e+01	3.5383	-15.648879	0.000266	2.661788	0.450919	0.000027
 358	3.5522e+01	3.5483	-15.625253	0.000238	2.375134	0.402359	0.000024
 359	3.5621e+01	3.5589	-15.599590	0.000258	2.579887	0.437045	0.000026
 360	3.5721e+01	3.5674	-15.571484	0.000283	2.825590	0.478668	0.000028
 361	3.5820e+01	3.5762	-15.548265	0.000233	2.334183	0.395421	0.000023
 362	3.5919e+01	3.5854	-15.519751	0.000287	2.866541	0.485605	0.000029
 363	3.6019e+01	3.5995	-15.495311	0.000246	2.457035	0.416233	0.000025
 364	3.6118e+01	3.6094	-15.470055	0.000254	2.538936	0.430107	0.000025
 365	3.6218e+01	3.6170	-15.447652	0.000225	2.252282	0.381547	0.000023
 366	3.6318e+01	3.6287	-15.422804	0.000250	2.497985	0.423170	0.000025
 367	3.6417e+01	3.6352	-15.393068	0.000299	2.989392	0.506417	0.000030
 368	3.6517e+01	3.6481	-15.369442	0.000238	2.375134	0.402359	0.000024
 369	3.6616e+01	3.6602	-15.342965	0.000266	2.661788	0.450919	0.000027
 370	3.6715e+01	3.6649	-15.317302	0.000258	2.579887	0.437045	0.000026
 371	3.6815e+01	3.6791	-15.290010	0.000274	2.743689	0.464793	0.000027
 372	3.6914e+01	3.6893	-15.264347	0.000258	2.579887	0.437045	0.000026
 373	3.7014e+01	3.6939	-15.237463	0.000270	2.702738	0.457856	0.000027
 374	3.7114e+01	3.7095	-15.208134	0.000295	2.948442	0.499480	0.000029
 375	3.7213e+01	3.7164	-15.182472	0.000258	2.579887	0.437045	0.000026
 376	3.7313e+01	3.7278	-15.153550	0.000291	2.907491	0.492542	0.000029
 377	3.7412e+01	3.7374	-15.125036	0.000287	2.866541	0.485605	0.000029
 378	3.7511e+01	3.7463	-15.095708	0.000295	2.948442	0.499480	0.000029
 379	3.7611e+01	3.7572	-15.068416	0.000274	2.743689	0.464793	0.000027
 380	3.7711e+01	3.7644	-15.043160	0.000254	2.538936	0.430107	0.000025
 381	3.7810e+01	3.7783	-15.013424	0.000299	2.989392	0.506417	0.000030
 382	3.7910e+01	3.7853	-14.987354	0.000262	2.620837	0.443982	0.000026
 383	3.8009e+01	3.7968	-14.955174	0.000324	3.235096	0.548040	0.000032
 384	3.8108e+01	3.8073	-14.927068	0.000283	2.825590	0.478668	0.000028
 385	3.8208e+01	3.8161	-14.902627	0.000246	2.457035	0.416233	0.000025
 386	3.8307e+01	3.8280	-14.873706	0.000291	2.907491	0.492542	0.000029
 387	3.8407e+01	3.8351	-14.843563	0.000303	3.030343	0.513354	0.000030
 388	3.8507e+01	3.8461	-14.813012	0.000307	3.071293	0.520291	0.000031
 389	3.8606e+01	3.8551	-14.787757	0.000254	2.538936	0.430107	0.000025
 390	3.8706e+01	3.8667	-14.758835	0.000291	2.907491	0.492542	0.000029
 391	3.8805e+01	3.8766	-14.734395	0.000246	2.457035	0.416233	0.000025
 392	3.8904e+01	3.8876	-14.707510	0.000270	2.702738	0.457856	0.000027
 393	3.9004e+01	3.8946	-14.676145	0.000315	3.153195	0.534166	0.000032
 394	3.9103e+01	3.9082	-14.645594	0.000307	3.071293	0.520291	0.000031
 395	3.9203e+01	3.9127	-14.617487	0.000283	2.825590	0.478668	0.000028
 396	3.9303e+01	3.9263	-14.589381	0.000283	2.825590	0.478668	0.000028
 397	3.9402e+01	3.9358	-14.562496	0.000270	2.702738	0.457856	0.000027
 398	3.9502e+01	3.9457	-14.533168	0.000295	2.948442	0.499480	0.000029
 399	3.9601e+01	3.9545	-14.505468	0.000278	2.784639	0.471731	0.000028
 400	3.9700e+01	3.9668	-14.475732	0.000299	2.989392	0.506417	0.000030
 401	3.9800e+01	3.9754	-14.450477	0.000254	2.538936	0.430107	0.000025
 402	3.9900e+01	3.9870	-14.422370	0.000283	2.825590	0.478668	0.000028
 403	3.9999e+01	3.9942	-14.392227	0.000303	3.030343	0.513354	0.000030
 404	4.0099e+01	4.0033	-14.362491	0.000299	2.989392	0.506417	0.000030
 405	4.0198e+01	4.0141	-14.331940	0.000307	3.071293	0.520291	0.000031
 406	4.0297e+01	4.0256	-14.304648	0.000274	2.743689	0.464793	0.000027
 407	4.0397e+01	4.0358	-14.276542	0.000283	2.825590	0.478668	0.000028
 408	4.0496e+01	4.0462	-14.243954	0.000328	3.276046	0.554977	0.000033
 409	4.0596e+01	4.0540	-14.217070	0.000270	2.702738	0.457856	0.000027
 410	4.0696e+01	4.0656	-14.181224	0.000360	3.603651	0.610475	0.000036
 411	4.0795e+01	4.0749	-14.154339	0.000270	2.702738	0.457856	0.000027
 412	4.0895e+01	4.0851	-14.124196	0.000303	3.030343	0.513354	0.000030
 413	4.0994e+01	4.0942	-14.093645	0.000307	3.071293	0.520291	0.000031
 414	4.1093e+01	4.1054	-14.063502	0.000303	3.030343	0.513354	0.000030
 415	4.1193e+01	4.1165	-14.038654	0.000250	2.497985	0.423170	0.000025
 416	4.1292e+01	4.1238	-14.004030	0.000348	3.480799	0.589663	0.000035
 417	4.1392e+01	4.1348	-13.977960	0.000262	2.620837	0.443982	0.000026
 418	4.1492e+01	4.1480	-13.947002	0.000311	3.112244	0.527228	0.000031
 419	4.1591e+01	4.1557	-13.916858	0.000303	3.030343	0.513354	0.000030
 420	4.1691e+01	4.1647	-13.886308	0.000307	3.071293	0.520291	0.000031
 421	4.1790e+01	4.1751	-13.857794	0.000287	2.866541	0.485605	0.000029
 422	4.1889e+01	4.1850	-13.826021	0.000319	3.194145	0.541103	0.000032
 423	4.1989e+01	4.1929	-13.796692	0.000295	2.948442	0.499480	0.000029
 424	4.2089e+01	4.2027	-13.766142	0.000307	3.071293	0.520291	0.000031
 425	4.2188e+01	4.2146	-13.735183	0.000311	3.112244	0.527228	0.000031
 426	4.2288e+01	4.2224	-13.708706	0.000266	2.661788	0.450919	0.000027
 427	4.2387e+01	4.2349	-13.680192	0.000287	2.866541	0.485605	0.000029
 428	4.2486e+01	4.2461	-13.648827	0.000315	3.153195	0.534166	0.000032
 429	4.2586e+01	4.2548	-13.619498	0.000295	2.948442	0.499480	0.000029
 430	4.2685e+01	4.2670	-13.590984	0.000287	2.866541	0.485605	0.000029
 431	4.2785e+01	4.2760	-13.559619	0.000315	3.153195	0.534166	0.000032
 432	4.2885e+01	4.2863	-13.525809	0.000340	3.398898	0.575789	0.000034
 433	4.2984e+01	4.2926	-13.495259	0.000307	3.071293	0.520291	0.000031
 434	4.3084e+01	4.3031	-13.463893	0.000315	3.153195	0.534166	0.000032
 435	4.3183e+01	4.3140	-13.432528	0.000315	3.153195	0.534166	0.000032
 436	4.3282e+01	4.3242	-13.403199	0.000295	2.948442	0.499480	0.000029
 437	4.3382e+01	4.3319	-13.369390	0.000340	3.398898	0.575789	0.000034
 438	4.3481e+01	4.3433	-13.336802	0.000328	3.276046	0.554977	0.000033
 439	4.3581e+01	4.3556	-13.306252	0.000307	3.071293	0.520291	0.000031
 440	4.3681e+01	4.3637	-13.273257	0.000332	3.316997	0.561914	0.000033
 441	4.3780e+01	4.3746	-13.244743	0.000287	2.866541	0.485605	0.000029
 442	4.3880e+01	4.3855	-13.214192	0.000307	3.071293	0.520291	0.000031
 443	4.3979e+01	4.3949	-13.182420	0.000319	3.194145	0.541103	0.000032
 444	4.4078e+01	4.4060	-13.146574	0.000360	3.603651	0.610475	0.000036
 445	4.4178e+01	4.4160	-13.120096	0.000266	2.661788	0.450919	0.000027
 446	4.4278e+01	4.4216	-13.086694	0.000336	3.357948	0.568852	0.000034
 447	4.4377e+01	4.4318	-13.053699	0.000332	3.316997	0.561914	0.000033
 448	4.4477e+01	4.4427	-13.018668	0.000352	3.521750	0.596601	0.000035
 449	4.4576e+01	4.4521	-12.986895	0.000319	3.194145	0.541103	0.000032
 450	4.4675e+01	4.4631	-12.953900	0.000332	3.316997	0.561914	0.000033
 451	4.4775e+01	4.4732	-12.916832	0.000373	3.726503	0.631287	0.000037
 452	4.4874e+01	4.4819	-12.887911	0.000291	2.907491	0.492542	0.000029
 453	4.4974e+01	4.4923	-12.852065	0.000360	3.603651	0.610475	0.000036
 454	4.5074e+01	4.5049	-12.814589	0.000377	3.767453	0.638224	0.000038
 455	4.5173e+01	4.5136	-12.782002	0.000328	3.276046	0.554977	0.000033
 456	4.5273e+01	4.5238	-12.748192	0.000340	3.398898	0.575789	0.000034
 457	4.5372e+01	4.5327	-12.712754	0.000356	3.562700	0.603538	0.000036
 458	4.5471e+01	4.5425	-12.679352	0.000336	3.357948	0.568852	0.000034
 459	4.5571e+01	4.5534	-12.645135	0.000344	3.439849	0.582726	0.000034
 460	4.5670e+01	4.5623	-12.614177	0.000311	3.112244	0.527228	0.000031
 461	4.5770e+01	4.5724	-12.581589	0.000328	3.276046	0.554977	0.000033
 462	4.5870e+01	4.5837	-12.542892	0.000389	3.890305	0.659036	0.000039
 463	4.5969e+01	4.5913	-12.513563	0.000295	2.948442	0.499480	0.000029
 464	4.6069e+01	4.6024	-12.476495	0.000373	3.726503	0.631287	0.000037
 465	4.6168e+01	4.6130	-12.445537	0.000311	3.112244	0.527228	0.000031
 466	4.6267e+01	4.6211	-12.408876	0.000369	3.685552	0.624349	0.000037
 467	4.6367e+01	4.6344	-12.378325	0.000307	3.071293	0.520291	0.000031
 468	4.6467e+01	4.6441	-12.342479	0.000360	3.603651	0.610475	0.000036
 469	4.6566e+01	4.6523	-12.309077	0.000336	3.357948	0.568852	0.000034
 470	4.6666e+01	4.6631	-12.274453	0.000348	3.480799	0.589663	0.000035
 471	4.6765e+01	4.6725	-12.240644	0.000340	3.398898	0.575789	0.000034
 472	4.6864e+01	4.6819	-12.207649	0.000332	3.316997	0.561914	0.000033
 473	4.6964e+01	4.6901	-12.170173	0.000377	3.767453	0.638224	0.000038
 474	4.7063e+01	4.7030	-12.134327	0.000360	3.603651	0.610475	0.000036
 475	4.7163e+01	4.7092	-12.100925	0.000336	3.357948	0.568852	0.000034
 476	4.7263e+01	4.7218	-12.069967	0.000311	3.112244	0.527228	0.000031
 477	4.7362e+01	4.7319	-12.030455	0.000397	3.972206	0.672910	0.000040
 478	4.7462e+01	4.7404	-12.000312	0.000303	3.030343	0.513354	0.000030
 479	4.7561e+01	4.7527	-11.964465	0.000360	3.603651	0.610475	0.000036
 480	4.7660e+01	4.7616	-11.933507	0.000311	3.112244	0.527228	0.000031
 481	4.7760e+01	4.7713	-11.897254	0.000364	3.644602	0.617412	0.000036
 482	4.7859e+01	4.7810	-11.863037	0.000344	3.439849	0.582726	0.000034
 483	4.7959e+01	4.7921	-11.830042	0.000332	3.316997	0.561914	0.000033
 484	4.8059e+01	4.8023	-11.792567	0.000377	3.767453	0.638224	0.000038
 485	4.8158e+01	4.8087	-11.758757	0.000340	3.398898	0.575789	0.000034
 486	4.8258e+01	4.8222	-11.722504	0.000364	3.644602	0.617412	0.000036
 487	4.8357e+01	4.8333	-11.685843	0.000369	3.685552	0.624349	0.000037
 488	4.8456e+01	4.8395	-11.648775	0.000373	3.726503	0.631287	0.000037
 489	4.8556e+01	4.8508	-11.615780	0.000332	3.316997	0.561914	0.000033
 490	4.8656e+01	4.8617	-11.579934	0.000360	3.603651	0.610475	0.000036
 491	4.8755e+01	4.8721	-11.543681	0.000364	3.644602	0.617412	0.000036
 492	4.8855e+01	4.8814	-11.511093	0.000328	3.276046	0.554977	0.000033
 493	4.8954e+01	4.8902	-11.475654	0.000356	3.562700	0.603538	0.000036
 494	4.9053e+01	4.9006	-11.438179	0.000377	3.767453	0.638224	0.000038
 495	4.9153e+01	4.9111	-11.403962	0.000344	3.439849	0.582726	0.000034
 496	4.9252e+01	4.9197	-11.365672	0.000385	3.849354	0.652098	0.000038
 497	4.9352e+01	4.9306	-11.330233	0.000356	3.562700	0.603538	0.000036
 498	4.9452e+01	4.9378	-11.292758	0.000377	3.767453	0.638224	0.000038
 499	4.9551e+01	4.9505	-11.254875	0.000381	3.808404	0.645161	0.000038
 500	4.9651e+01	4.9610	-11.216992	0.000381	3.808404	0.645161	0.000038
 501	4.9750e+01	4.9715	-11.179109	0.000381	3.808404	0.645161	0.000038
 502	4.9849e+01	4.9810	-11.140411	0.000389	3.890305	0.659036	0.000039
 503	4.9949e+01	4.9920	-11.102529	0.000381	3.808404	0.645161	0.000038
 504	5.0048e+01	5.0002	-11.062202	0.000405	4.054107	0.686784	0.000041
 505	5.0148e+01	5.0100	-11.028392	0.000340	3.398898	0.575789	0.000034
 506	5.0248e+01	5.0207	-10.989287	0.000393	3.931256	0.665973	0.000039
 507	5.0347e+01	5.0328	-10.949775	0.000397	3.972206	0.672910	0.000040
 508	5.0447e+01	5.0381	-10.912300	0.000377	3.767453	0.638224	0.000038
 509	5.0546e+01	5.0509	-10.875231	0.000373	3.726503	0.631287	0.000037
 510	5.0645e+01	5.0615	-10.833682	0.000418	4.176959	0.707596	0.000042
 511	5.0745e+01	5.0723	-10.792948	0.000410	4.095058	0.693722	0.000041
 512	5.0844e+01	5.0796	-10.753436	0.000397	3.972206	0.672910	0.000040
 513	5.0944e+01	5.0877	-10.711072	0.000426	4.258860	0.721470	0.000043
 514	5.1044e+01	5.1003	-10.671153	0.000401	4.013157	0.679847	0.000040
 515	5.1143e+01	5.1099	-10.631233	0.000401	4.013157	0.679847	0.000040
 516	5.1242e+01	5.1194	-10.595387	0.000360	3.603651	0.610475	0.000036
 517	5.1342e+01	5.1289	-10.548950	0.000467	4.668366	0.790843	0.000047
 518	5.1441e+01	5.1421	-10.514733	0.000344	3.439849	0.582726	0.000034
 519	5.1541e+01	5.1521	-10.474406	0.000405	4.054107	0.686784	0.000041
 520	5.1641e+01	5.1553	-10.435301	0.000393	3.931256	0.665973	0.000039
 521	5.1740e+01	5.1693	-10.399048	0.000364	3.644602	0.617412	0.000036
 522	5.1840e+01	5.1793	-10.361165	0.000381	3.808404	0.645161	0.000038
 523	5.1939e+01	5.1873	-10.321246	0.000401	4.013157	0.679847	0.000040
 524	5.2038e+01	5.1984	-10.281733	0.000397	3.972206	0.672910	0.000040
 525	5.2138e+01	5.2087	-10.249553	0.000324	3.235096	0.548040	0.000032
 526	5.2237e+01	5.2203	-10.209634	0.000401	4.013157	0.679847	0.000040
 527	5.2337e+01	5.2276	-10.168085	0.000418	4.176959	0.707596	0.000042
 528	5.2437e+01	5.2396	-10.133053	0.000352	3.521750	0.596601	0.000035
 529	5.2536e+01	5.2485	-10.095985	0.000373	3.726503	0.631287	0.000037
 530	5.2636e+01	5.2583	-10.051177	0.000450	4.504564	0.763094	0.000045
 531	5.2735e+01	5.2695	-10.016961	0.000344	3.439849	0.582726	0.000034
 532	5.2834e+01	5.2784	-9.981522	0.000356	3.562700	0.603538	0.000036
 533	5.2934e+01	5.2901	-9.941602	0.000401	4.013157	0.679847	0.000040
 534	5.3033e+01	5.3011	-9.903312	0.000385	3.849354	0.652098	0.000038
 535	5.3133e+01	5.3108	-9.862578	0.000410	4.095058	0.693722	0.000041
 536	5.3233e+01	5.3199	-9.820214	0.000426	4.258860	0.721470	0.000043
 537	5.3332e+01	5.3286	-9.780702	0.000397	3.972206	0.672910	0.000040
 538	5.3431e+01	5.3390	-9.741597	0.000393	3.931256	0.665973	0.000039
 539	5.3531e+01	5.3489	-9.698826	0.000430	4.299811	0.728408	0.000043
 540	5.3630e+01	5.3609	-9.659314	0.000397	3.972206	0.672910	0.000040
 541	5.3730e+01	5.3689	-9.614099	0.000455	4.545514	0.770031	0.000045
 542	5.3830e+01	5.3793	-9.577031	0.000373	3.726503	0.631287	0.000037
 543	5.3929e+01	5.3907	-9.534260	0.000430	4.299811	0.728408	0.000043
 544	5.4029e+01	5.4009	-9.496784	0.000377	3.767453	0.638224	0.000038
 545	5.4128e+01	5.4076	-9.453199	0.000438	4.381712	0.742282	0.000044
 546	5.4227e+01	5.4180	-9.411242	0.000422	4.217910	0.714533	0.000042
 547	5.4327e+01	5.4304	-9.368471	0.000430	4.299811	0.728408	0.000043
 548	5.4426e+01	5.4383	-9.322034	0.000467	4.668366	0.790843	0.000047
 549	5.4526e+01	5.4473	-9.283337	0.000389	3.890305	0.659036	0.000039
 550	5.4626e+01	5.4597	-9.236900	0.000467	4.668366	0.790843	0.000047
 551	5.4725e+01	5.4671	-9.192907	0.000442	4.422663	0.749219	0.000044
 552	5.4825e+01	5.4785	-9.146062	0.000471	4.709317	0.797780	0.000047
 553	5.4924e+01	5.4903	-9.105735	0.000405	4.054107	0.686784	0.000041
 554	5.5023e+01	5.4977	-9.061742	0.000442	4.422663	0.749219	0.000044
 555	5.5123e+01	5.5064	-9.021008	0.000410	4.095058	0.693722	0.000041
 556	5.5222e+01	5.5163	-8.973756	0.000475	4.750267	0.804717	0.000047
 557	5.5322e+01	5.5286	-8.928541	0.000455	4.545514	0.770031	0.000045
 558	5.5422e+01	5.5376	-8.888622	0.000401	4.013157	0.679847	0.000040
 559	5.5521e+01	5.5489	-8.847073	0.000418	4.176959	0.707596	0.000042
 560	5.5620e+01	5.5590	-8.806746	0.000405	4.054107	0.686784	0.000041
 561	5.5720e+01	5.5679	-8.763975	0.000430	4.299811	0.728408	0.000043
 562	5.5819e+01	5.5773	-8.720389	0.000438	4.381712	0.742282	0.000044
 563	5.5919e+01	5.5886	-8.678433	0.000422	4.217910	0.714533	0.000042
 564	5.6019e+01	5.5981	-8.636884	0.000418	4.176959	0.707596	0.000042
 565	5.6118e+01	5.6089	-8.595335	0.000418	4.176959	0.707596	0.000042
 566	5.6218e+01	5.6170	-8.556230	0.000393	3.931256	0.665973	0.000039
 567	5.6317e+01	5.6263	-8.514274	0.000422	4.217910	0.714533	0.000042
 568	5.6416e+01	5.6355	-8.477613	0.000369	3.685552	0.624349	0.000037
 569	5.6516e+01	5.6499	-8.438101	0.000397	3.972206	0.672910	0.000040
 570	5.6615e+01	5.6570	-8.401033	0.000373	3.726503	0.631287	0.000037
 571	5.6715e+01	5.6680	-8.362743	0.000385	3.849354	0.652098	0.000038
 572	5.6815e+01	5.6787	-8.322416	0.000405	4.054107	0.686784	0.000041
 573	5.6914e+01	5.6867	-8.287384	0.000352	3.521750	0.596601	0.000035
 574	5.7014e+01	5.6973	-8.247465	0.000401	4.013157	0.679847	0.000040
 575	5.7113e+01	5.7063	-8.206323	0.000414	4.136009	0.700659	0.000041
 576	5.7212e+01	5.7171	-8.166403	0.000401	4.013157	0.679847	0.000040
 577	5.7312e+01	5.7278	-8.128113	0.000385	3.849354	0.652098	0.000038
 578	5.7411e+01	5.7369	-8.088601	0.000397	3.972206	0.672910	0.000040
 579	5.7511e+01	5.7471	-8.048274	0.000405	4.054107	0.686784	0.000041
 580	5.7611e+01	5.7580	-8.004281	0.000442	4.422663	0.749219	0.000044
 581	5.7710e+01	5.7656	-7.965176	0.000393	3.931256	0.665973	0.000039
 582	5.7809e+01	5.7768	-7.927701	0.000377	3.767453	0.638224	0.000038
 583	5.7909e+01	5.7871	-7.883708	0.000442	4.422663	0.749219	0.000044
 584	5.8008e+01	5.7972	-7.845825	0.000381	3.808404	0.645161	0.000038
 585	5.8108e+01	5.8077	-7.807535	0.000385	3.849354	0.652098	0.000038
 586	5.8208e+01	5.8163	-7.767615	0.000401	4.013157	0.679847	0.000040
 587	5.8307e+01	5.8256	-7.730954	0.000369	3.685552	0.624349	0.000037
 588	5.8407e+01	5.8379	-7.688591	0.000426	4.258860	0.721470	0.000043
 589	5.8506e+01	5.8485	-7.646227	0.000426	4.258860	0.721470	0.000043
 590	5.8605e+01	5.8559	-7.607122	0.000393	3.931256	0.665973	0.000039
 591	5.8705e+01	5.8662	-7.568017	0.000393	3.931256	0.665973	0.000039
 592	5.8804e+01	5.8788	-7.525654	0.000426	4.258860	0.721470	0.000043
 593	5.8904e+01	5.8872	-7.485734	0.000401	4.013157	0.679847	0.000040
 594	5.9004e+01	5.8962	-7.445407	0.000405	4.054107	0.686784	0.000041
 595	5.9103e+01	5.9039	-7.413227	0.000324	3.235096	0.548040	0.000032
 596	5.9203e+01	5.9156	-7.376566	0.000369	3.685552	0.624349	0.000037
 597	5.9302e+01	5.9240	-7.337054	0.000397	3.972206	0.672910	0.000040
 598	5.9401e+01	5.9351	-7.299579	0.000377	3.767453	0.638224	0.000038
 599	5.9501e+01	5.9460	-7.258030	0.000418	4.176959	0.707596	0.000042
 600	5.9600e+01	5.9544	-7.221369	0.000369	3.685552	0.624349	0.000037
 601	5.9700e+01	5.9664	-7.183486	0.000381	3.808404	0.645161	0.000038
 602	5.9800e+01	5.9763	-7.141122	0.000426	4.258860	0.721470	0.000043
 603	5.9899e+01	5.9885	-7.095500	0.000459	4.586465	0.776968	0.000046
 604	5.9998e+01	5.9962	-7.056395	0.000393	3.931256	0.665973	0.000039
 605	6.0098e+01	6.0041	-7.018105	0.000385	3.849354	0.652098	0.000038
 606	6.0197e+01	6.0171	-6.975741	0.000426	4.258860	0.721470	0.000043
 607	6.0297e+01	6.0271	-6.933378	0.000426	4.258860	0.721470	0.000043
 608	6.0397e+01	6.0363	-6.894273	0.000393	3.931256	0.665973	0.000039
 609	6.0496e+01	6.0445	-6.848650	0.000459	4.586465	0.776968	0.000046
 610	6.0596e+01	6.0540	-6.807509	0.000414	4.136009	0.700659	0.000041
 611	6.0695e+01	6.0619	-6.765145	0.000426	4.258860	0.721470	0.000043
 612	6.0794e+01	6.0748	-6.721559	0.000438	4.381712	0.742282	0.000044
 613	6.0894e+01	6.0839	-6.673493	0.000483	4.832168	0.818591	0.000048
 614	6.0993e+01	6.0943	-6.635203	0.000385	3.849354	0.652098	0.000038
 615	6.1093e+01	6.1074	-6.590802	0.000446	4.463613	0.756157	0.000045
 616	6.1193e+01	6.1138	-6.552105	0.000389	3.890305	0.659036	0.000039
 617	6.1292e+01	6.1252	-6.504853	0.000475	4.750267	0.804717	0.000047
 618	6.1392e+01	6.1358	-6.464119	0.000410	4.095058	0.693722	0.000041
 619	6.1491e+01	6.1439	-6.420126	0.000442	4.422663	0.749219	0.000044
 620	6.1590e+01	6.1544	-6.373282	0.000471	4.709317	0.797780	0.000047
 621	6.1690e+01	6.1654	-6.335399	0.000381	3.808404	0.645161	0.000038
 622	6.1789e+01	6.1750	-6.290184	0.000455	4.545514	0.770031	0.000045
 623	6.1889e+01	6.1828	-6.250264	0.000401	4.013157	0.679847	0.000040
 624	6.1989e+01	6.1958	-6.207086	0.000434	4.340761	0.735345	0.000043
 625	6.2088e+01	6.2053	-6.168388	0.000389	3.890305	0.659036	0.000039
 626	6.2188e+01	6.2167	-6.121137	0.000475	4.750267	0.804717	0.000047
 627	6.2287e+01	6.2263	-6.083661	0.000377	3.767453	0.638224	0.000038
 628	6.2386e+01	6.2337	-6.040890	0.000430	4.299811	0.728408	0.000043
 629	6.2486e+01	6.2428	-6.000156	0.000410	4.095058	0.693722	0.000041
 630	6.2586e+01	6.2545	-5.959829	0.000405	4.054107	0.686784	0.000041
 631	6.2685e+01	6.2649	-5.916651	0.000434	4.340761	0.735345	0.000043
 632	6.2785e+01	6.2750	-5.873472	0.000434	4.340761	0.735345	0.000043
 633	6.2884e+01	6.2874	-5.829887	0.000438	4.381712	0.742282	0.000044
 634	6.2983e+01	6.2936	-5.787523	0.000426	4.258860	0.721470	0.000043
 635	6.3083e+01	6.3046	-5.746381	0.000414	4.136009	0.700659	0.000041
 636	6.3182e+01	6.3131	-5.705240	0.000414	4.136009	0.700659	0.000041
 637	6.3282e+01	6.3235	-5.662061	0.000434	4.340761	0.735345	0.000043
 638	6.3382e+01	6.3322	-5.613995	0.000483	4.832168	0.818591	0.000048
 639	6.3481e+01	6.3438	-5.569595	0.000446	4.463613	0.756157	0.000045
 640	6.3581e+01	6.3530	-5.528046	0.000418	4.176959	0.707596	0.000042
 641	6.3680e+01	6.3624	-5.487312	0.000410	4.095058	0.693722	0.000041
 642	6.3779e+01	6.3723	-5.449429	0.000381	3.808404	0.645161	0.000038
 643	6.3879e+01	6.3846	-5.403806	0.000459	4.586465	0.776968	0.000046
 644	6.3978e+01	6.3908	-5.359813	0.000442	4.422663	0.749219	0.000044
 645	6.4078e+01	6.4028	-5.317450	0.000426	4.258860	0.721470	0.000043
 646	6.4177e+01	6.4137	-5.273049	0.000446	4.463613	0.756157	0.000045
 647	6.4277e+01	6.4234	-5.229056	0.000442	4.422663	0.749219	0.000044
 648	6.4376e+01	6.4327	-5.187915	0.000414	4.136009	0.700659	0.000041
 649	6.4476e+01	6.4428	-5.144736	0.000434	4.340761	0.735345	0.000043
 650	6.4576e+01	6.4503	-5.093819	0.000512	5.118822	0.867152	0.000051
 651	6.4675e+01	6.4660	-5.048604	0.000455	4.545514	0.770031	0.000045
 652	6.4775e+01	6.4727	-5.004611	0.000442	4.422663	0.749219	0.000044
 653	6.4874e+01	6.4837	-4.961432	0.000434	4.340761	0.735345	0.000043
 654	6.4974e+01	6.4944	-4.914181	0.000475	4.750267	0.804717	0.000047
 655	6.5073e+01	6.5041	-4.870188	0.000442	4.422663	0.749219	0.000044
 656	6.5172e+01	6.5102	-4.820899	0.000496	4.955020	0.839403	0.000050
 657	6.5272e+01	6.5237	-4.772833	0.000483	4.832168	0.818591	0.000048
 658	6.5371e+01	6.5340	-4.726396	0.000467	4.668366	0.790843	0.000047
 659	6.5471e+01	6.5417	-4.677107	0.000496	4.955020	0.839403	0.000050
 660	6.5570e+01	6.5533	-4.636780	0.000405	4.054107	0.686784	0.000041
 661	6.5670e+01	6.5639	-4.591158	0.000459	4.586465	0.776968	0.000046
 662	6.5769e+01	6.5740	-4.543499	0.000479	4.791218	0.811654	0.000048
 663	6.5869e+01	6.5823	-4.498284	0.000455	4.545514	0.770031	0.000045
 664	6.5969e+01	6.5911	-4.450625	0.000479	4.791218	0.811654	0.000048
 665	6.6068e+01	6.6006	-4.402151	0.000487	4.873119	0.825529	0.000049
 666	6.6168e+01	6.6096	-4.357343	0.000450	4.504564	0.763094	0.000045
 667	6.6267e+01	6.6213	-4.315794	0.000418	4.176959	0.707596	0.000042
 668	6.6367e+01	6.6305	-4.272209	0.000438	4.381712	0.742282	0.000044
 669	6.6466e+01	6.6409	-4.227401	0.000450	4.504564	0.763094	0.000045
 670	6.6566e+01	6.6518	-4.181779	0.000459	4.586465	0.776968	0.000046
 671	6.6665e+01	6.6646	-4.132083	0.000500	4.995971	0.846340	0.000050
 672	6.6764e+01	6.6729	-4.086053	0.000463	4.627416	0.783905	0.000046
 673	6.6864e+01	6.6836	-4.037987	0.000483	4.832168	0.818591	0.000048
 674	6.6963e+01	6.6906	-3.986254	0.000520	5.200724	0.881026	0.000052
 675	6.7063e+01	6.6991	-3.937373	0.000491	4.914070	0.832466	0.000049
 676	6.7162e+01	6.7121	-3.892158	0.000455	4.545514	0.770031	0.000045
 677	6.7262e+01	6.7216	-3.843277	0.000491	4.914070	0.832466	0.000049
 678	6.7362e+01	6.7314	-3.791952	0.000516	5.159773	0.874089	0.000052
 679	6.7461e+01	6.7425	-3.742663	0.000496	4.955020	0.839403	0.000050
 680	6.7561e+01	6.7498	-3.693782	0.000491	4.914070	0.832466	0.000049
 681	6.7660e+01	6.7608	-3.652641	0.000414	4.136009	0.700659	0.000041
 682	6.7760e+01	6.7699	-3.606611	0.000463	4.627416	0.783905	0.000046
 683	6.7859e+01	6.7796	-3.563025	0.000438	4.381712	0.742282	0.000044
 684	6.7959e+01	6.7898	-3.514144	0.000491	4.914070	0.832466	0.000049
 685	6.8058e+01	6.8002	-3.472595	0.000418	4.176959	0.707596	0.000042
 686	6.8157e+01	6.8094	-3.430232	0.000426	4.258860	0.721470	0.000043
 687	6.8257e+01	6.8208	-3.387868	0.000426	4.258860	0.721470	0.000043
 688	6.8356e+01	6.8322	-3.344282	0.000438	4.381712	0.742282	0.000044
 689	6.8456e+01	6.8410	-3.304363	0.000401	4.013157	0.679847	0.000040
 690	6.8555e+01	6.8496	-3.256704	0.000479	4.791218	0.811654	0.000048
 691	6.8655e+01	6.8609	-3.206193	0.000508	5.077872	0.860215	0.000051
 692	6.8754e+01	6.8703	-3.162200	0.000442	4.422663	0.749219	0.000044
 693	6.8854e+01	6.8792	-3.119837	0.000426	4.258860	0.721470	0.000043
 694	6.8954e+01	6.8923	-3.071363	0.000487	4.873119	0.825529	0.000049
 695	6.9053e+01	6.9036	-3.029407	0.000422	4.217910	0.714533	0.000042
 696	6.9153e+01	6.9125	-2.981747	0.000479	4.791218	0.811654	0.000048
 697	6.9252e+01	6.9227	-2.936125	0.000459	4.586465	0.776968	0.000046
 698	6.9352e+01	6.9326	-2.893354	0.000430	4.299811	0.728408	0.000043
 699	6.9451e+01	6.9390	-2.846510	0.000471	4.709317	0.797780	0.000047
 700	6.9550e+01	6.9506	-2.800887	0.000459	4.586465	0.776968	0.000046
 701	6.9650e+01	6.9585	-2.758116	0.000430	4.299811	0.728408	0.000043
 702	6.9749e+01	6.9714	-2.712087	0.000463	4.627416	0.783905	0.000046
 703	6.9849e+01	6.9798	-2.664428	0.000479	4.791218	0.811654	0.000048
 704	6.9948e+01	6.9891	-2.622064	0.000426	4.258860	0.721470	0.000043
 705	7.0048e+01	7.0011	-2.581330	0.000410	4.095058	0.693722	0.000041
 706	7.0147e+01	7.0119	-2.531227	0.000504	5.036921	0.853278	0.000050
 707	7.0247e+01	7.0190	-2.488456	0.000430	4.299811	0.728408	0.000043
 708	7.0347e+01	7.0306	-2.442426	0.000463	4.627416	0.783905	0.000046
 709	7.0446e+01	7.0391	-2.398433	0.000442	4.422663	0.749219	0.000044
 710	7.0546e+01	7.0496	-2.352811	0.000459	4.586465	0.776968	0.000046
 711	7.0645e+01	7.0605	-2.306374	0.000467	4.668366	0.790843	0.000047
 712	7.0745e+01	7.0685	-2.259529	0.000471	4.709317	0.797780	0.000047
 713	7.0844e+01	7.0807	-2.210648	0.000491	4.914070	0.832466	0.000049
 714	7.0944e+01	7.0919	-2.173580	0.000373	3.726503	0.631287	0.000037
 715	7.1043e+01	7.0997	-2.124699	0.000491	4.914070	0.832466	0.000049
 716	7.1142e+01	7.1079	-2.078262	0.000467	4.668366	0.790843	0.000047
 717	7.1242e+01	7.1200	-2.028159	0.000504	5.036921	0.853278	0.000050
 718	7.1341e+01	7.1291	-1.986610	0.000418	4.176959	0.707596	0.000042
 719	7.1441e+01	7.1395	-1.940987	0.000459	4.586465	0.776968	0.000046
 720	7.1540e+01	7.1493	-1.896994	0.000442	4.422663	0.749219	0.000044
 721	7.1640e+01	7.1607	-1.851779	0.000455	4.545514	0.770031	0.000045
 722	7.1740e+01	7.1680	-1.803713	0.000483	4.832168	0.818591	0.000048
 723	7.1839e+01	7.1792	-1.768681	0.000352	3.521750	0.596601	0.000035
 724	7.1939e+01	7.1902	-1.718578	0.000504	5.036921	0.853278	0.000050
 725	7.2038e+01	7.1992	-1.677437	0.000414	4.136009	0.700659	0.000041
 726	7.2138e+01	7.2076	-1.633036	0.000446	4.463613	0.756157	0.000045
 727	7.2237e+01	7.2202	-1.590265	0.000430	4.299811	0.728408	0.000043
 728	7.2337e+01	7.2281	-1.549938	0.000405	4.054107	0.686784	0.000041
 729	7.2436e+01	7.2402	-1.502279	0.000479	4.791218	0.811654	0.000048
 730	7.2535e+01	7.2474	-1.457064	0.000455	4.545514	0.770031	0.000045
 731	7.2635e+01	7.2591	-1.413071	0.000442	4.422663	0.749219	0.000044
 732	7.2734e+01	7.2707	-1.370300	0.000430	4.299811	0.728408	0.000043
 733	7.2834e+01	7.2829	-1.325900	0.000446	4.463613	0.756157	0.000045
 734	7.2933e+01	7.2906	-1.278241	0.000479	4.791218	0.811654	0.000048
 735	7.3033e+01	7.2976	-1.237099	0.000414	4.136009	0.700659	0.000041
 736	7.3132e+01	7.3069	-1.194736	0.000426	4.258860	0.721470	0.000043
 737	7.3232e+01	7.3178	-1.147077	0.000479	4.791218	0.811654	0.000048
 738	7.3332e+01	7.3306	-1.104713	0.000426	4.258860	0.721470	0.000043
 739	7.3431e+01	7.3397	-1.067645	0.000373	3.726503	0.631287	0.000037
 740	7.3531e+01	7.3482	-1.026096	0.000418	4.176959	0.707596	0.000042
 741	7.3630e+01	7.3577	-0.985362	0.000410	4.095058	0.693722	0.000041
 742	7.3730e+01	7.3668	-0.943813	0.000418	4.176959	0.707596	0.000042
 743	7.3829e+01	7.3780	-0.903078	0.000410	4.095058	0.693722	0.000041
 744	7.3928e+01	7.3900	-0.860307	0.000430	4.299811	0.728408	0.000043
 745	7.4028e+01	7.3994	-0.814278	0.000463	4.627416	0.783905	0.000046
 746	7.4127e+01	7.4113	-0.772321	0.000422	4.217910	0.714533	0.000042
 747	7.4227e+01	7.4163	-0.725884	0.000467	4.668366	0.790843	0.000047
 748	7.4326e+01	7.4274	-0.681077	0.000450	4.504564	0.763094	0.000045
 749	7.4426e+01	7.4388	-0.637084	0.000442	4.422663	0.749219	0.000044
 750	7.4525e+01	7.4493	-0.596349	0.000410	4.095058	0.693722	0.000041
 751	7.4625e+01	7.4577	-0.551134	0.000455	4.545514	0.770031	0.000045
 752	7.4725e+01	7.4694	-0.507549	0.000438	4.381712	0.742282	0.000044
 753	7.4824e+01	7.4769	-0.463963	0.000438	4.381712	0.742282	0.000044
 754	7.4924e+01	7.4866	-0.421600	0.000426	4.258860	0.721470	0.000043
 755	7.5023e+01	7.4996	-0.380865	0.000410	4.095058	0.693722	0.000041
 756	7.5123e+01	7.5085	-0.337687	0.000434	4.340761	0.735345	0.000043
 757	7.5222e+01	7.5173	-0.298989	0.000389	3.890305	0.659036	0.000039
 758	7.5322e+01	7.5298	-0.253367	0.000459	4.586465	0.776968	0.000046
 759	7.5421e+01	7.5391	-0.215484	0.000381	3.808404	0.645161	0.000038
 760	7.5520e+01	7.5471	-0.173935	0.000418	4.176959	0.707596	0.000042
 761	7.5620e+01	7.5576	-0.129128	0.000450	4.504564	0.763094	0.000045
 762	7.5719e+01	7.5655	-0.085949	0.000434	4.340761	0.735345	0.000043
 763	7.5819e+01	7.5768	-0.044400	0.000418	4.176959	0.707596	0.000042
 764	7.5918e+01	7.5880	-0.002444	0.000422	4.217910	0.714533	0.000042
 765	7.6018e+01	7.5982	0.039105	0.000418	4.176959	0.707596	0.000042
 766	7.6118e+01	7.6056	0.077802	0.000389	3.890305	0.659036	0.000039
 767	7.6217e+01	7.6172	0.118537	0.000410	4.095058	0.693722	0.000041
 768	7.6317e+01	7.6266	0.162937	0.000446	4.463613	0.756157	0.000045
 769	7.6416e+01	7.6374	0.198783	0.000360	3.603651	0.610475	0.000036
 770	7.6516e+01	7.6459	0.243591	0.000450	4.504564	0.763094	0.000045
 771	7.6615e+01	7.6550	0.282288	0.000389	3.890305	0.659036	0.000039
 772	7.6715e+01	7.6685	0.325059	0.000430	4.299811	0.728408	0.000043
 773	7.6814e+01	7.6744	0.362942	0.000381	3.808404	0.645161	0.000038
 774	7.6913e+01	7.6844	0.405306	0.000426	4.258860	0.721470	0.000043
 775	7.7013e+01	7.6970	0.447669	0.000426	4.258860	0.721470	0.000043
 776	7.7112e+01	7.7071	0.491662	0.000442	4.422663	0.749219	0.000044
 777	7.7212e+01	7.7193	0.531989	0.000405	4.054107	0.686784	0.000041
 778	7.7311e+01	7.7264	0.572724	0.000410	4.095058	0.693722	0.000041
 779	7.7411e+01	7.7370	0.617124	0.000446	4.463613	0.756157	0.000045
 780	7.7510e+01	7.7470	0.661117	0.000442	4.422663	0.749219	0.000044
 781	7.7610e+01	7.7568	0.705110	0.000442	4.422663	0.749219	0.000044
 782	7.7710e+01	7.7673	0.749510	0.000446	4.463613	0.756157	0.000045
 783	7.7809e+01	7.7794	0.791874	0.000426	4.258860	0.721470	0.000043
 784	7.7909e+01	7.7862	0.840348	0.000487	4.873119	0.825529	0.000049
 785	7.8008e+01	7.7957	0.881489	0.000414	4.136009	0.700659	0.000041
 786	7.8108e+01	7.8053	0.923446	0.000422	4.217910	0.714533	0.000042
 787	7.8207e+01	7.8147	0.968253	0.000450	4.504564	0.763094	0.000045
 788	7.8306e+01	7.8266	1.015912	0.000479	4.791218	0.811654	0.000048
 789	7.8406e+01	7.8354	1.060720	0.000450	4.504564	0.763094	0.000045
 790	7.8505e+01	7.8458	1.104306	0.000438	4.381712	0.742282	0.000044
 791	7.8605e+01	7.8555	1.149113	0.000450	4.504564	0.763094	0.000045
 792	7.8704e+01	7.8671	1.189440	0.000405	4.054107	0.686784	0.000041
 793	7.8804e+01	7.8772	1.234248	0.000450	4.504564	0.763094	0.000045
 794	7.8903e+01	7.8880	1.279056	0.000450	4.504564	0.763094	0.000045
 795	7.9003e+01	7.8932	1.324678	0.000459	4.586465	0.776968	0.000046
 796	7.9103e+01	7.9053	1.367042	0.000426	4.258860	0.721470	0.000043
 797	7.9202e+01	7.9143	1.410627	0.000438	4.381712	0.742282	0.000044
 798	7.9302e+01	7.9243	1.457064	0.000467	4.668366	0.790843	0.000047
 799	7.9401e+01	7.9340	1.500243	0.000434	4.340761	0.735345	0.000043
 800	7.9501e+01	7.9448	1.543421	0.000434	4.340761	0.735345	0.000043
 801	7.9600e+01	7.9553	1.585377	0.000422	4.217910	0.714533	0.000042
 802	7.9700e+01	7.9663	1.628963	0.000438	4.381712	0.742282	0.000044
 803	7.9799e+01	7.9762	1.668475	0.000397	3.972206	0.672910	0.000040
 804	7.9898e+01	7.9853	1.713283	0.000450	4.504564	0.763094	0.000045
 805	7.9998e+01	7.9927	1.758498	0.000455	4.545514	0.770031	0.000045
 806	8.0097e+01	8.0046	1.802083	0.000438	4.381712	0.742282	0.000044
 807	8.0197e+01	8.0167	1.847298	0.000455	4.545514	0.770031	0.000045
 808	8.0296e+01	8.0250	1.893736	0.000467	4.668366	0.790843	0.000047
 809	8.0396e+01	8.0331	1.936914	0.000434	4.340761	0.735345	0.000043
 810	8.0496e+01	8.0448	1.978463	0.000418	4.176959	0.707596	0.000042
 811	8.0595e+01	8.0543	2.028973	0.000508	5.077872	0.860215	0.000051
 812	8.0695e+01	8.0635	2.075003	0.000463	4.627416	0.783905	0.000046
 813	8.0794e+01	8.0739	2.124699	0.000500	4.995971	0.846340	0.000050
 814	8.0894e+01	8.0856	2.172358	0.000479	4.791218	0.811654	0.000048
 815	8.0993e+01	8.0936	2.223276	0.000512	5.118822	0.867152	0.000051
 816	8.1093e+01	8.1034	2.274193	0.000512	5.118822	0.867152	0.000051
 817	8.1192e+01	8.1144	2.320631	0.000467	4.668366	0.790843	0.000047
 818	8.1291e+01	8.1239	2.371141	0.000508	5.077872	0.860215	0.000051
 819	8.1391e+01	8.1341	2.418800	0.000479	4.791218	0.811654	0.000048
 820	8.1490e+01	8.1435	2.461164	0.000426	4.258860	0.721470	0.000043
 821	8.1590e+01	8.1538	2.510452	0.000496	4.955020	0.839403	0.000050
 822	8.1689e+01	8.1641	2.559741	0.000496	4.955020	0.839403	0.000050
 823	8.1789e+01	8.1721	2.601697	0.000422	4.217910	0.714533	0.000042
 824	8.1888e+01	8.1855	2.644061	0.000426	4.258860	0.721470	0.000043
 825	8.1988e+01	8.1927	2.690498	0.000467	4.668366	0.790843	0.000047
 826	8.2088e+01	8.2047	2.730417	0.000401	4.013157	0.679847	0.000040
 827	8.2187e+01	8.2148	2.775632	0.000455	4.545514	0.770031	0.000045
 828	8.2287e+01	8.2238	2.819625	0.000442	4.422663	0.749219	0.000044
 829	8.2386e+01	8.2312	2.866877	0.000475	4.750267	0.804717	0.000047
 830	8.2486e+01	8.2449	2.914129	0.000475	4.750267	0.804717	0.000047
 831	8.2585e+01	8.2546	2.963824	0.000500	4.995971	0.846340	0.000050
 832	8.2684e+01	8.2644	3.011483	0.000479	4.791218	0.811654	0.000048
 833	8.2784e+01	8.2740	3.056699	0.000455	4.545514	0.770031	0.000045
 834	8.2883e+01	8.2821	3.103543	0.000471	4.709317	0.797780	0.000047
 835	8.2983e+01	8.2978	3.156090	0.000528	5.282625	0.894901	0.000053
 836	8.3082e+01	8.3035	3.205379	0.000496	4.955020	0.839403	0.000050
 837	8.3182e+01	8.3135	3.255482	0.000504	5.036921	0.853278	0.000050
 838	8.3281e+01	8.3226	3.303955	0.000487	4.873119	0.825529	0.000049
 839	8.3381e+01	8.3335	3.354873	0.000512	5.118822	0.867152	0.000051
 840	8.3481e+01	8.3432	3.409864	0.000553	5.528328	0.936524	0.000055
 841	8.3580e+01	8.3524	3.458746	0.000491	4.914070	0.832466	0.000049
 842	8.3680e+01	8.3649	3.510478	0.000520	5.200724	0.881026	0.000052
 843	8.3779e+01	8.3740	3.560581	0.000504	5.036921	0.853278	0.000050
 844	8.3879e+01	8.3823	3.607426	0.000471	4.709317	0.797780	0.000047
 845	8.3978e+01	8.3939	3.659158	0.000520	5.200724	0.881026	0.000052
 846	8.4078e+01	8.4023	3.710891	0.000520	5.200724	0.881026	0.000052
 847	8.4177e+01	8.4131	3.762623	0.000520	5.200724	0.881026	0.000052
 848	8.4276e+01	8.4244	3.812726	0.000504	5.036921	0.853278	0.000050
 849	8.4376e+01	8.4315	3.863237	0.000508	5.077872	0.860215	0.000051
 850	8.4475e+01	8.4415	3.911711	0.000487	4.873119	0.825529	0.000049
 851	8.4575e+01	8.4525	3.966294	0.000549	5.487378	0.929587	0.000055
 852	8.4674e+01	8.4616	4.010287	0.000442	4.422663	0.749219	0.000044
 853	8.4774e+01	8.4704	4.058354	0.000483	4.832168	0.818591	0.000048
 854	8.4874e+01	8.4837	4.106828	0.000487	4.873119	0.825529	0.000049
 855	8.4973e+01	8.4930	4.152450	0.000459	4.586465	0.776968	0.000046
 856	8.5073e+01	8.5032	4.200109	0.000479	4.791218	0.811654	0.000048
 857	8.5172e+01	8.5144	4.251842	0.000520	5.200724	0.881026	0.000052
 858	8.5272e+01	8.5205	4.306018	0.000545	5.446427	0.922650	0.000054
 859	8.5371e+01	8.5314	4.360602	0.000549	5.487378	0.929587	0.000055
 860	8.5471e+01	8.5469	4.419259	0.000590	5.896883	0.998959	0.000059
 861	8.5570e+01	8.5531	4.477509	0.000586	5.855933	0.992022	0.000059
 862	8.5669e+01	8.5609	4.531686	0.000545	5.446427	0.922650	0.000054
 863	8.5769e+01	8.5719	4.591973	0.000606	6.060686	1.026708	0.000061
 864	8.5868e+01	8.5805	4.649815	0.000581	5.814982	0.985085	0.000058
 865	8.5968e+01	8.5924	4.710509	0.000610	6.101636	1.033645	0.000061
 866	8.6067e+01	8.6025	4.765908	0.000557	5.569279	0.943461	0.000056
 867	8.6167e+01	8.6134	4.820899	0.000553	5.528328	0.936524	0.000055
 868	8.6266e+01	8.6194	4.879149	0.000586	5.855933	0.992022	0.000059
 869	8.6366e+01	8.6311	4.938214	0.000594	5.937834	1.005896	0.000059
 870	8.6466e+01	8.6408	4.996056	0.000581	5.814982	0.985085	0.000058
 871	8.6565e+01	8.6520	5.051862	0.000561	5.610229	0.950399	0.000056
 872	8.6665e+01	8.6610	5.098707	0.000471	4.709317	0.797780	0.000047
 873	8.6764e+01	8.6713	5.150439	0.000520	5.200724	0.881026	0.000052
 874	8.6864e+01	8.6817	5.195654	0.000455	4.545514	0.770031	0.000045
 875	8.6963e+01	8.6871	5.251053	0.000557	5.569279	0.943461	0.000056
 876	8.7063e+01	8.7028	5.300749	0.000500	4.995971	0.846340	0.000050
 877	8.7162e+01	8.7128	5.354110	0.000536	5.364526	0.908775	0.000054
 878	8.7261e+01	8.7195	5.409102	0.000553	5.528328	0.936524	0.000055
 879	8.7361e+01	8.7318	5.461242	0.000524	5.241674	0.887964	0.000052
 880	8.7460e+01	8.7415	5.514196	0.000532	5.323575	0.901838	0.000053
 881	8.7560e+01	8.7512	5.565114	0.000512	5.118822	0.867152	0.000051
 882	8.7659e+01	8.7624	5.616032	0.000512	5.118822	0.867152	0.000051
 883	8.7759e+01	8.7695	5.667357	0.000516	5.159773	0.874089	0.000052
 884	8.7859e+01	8.7815	5.717460	0.000504	5.036921	0.853278	0.000050
 885	8.7958e+01	8.7915	5.772859	0.000557	5.569279	0.943461	0.000056
 886	8.8058e+01	8.8021	5.824591	0.000520	5.200724	0.881026	0.000052
 887	8.8157e+01	8.8114	5.877138	0.000528	5.282625	0.894901	0.000053
 888	8.8257e+01	8.8200	5.926834	0.000500	4.995971	0.846340	0.000050
 889	8.8356e+01	8.8302	5.984677	0.000581	5.814982	0.985085	0.000058
 890	8.8456e+01	8.8403	6.037631	0.000532	5.323575	0.901838	0.000053
 891	8.8555e+01	8.8495	6.093030	0.000557	5.569279	0.943461	0.000056
 892	8.8654e+01	8.8624	6.153724	0.000610	6.101636	1.033645	0.000061
 893	8.8754e+01	8.8708	6.211974	0.000586	5.855933	0.992022	0.000059
 894	8.8853e+01	8.8819	6.264928	0.000532	5.323575	0.901838	0.000053
 895	8.8953e+01	8.8912	6.324808	0.000602	6.019735	1.019771	0.000060
 896	8.9052e+01	8.8989	6.380614	0.000561	5.610229	0.950399	0.000056
 897	8.9152e+01	8.9090	6.446196	0.000659	6.593043	1.116892	0.000066
 898	8.9251e+01	8.9191	6.503631	0.000577	5.774032	0.978147	0.000058
 899	8.9351e+01	8.9304	6.556993	0.000536	5.364526	0.908775	0.000054
 900	8.9451e+01	8.9413	6.611984	0.000553	5.528328	0.936524	0.000055
 901	8.9550e+01	8.9478	6.666568	0.000549	5.487378	0.929587	0.000055
 902	8.9650e+01	8.9603	6.726040	0.000598	5.978785	1.012834	0.000060
 903	8.9749e+01	8.9685	6.778995	0.000532	5.323575	0.901838	0.000053
 904	8.9849e+01	8.9774	6.831949	0.000532	5.323575	0.901838	0.000053
 905	8.9948e+01	8.9893	6.893458	0.000618	6.183538	1.047520	0.000062
 906	9.0047e+01	8.9978	6.946820	0.000536	5.364526	0.908775	0.000054
 907	9.0147e+01	9.0103	7.003440	0.000569	5.692131	0.964273	0.000057
 908	9.0246e+01	9.0197	7.066579	0.000635	6.347340	1.075268	0.000063
 909	9.0346e+01	9.0314	7.124421	0.000581	5.814982	0.985085	0.000058
 910	9.0445e+01	9.0402	7.182264	0.000581	5.814982	0.985085	0.000058
 911	9.0545e+01	9.0495	7.236033	0.000541	5.405477	0.915713	0.000054
 912	9.0644e+01	9.0572	7.292654	0.000569	5.692131	0.964273	0.000057
 913	9.0744e+01	9.0681	7.351311	0.000590	5.896883	0.998959	0.000059
 914	9.0844e+01	9.0791	7.403858	0.000528	5.282625	0.894901	0.000053
 915	9.0943e+01	9.0882	7.459664	0.000561	5.610229	0.950399	0.000056
 916	9.1043e+01	9.0974	7.524024	0.000647	6.470192	1.096080	0.000065
 917	9.1142e+01	9.1068	7.578201	0.000545	5.446427	0.922650	0.000054
 918	9.1242e+01	9.1181	7.638488	0.000606	6.060686	1.026708	0.000061
 919	9.1341e+01	9.1262	7.700811	0.000627	6.265439	1.061394	0.000063
 920	9.1441e+01	9.1396	7.754580	0.000541	5.405477	0.915713	0.000054
 921	9.1540e+01	9.1471	7.812015	0.000577	5.774032	0.978147	0.000058
 922	9.1639e+01	9.1587	7.865785	0.000541	5.405477	0.915713	0.000054
 923	9.1739e+01	9.1692	7.926071	0.000606	6.060686	1.026708	0.000061
 924	9.1838e+01	9.1761	7.990431	0.000647	6.470192	1.096080	0.000065
 925	9.1938e+01	9.1876	8.053162	0.000631	6.306389	1.068331	0.000063
 926	9.2037e+01	9.1979	8.116300	0.000635	6.347340	1.075268	0.000063
 927	9.2137e+01	9.2060	8.173736	0.000577	5.774032	0.978147	0.000058
 928	9.2237e+01	9.2166	8.240947	0.000676	6.756846	1.144641	0.000068
 929	9.2336e+01	9.2277	8.300419	0.000598	5.978785	1.012834	0.000060
 930	9.2436e+01	9.2383	8.357040	0.000569	5.692131	0.964273	0.000057
 931	9.2535e+01	9.2522	8.412438	0.000557	5.569279	0.943461	0.000056
 932	9.2635e+01	9.2594	8.473947	0.000618	6.183538	1.047520	0.000062
 933	9.2734e+01	9.2700	8.533419	0.000598	5.978785	1.012834	0.000060
 934	9.2834e+01	9.2798	8.594520	0.000614	6.142587	1.040582	0.000061
 935	9.2933e+01	9.2888	8.657251	0.000631	6.306389	1.068331	0.000063
 936	9.3032e+01	9.3006	8.709391	0.000524	5.241674	0.887964	0.000052
 937	9.3132e+01	9.3077	8.766826	0.000577	5.774032	0.978147	0.000058
 938	9.3231e+01	9.3156	8.822225	0.000557	5.569279	0.943461	0.000056
 939	9.3331e+01	9.3290	8.883734	0.000618	6.183538	1.047520	0.000062
 940	9.3430e+01	9.3393	8.941576	0.000581	5.814982	0.985085	0.000058
 941	9.3530e+01	9.3491	9.001456	0.000602	6.019735	1.019771	0.000060
 942	9.3629e+01	9.3568	9.060113	0.000590	5.896883	0.998959	0.000059
 943	9.3729e+01	9.3690	9.120807	0.000610	6.101636	1.033645	0.000061
 944	9.3829e+01	9.3768	9.185575	0.000651	6.511142	1.103017	0.000065
 945	9.3928e+01	9.3875	9.247898	0.000627	6.265439	1.061394	0.000063
 946	9.4028e+01	9.3979	9.313073	0.000655	6.552093	1.109955	0.000066
 947	9.4127e+01	9.4085	9.372137	0.000594	5.937834	1.005896	0.000059
 948	9.4227e+01	9.4165	9.443830	0.000721	7.207302	1.220950	0.000072
 949	9.4326e+01	9.4265	9.502894	0.000594	5.937834	1.005896	0.000059
 950	9.4425e+01	9.4385	9.576216	0.000737	7.371104	1.248699	0.000074
 951	9.4525e+01	9.4501	9.639354	0.000635	6.347340	1.075268	0.000063
 952	9.4624e+01	9.4569	9.706158	0.000672	6.715895	1.137703	0.000067
 953	9.4724e+01	9.4666	9.770926	0.000651	6.511142	1.103017	0.000065
 954	9.4823e+01	9.4742	9.839767	0.000692	6.920648	1.172390	0.000069
 955	9.4923e+01	9.4882	9.910644	0.000713	7.125401	1.207076	0.000071
 956	9.5022e+01	9.4981	9.979078	0.000688	6.879697	1.165452	0.000069
 957	9.5122e+01	9.5056	10.050770	0.000721	7.207302	1.220950	0.000072
 958	9.5222e+01	9.5159	10.118796	0.000684	6.838747	1.158515	0.000068
 959	9.5321e+01	9.5283	10.188859	0.000704	7.043500	1.193201	0.000070
 960	9.5421e+01	9.5368	10.262181	0.000737	7.371104	1.248699	0.000074
 961	9.5520e+01	9.5459	10.328170	0.000663	6.633994	1.123829	0.000066
 962	9.5620e+01	9.5586	10.394975	0.000672	6.715895	1.137703	0.000067
 963	9.5719e+01	9.5633	10.463408	0.000688	6.879697	1.165452	0.000069
 964	9.5819e+01	9.5801	10.540396	0.000774	7.739660	1.311134	0.000077
 965	9.5918e+01	9.5899	10.612903	0.000729	7.289203	1.234824	0.000073
 966	9.6017e+01	9.5978	10.688669	0.000762	7.616808	1.290322	0.000076
 967	9.6117e+01	9.6046	10.758731	0.000704	7.043500	1.193201	0.000070
 968	9.6216e+01	9.6159	10.831646	0.000733	7.330154	1.241762	0.000073
 969	9.6316e+01	9.6265	10.907819	0.000766	7.657758	1.297259	0.000077
 970	9.6415e+01	9.6342	10.983992	0.000766	7.657758	1.297259	0.000077
 971	9.6515e+01	9.6462	11.056092	0.000725	7.248253	1.227887	0.000072
 972	9.6615e+01	9.6543	11.129413	0.000737	7.371104	1.248699	0.000074
 973	9.6714e+01	9.6644	11.205994	0.000770	7.698709	1.304197	0.000077
 974	9.6814e+01	9.6741	11.278501	0.000729	7.289203	1.234824	0.000073
 975	9.6913e+01	9.6863	11.351415	0.000733	7.330154	1.241762	0.000073
 976	9.7013e+01	9.6954	11.421885	0.000708	7.084450	1.200138	0.000071
 977	9.7112e+01	9.7058	11.497651	0.000762	7.616808	1.290322	0.000076
 978	9.7212e+01	9.7207	11.566492	0.000692	6.920648	1.172390	0.000069
 979	9.7311e+01	9.7246	11.641035	0.000749	7.493956	1.269511	0.000075
 980	9.7410e+01	9.7350	11.715986	0.000753	7.534907	1.276448	0.000075
 981	9.7510e+01	9.7452	11.793789	0.000782	7.821561	1.325008	0.000078
 982	9.7609e+01	9.7562	11.873628	0.000803	8.026314	1.359694	0.000080
 983	9.7709e+01	9.7658	11.949801	0.000766	7.657758	1.297259	0.000077
 984	9.7808e+01	9.7736	12.026381	0.000770	7.698709	1.304197	0.000077
 985	9.7908e+01	9.7852	12.105813	0.000799	7.985363	1.352757	0.000080
 986	9.8007e+01	9.7961	12.181172	0.000758	7.575857	1.283385	0.000076
 987	9.8107e+01	9.8063	12.254901	0.000741	7.412055	1.255636	0.000074
 988	9.8207e+01	9.8169	12.333925	0.000794	7.944412	1.345820	0.000079
 989	9.8306e+01	9.8246	12.412542	0.000790	7.903462	1.338883	0.000079
 990	9.8406e+01	9.8330	12.490752	0.000786	7.862511	1.331945	0.000079
 991	9.8505e+01	9.8419	12.567740	0.000774	7.739660	1.311134	0.000077
 992	9.8605e+01	9.8556	12.648394	0.000811	8.108215	1.373569	0.000081
 993	9.8704e+01	9.8624	12.722123	0.000741	7.412055	1.255636	0.000074
 994	9.8803e+01	9.8730	12.803591	0.000819	8.190116	1.387443	0.000082
 995	9.8903e+01	9.8830	12.886282	0.000831	8.312968	1.408255	0.000083
 996	9.9002e+01	9.8911	12.969787	0.000839	8.394869	1.422129	0.000084
 997	9.9102e+01	9.9053	13.053699	0.000844	8.435819	1.429066	0.000084
 998	9.9201e+01	9.9152	13.137612	0.000844	8.435819	1.429066	0.000084
 999	9.9301e+01	9.9247	13.226413	0.000893	8.927226	1.512313	0.000089
1000	9.9400e+01	9.9336	13.310325	0.000844	8.435819	1.429066	0.000084
1001	9.9500e+01	9.9438	13.397089	0.000872	8.722473	1.477627	0.000087
1002	9.9600e+01	9.9525	13.485075	0.000885	8.845325	1.498439	0.000088
1003	9.9699e+01	9.9638	13.575505	0.000909	9.091029	1.540062	0.000091
1004	9.9799e+01	9.9756	13.659418	0.000844	8.435819	1.429066	0.000084
1005	9.9898e+01	9.9858	13.746589	0.000876	8.763424	1.484564	0.000088
1006	9.9998e+01	9.9931	13.832946	0.000868	8.681523	1.470690	0.000087
1007	1.0010e+02	9.9854	13.889159	-0.000565	-5.651180	-0.957336	0.000056
1008	1.0020e+02	9.9758	13.945372	-0.000565	-5.651180	-0.957336	0.000056
1009	1.0030e+02	9.9635	13.998734	-0.000536	-5.364526	-0.908775	0.000054
1010	1.0040e+02	9.9539	14.056577	-0.000581	-5.814982	-0.985085	0.000058
1011	1.0050e+02	9.9463	14.114012	-0.000577	-5.774032	-0.978147	0.000058
1012	1.0059e+02	9.9323	14.168596	-0.000549	-5.487378	-0.929587	0.000055
1013	1.0069e+02	9.9245	14.225217	-0.000569	-5.692131	-0.964273	0.000057
1014	1.0079e+02	9.9134	14.283874	-0.000590	-5.896883	-0.998959	0.000059
1015	1.0089e+02	9.9036	14.338865	-0.000553	-5.528328	-0.936524	0.000055
1016	1.0099e+02	9.8922	14.397930	-0.000594	-5.937834	-1.005896	0.000059
1017	1.0109e+02	9.8832	14.450070	-0.000524	-5.241674	-0.887964	0.000052
1018	1.0119e+02	9.8724	14.501395	-0.000516	-5.159773	-0.874089	0.000052
1019	1.0129e+02	9.8615	14.553942	-0.000528	-5.282625	-0.894901	0.000053
1020	1.0139e+02	9.8538	14.613414	-0.000598	-5.978785	-1.012834	0.000060
1021	1.0149e+02	9.8428	14.665961	-0.000528	-5.282625	-0.894901	0.000053
1022	1.0159e+02	9.8356	14.718508	-0.000528	-5.282625	-0.894901	0.000053
1023	1.0169e+02	9.8246	14.775536	-0.000573	-5.733081	-0.971210	0.000057
1024	1.0179e+02	9.8122	14.825232	-0.000500	-4.995971	-0.846340	0.000050
1025	1.0189e+02	9.8035	14.874521	-0.000496	-4.955020	-0.839403	0.000050
1026	1.0199e+02	9.7956	14.924216	-0.000500	-4.995971	-0.846340	0.000050
1027	1.0209e+02	9.7861	14.973912	-0.000500	-4.995971	-0.846340	0.000050
1028	1.0219e+02	9.7754	15.021571	-0.000479	-4.791218	-0.811654	0.000048
1029	1.0229e+02	9.7650	15.069638	-0.000483	-4.832168	-0.818591	0.000048
1030	1.0239e+02	9.7584	15.119741	-0.000504	-5.036921	-0.853278	0.000050
1031	1.0248e+02	9.7462	15.174325	-0.000549	-5.487378	-0.929587	0.000055
1032	1.0258e+02	9.7329	15.220354	-0.000463	-4.627416	-0.783905	0.000046
1033	1.0268e+02	9.7255	15.257423	-0.000373	-3.726503	-0.631287	0.000037
1034	1.0278e+02	9.7157	15.294083	-0.000369	-3.685552	-0.624349	0.000037
1035	1.0288e+02	9.7067	15.341335	-0.000475	-4.750267	-0.804717	0.000047
1036	1.0298e+02	9.6933	15.382477	-0.000414	-4.136009	-0.700659	0.000041
1037	1.0308e+02	9.6870	15.428099	-0.000459	-4.586465	-0.776968	0.000046
1038	1.0318e+02	9.6759	15.475351	-0.000475	-4.750267	-0.804717	0.000047
1039	1.0328e+02	9.6656	15.522603	-0.000475	-4.750267	-0.804717	0.000047
1040	1.0338e+02	9.6558	15.566596	-0.000442	-4.422663	-0.749219	0.000044
1041	1.0348e+02	9.6472	15.616291	-0.000500	-4.995971	-0.846340	0.000050
1042	1.0358e+02	9.6355	15.661914	-0.000459	-4.586465	-0.776968	0.000046
1043	1.0368e+02	9.6272	15.709980	-0.000483	-4.832168	-0.818591	0.000048
1044	1.0378e+02	9.6143	15.762527	-0.000528	-5.282625	-0.894901	0.000053
1045	1.0388e+02	9.6059	15.806113	-0.000438	-4.381712	-0.742282	0.000044
1046	1.0398e+02	9.5957	15.858660	-0.000528	-5.282625	-0.894901	0.000053
1047	1.0408e+02	9.5889	15.913651	-0.000553	-5.528328	-0.936524	0.000055
1048	1.0418e+02	9.5763	15.956422	-0.000430	-4.299811	-0.728408	0.000043
1049	1.0428e+02	9.5669	16.005304	-0.000491	-4.914070	-0.832466	0.000049
1050	1.0438e+02	9.5579	16.057443	-0.000524	-5.241674	-0.887964	0.000052
1051	1.0447e+02	9.5441	16.107954	-0.000508	-5.077872	-0.860215	0.000051
1052	1.0457e+02	9.5375	16.154391	-0.000467	-4.668366	-0.790843	0.000047
1053	1.0467e+02	9.5243	16.205309	-0.000512	-5.118822	-0.867152	0.000051
1054	1.0477e+02	9.5136	16.258671	-0.000536	-5.364526	-0.908775	0.000054
1055	1.0487e+02	9.5083	16.311625	-0.000532	-5.323575	-0.901838	0.000053
1056	1.0497e+02	9.4955	16.363358	-0.000520	-5.200724	-0.881026	0.000052
1057	1.0507e+02	9.4874	16.406129	-0.000430	-4.299811	-0.728408	0.000043
1058	1.0517e+02	9.4775	16.456639	-0.000508	-5.077872	-0.860215	0.000051
1059	1.0527e+02	9.4653	16.499817	-0.000434	-4.340761	-0.735345	0.000043
1060	1.0537e+02	9.4571	16.547069	-0.000475	-4.750267	-0.804717	0.000047
1061	1.0547e+02	9.4482	16.593914	-0.000471	-4.709317	-0.797780	0.000047
1062	1.0557e+02	9.4385	16.638721	-0.000450	-4.504564	-0.763094	0.000045
1063	1.0567e+02	9.4269	16.690046	-0.000516	-5.159773	-0.874089	0.000052
1064	1.0577e+02	9.4173	16.737705	-0.000479	-4.791218	-0.811654	0.000048
1065	1.0587e+02	9.4067	16.788216	-0.000508	-5.077872	-0.860215	0.000051
1066	1.0597e+02	9.3967	16.839134	-0.000512	-5.118822	-0.867152	0.000051
1067	1.0607e+02	9.3896	16.883534	-0.000446	-4.463613	-0.756157	0.000045
1068	1.0617e+02	9.3764	16.936081	-0.000528	-5.282625	-0.894901	0.000053
1069	1.0627e+02	9.3667	16.983333	-0.000475	-4.750267	-0.804717	0.000047
1070	1.0637e+02	9.3568	17.033436	-0.000504	-5.036921	-0.853278	0.000050
1071	1.0647e+02	9.3482	17.078244	-0.000450	-4.504564	-0.763094	0.000045
1072	1.0656e+02	9.3363	17.123866	-0.000459	-4.586465	-0.776968	0.000046
1073	1.0666e+02	9.3291	17.165008	-0.000414	-4.136009	-0.700659	0.000041
1074	1.0676e+02	9.3171	17.213482	-0.000487	-4.873119	-0.825529	0.000049
1075	1.0686e+02	9.3079	17.255438	-0.000422	-4.217910	-0.714533	0.000042
1076	1.0696e+02	9.2974	17.298616	-0.000434	-4.340761	-0.735345	0.000043
1077	1.0706e+02	9.2867	17.336499	-0.000381	-3.808404	-0.645161	0.000038
1078	1.0716e+02	9.2789	17.375604	-0.000393	-3.931256	-0.665973	0.000039
1079	1.0726e+02	9.2655	17.408599	-0.000332	-3.316997	-0.561914	0.000033
1080	1.0736e+02	9.2572	17.447296	-0.000389	-3.890305	-0.659036	0.000039
1081	1.0746e+02	9.2496	17.483957	-0.000369	-3.685552	-0.624349	0.000037
1082	1.0756e+02	9.2390	17.523469	-0.000397	-3.972206	-0.672910	0.000040
1083	1.0766e+02	9.2300	17.555242	-0.000319	-3.194145	-0.541103	0.000032
1084	1.0776e+02	9.2170	17.593939	-0.000389	-3.890305	-0.659036	0.000039
1085	1.0786e+02	9.2092	17.632637	-0.000389	-3.890305	-0.659036	0.000039
1086	1.0796e+02	9.1964	17.665224	-0.000328	-3.276046	-0.554977	0.000033
1087	1.0806e+02	9.1907	17.702700	-0.000377	-3.767453	-0.638224	0.000038
1088	1.0816e+02	9.1782	17.742620	-0.000401	-4.013157	-0.679847	0.000040
1089	1.0826e+02	9.1699	17.782539	-0.000401	-4.013157	-0.679847	0.000040
1090	1.0836e+02	9.1586	17.816349	-0.000340	-3.398898	-0.575789	0.000034
1091	1.0845e+02	9.1504	17.851380	-0.000352	-3.521750	-0.596601	0.000035
1092	1.0855e+02	9.1384	17.884782	-0.000336	-3.357948	-0.568852	0.000034
1093	1.0865e+02	9.1274	17.919814	-0.000352	-3.521750	-0.596601	0.000035
1094	1.0875e+02	9.1183	17.954030	-0.000344	-3.439849	-0.582726	0.000034
1095	1.0885e+02	9.1093	17.987025	-0.000332	-3.316997	-0.561914	0.000033
1096	1.0895e+02	9.0982	18.020834	-0.000340	-3.398898	-0.575789	0.000034
1097	1.0905e+02	9.0898	18.052607	-0.000319	-3.194145	-0.541103	0.000032
1098	1.0915e+02	9.0791	18.082751	-0.000303	-3.030343	-0.513354	0.000030
1099	1.0925e+02	9.0687	18.116153	-0.000336	-3.357948	-0.568852	0.000034
1100	1.0935e+02	9.0567	18.145889	-0.000299	-2.989392	-0.506417	0.000030
1101	1.0945e+02	9.0491	18.173181	-0.000274	-2.743689	-0.464793	0.000027
1102	1.0955e+02	9.0399	18.206990	-0.000340	-3.398898	-0.575789	0.000034
1103	1.0965e+02	9.0289	18.240799	-0.000340	-3.398898	-0.575789	0.000034
1104	1.0975e+02	9.0165	18.268906	-0.000283	-2.825590	-0.478668	0.000028
1105	1.0985e+02	9.0112	18.307196	-0.000385	-3.849354	-0.652098	0.000038
1106	1.0995e+02	8.9996	18.342228	-0.000352	-3.521750	-0.596601	0.000035
1107	1.1005e+02	8.9907	18.378889	-0.000369	-3.685552	-0.624349	0.000037
1108	1.1015e+02	8.9791	18.418808	-0.000401	-4.013157	-0.679847	0.000040
1109	1.1025e+02	8.9703	18.455876	-0.000373	-3.726503	-0.631287	0.000037
1110	1.1035e+02	8.9579	18.488056	-0.000324	-3.235096	-0.548040	0.000032
1111	1.1044e+02	8.9494	18.520644	-0.000328	-3.276046	-0.554977	0.000033
1112	1.1054e+02	8.9389	18.559341	-0.000389	-3.890305	-0.659036	0.000039
1113	1.1064e+02	8.9296	18.590707	-0.000315	-3.153195	-0.534166	0.000032
1114	1.1074e+02	8.9194	18.626146	-0.000356	-3.562700	-0.603538	0.000036
1115	1.1084e+02	8.9095	18.661584	-0.000356	-3.562700	-0.603538	0.000036
1116	1.1094e+02	8.9005	18.697023	-0.000356	-3.562700	-0.603538	0.000036
1117	1.1104e+02	8.8893	18.732869	-0.000360	-3.603651	-0.610475	0.000036
1118	1.1114e+02	8.8810	18.768715	-0.000360	-3.603651	-0.610475	0.000036
1119	1.1124e+02	8.8692	18.801710	-0.000332	-3.316997	-0.561914	0.000033
1120	1.1134e+02	8.8596	18.834705	-0.000332	-3.316997	-0.561914	0.000033
1121	1.1144e+02	8.8525	18.868922	-0.000344	-3.439849	-0.582726	0.000034
1122	1.1154e+02	8.8394	18.897436	-0.000287	-2.866541	-0.485605	0.000029
1123	1.1164e+02	8.8311	18.929616	-0.000324	-3.235096	-0.548040	0.000032
1124	1.1174e+02	8.8235	18.963832	-0.000344	-3.439849	-0.582726	0.000034
1125	1.1184e+02	8.8097	18.995605	-0.000319	-3.194145	-0.541103	0.000032
1126	1.1194e+02	8.8000	19.028193	-0.000328	-3.276046	-0.554977	0.000033
1127	1.1204e+02	8.7900	19.059558	-0.000315	-3.153195	-0.534166	0.000032
1128	1.1214e+02	8.7813	19.086850	-0.000274	-2.743689	-0.464793	0.000027
1129	1.1224e+02	8.7695	19.120252	-0.000336	-3.357948	-0.568852	0.000034
1130	1.1234e+02	8.7605	19.147951	-0.000278	-2.784639	-0.471731	0.000028
1131	1.1244e+02	8.7533	19.178095	-0.000303	-3.030343	-0.513354	0.000030
1132	1.1253e+02	8.7402	19.209867	-0.000319	-3.194145	-0.541103	0.000032
1133	1.1263e+02	8.7330	19.241640	-0.000319	-3.194145	-0.541103	0.000032
1134	1.1273e+02	8.7229	19.271376	-0.000299	-2.989392	-0.506417	0.000030
1135	1.1283e+02	8.7115	19.306408	-0.000352	-3.521750	-0.596601	0.000035
1136	1.1293e+02	8.7030	19.335736	-0.000295	-2.948442	-0.499480	0.000029
1137	1.1303e+02	8.6891	19.365880	-0.000303	-3.030343	-0.513354	0.000030
1138	1.1313e+02	8.6813	19.396430	-0.000307	-3.071293	-0.520291	0.000031
1139	1.1323e+02	8.6720	19.431869	-0.000356	-3.562700	-0.603538	0.000036
1140	1.1333e+02	8.6649	19.458754	-0.000270	-2.702738	-0.457856	0.000027
1141	1.1343e+02	8.6508	19.498673	-0.000401	-4.013157	-0.679847	0.000040
1142	1.1353e+02	8.6420	19.538185	-0.000397	-3.972206	-0.672910	0.000040
1143	1.1363e+02	8.6328	19.575254	-0.000373	-3.726503	-0.631287	0.000037
1144	1.1373e+02	8.6192	19.608656	-0.000336	-3.357948	-0.568852	0.000034
1145	1.1383e+02	8.6121	19.642465	-0.000340	-3.398898	-0.575789	0.000034
1146	1.1393e+02	8.6008	19.679941	-0.000377	-3.767453	-0.638224	0.000038
1147	1.1403e+02	8.5907	19.713343	-0.000336	-3.357948	-0.568852	0.000034
1148	1.1413e+02	8.5796	19.747560	-0.000344	-3.439849	-0.582726	0.000034
1149	1.1423e+02	8.5698	19.778110	-0.000307	-3.071293	-0.520291	0.000031
1150	1.1433e+02	8.5583	19.813956	-0.000360	-3.603651	-0.610475	0.000036
1151	1.1442e+02	8.5525	19.845729	-0.000319	-3.194145	-0.541103	0.000032
1152	1.1452e+02	8.5441	19.880761	-0.000352	-3.521750	-0.596601	0.000035
1153	1.1462e+02	8.5325	19.913755	-0.000332	-3.316997	-0.561914	0.000033
1154	1.1472e+02	8.5220	19.946750	-0.000332	-3.316997	-0.561914	0.000033
1155	1.1482e+02	8.5126	19.976893	-0.000303	-3.030343	-0.513354	0.000030
1156	1.1492e+02	8.4995	20.004593	-0.000278	-2.784639	-0.471731	0.000028
1157	1.1502e+02	8.4924	20.036365	-0.000319	-3.194145	-0.541103	0.000032
1158	1.1512e+02	8.4821	20.068138	-0.000319	-3.194145	-0.541103	0.000032
1159	1.1522e+02	8.4727	20.103984	-0.000360	-3.603651	-0.610475	0.000036
1160	1.1532e+02	8.4624	20.140238	-0.000364	-3.644602	-0.617412	0.000036
1161	1.1542e+02	8.4558	20.180972	-0.000410	-4.095058	-0.693722	0.000041
1162	1.1552e+02	8.4412	20.208671	-0.000278	-2.784639	-0.471731	0.000028
1163	1.1562e+02	8.4326	20.232297	-0.000238	-2.375134	-0.402359	0.000024
1164	1.1572e+02	8.4220	20.269773	-0.000377	-3.767453	-0.638224	0.000038
1165	1.1582e+02	8.4135	20.300731	-0.000311	-3.112244	-0.527228	0.000031
1166	1.1592e+02	8.4058	20.328837	-0.000283	-2.825590	-0.478668	0.000028
1167	1.1602e+02	8.3913	20.358981	-0.000303	-3.030343	-0.513354	0.000030
1168	1.1612e+02	8.3823	20.392383	-0.000336	-3.357948	-0.568852	0.000034
1169	1.1622e+02	8.3719	20.421304	-0.000291	-2.907491	-0.492542	0.000029
1170	1.1632e+02	8.3619	20.444930	-0.000238	-2.375134	-0.402359	0.000024
1171	1.1642e+02	8.3533	20.482406	-0.000377	-3.767453	-0.638224	0.000038
1172	1.1651e+02	8.3429	20.510512	-0.000283	-2.825590	-0.478668	0.000028
1173	1.1661e+02	8.3326	20.538619	-0.000283	-2.825590	-0.478668	0.000028
1174	1.1671e+02	8.3283	20.562652	-0.000242	-2.416084	-0.409296	0.000024
1175	1.1681e+02	8.3118	20.596054	-0.000336	-3.357948	-0.568852	0.000034
1176	1.1691e+02	8.3044	20.625383	-0.000295	-2.948442	-0.499480	0.000029
1177	1.1701e+02	8.2925	20.651453	-0.000262	-2.620837	-0.443982	0.000026
1178	1.1711e+02	8.2835	20.677115	-0.000258	-2.579887	-0.437045	0.000026
1179	1.1721e+02	8.2731	20.701556	-0.000246	-2.457035	-0.416233	0.000025
1180	1.1731e+02	8.2629	20.729255	-0.000278	-2.784639	-0.471731	0.000028
1181	1.1741e+02	8.2535	20.756954	-0.000278	-2.784639	-0.471731	0.000028
1182	1.1751e+02	8.2427	20.787912	-0.000311	-3.112244	-0.527228	0.000031
1183	1.1761e+02	8.2333	20.814390	-0.000266	-2.661788	-0.450919	0.000027
1184	1.1771e+02	8.2241	20.842496	-0.000283	-2.825590	-0.478668	0.000028
1185	1.1781e+02	8.2130	20.873454	-0.000311	-3.112244	-0.527228	0.000031
1186	1.1791e+02	8.2056	20.896673	-0.000233	-2.334183	-0.395421	0.000023
1187	1.1801e+02	8.1952	20.926002	-0.000295	-2.948442	-0.499480	0.000029
1188	1.1811e+02	8.1847	20.948813	-0.000229	-2.293232	-0.388484	0.000023
1189	1.1821e+02	8.1744	20.970809	-0.000221	-2.211331	-0.374610	0.000022
1190	1.1831e+02	8.1670	20.998101	-0.000274	-2.743689	-0.464793	0.000027
1191	1.1841e+02	8.1543	21.020505	-0.000225	-2.252282	-0.381547	0.000023
1192	1.1850e+02	8.1448	21.044131	-0.000238	-2.375134	-0.402359	0.000024
1193	1.1860e+02	8.1335	21.062461	-0.000184	-1.842776	-0.312175	0.000018
1194	1.1870e+02	8.1267	21.086902	-0.000246	-2.457035	-0.416233	0.000025
1195	1.1880e+02	8.1165	21.106454	-0.000197	-1.965628	-0.332986	0.000020
1196	1.1890e+02	8.1055	21.125599	-0.000192	-1.924677	-0.326049	0.000019
1197	1.1900e+02	8.0927	21.147189	-0.000217	-2.170381	-0.367672	0.000022
1198	1.1910e+02	8.0863	21.167556	-0.000205	-2.047529	-0.346861	0.000020
1199	1.1920e+02	8.0749	21.188330	-0.000209	-2.088480	-0.353798	0.000021
1200	1.1930e+02	8.0651	21.213993	-0.000258	-2.579887	-0.437045	0.000026
1201	1.1940e+02	8.0539	21.238026	-0.000242	-2.416084	-0.409296	0.000024
1202	1.1950e+02	8.0434	21.260837	-0.000229	-2.293232	-0.388484	0.000023
1203	1.1960e+02	8.0338	21.282019	-0.000213	-2.129430	-0.360735	0.000021
1204	1.1970e+02	8.0244	21.303608	-0.000217	-2.170381	-0.367672	0.000022
1205	1.1980e+02	8.0164	21.324790	-0.000213	-2.129430	-0.360735	0.000021
1206	1.1990e+02	8.0062	21.349230	-0.000246	-2.457035	-0.416233	0.000025
1207	1.2000e+02	7.9951	21.368376	-0.000192	-1.924677	-0.326049	0.000019
1208	1.2010e+02	7.9860	21.389557	-0.000213	-2.129430	-0.360735	0.000021
1209	1.2020e+02	7.9738	21.416442	-0.000270	-2.702738	-0.457856	0.000027
1210	1.2030e+02	7.9661	21.441697	-0.000254	-2.538936	-0.430107	0.000025
1211	1.2039e+02	7.9553	21.467767	-0.000262	-2.620837	-0.443982	0.000026
1212	1.2049e+02	7.9432	21.483654	-0.000160	-1.597073	-0.270551	0.000016
1213	1.2059e+02	7.9351	21.508501	-0.000250	-2.497985	-0.423170	0.000025
1214	1.2069e+02	7.9238	21.529683	-0.000213	-2.129430	-0.360735	0.000021
1215	1.2079e+02	7.9165	21.550865	-0.000213	-2.129430	-0.360735	0.000021
1216	1.2089e+02	7.9063	21.573676	-0.000229	-2.293232	-0.388484	0.000023
1217	1.2099e+02	7.8951	21.590785	-0.000172	-1.719924	-0.291363	0.000017
1218	1.2109e+02	7.8838	21.610337	-0.000197	-1.965628	-0.332986	0.000020
1219	1.2119e+02	7.8755	21.635592	-0.000254	-2.538936	-0.430107	0.000025
1220	1.2129e+02	7.8646	21.653108	-0.000176	-1.760875	-0.298300	0.000018
1221	1.2139e+02	7.8556	21.672660	-0.000197	-1.965628	-0.332986	0.000020
1222	1.2149e+02	7.8468	21.691398	-0.000188	-1.883727	-0.319112	0.000019
1223	1.2159e+02	7.8359	21.714617	-0.000233	-2.334183	-0.395421	0.000023
1224	1.2169e+02	7.8257	21.733762	-0.000192	-1.924677	-0.326049	0.000019
1225	1.2179e+02	7.8166	21.750056	-0.000164	-1.638023	-0.277489	0.000016
1226	1.2189e+02	7.8062	21.766757	-0.000168	-1.678974	-0.284426	0.000017
1227	1.2199e+02	7.7950	21.781828	-0.000152	-1.515171	-0.256677	0.000015
1228	1.2209e+02	7.7856	21.800566	-0.000188	-1.883727	-0.319112	0.000019
1229	1.2219e+02	7.7766	21.817674	-0.000172	-1.719924	-0.291363	0.000017
1230	1.2229e+02	7.7633	21.838449	-0.000209	-2.088480	-0.353798	0.000021
1231	1.2239e+02	7.7572	21.855557	-0.000172	-1.719924	-0.291363	0.000017
1232	1.2248e+02	7.7459	21.877961	-0.000225	-2.252282	-0.381547	0.000023
1233	1.2258e+02	7.7375	21.896292	-0.000184	-1.842776	-0.312175	0.000018
1234	1.2268e+02	7.7283	21.914215	-0.000180	-1.801826	-0.305238	0.000018
1235	1.2278e+02	7.7168	21.934989	-0.000209	-2.088480	-0.353798	0.000021
1236	1.2288e+02	7.7056	21.952912	-0.000180	-1.801826	-0.305238	0.000018
1237	1.2298e+02	7.6942	21.965132	-0.000123	-1.228517	-0.208116	0.000012
1238	1.2308e+02	7.6864	21.981019	-0.000160	-1.597073	-0.270551	0.000016
1239	1.2318e+02	7.6785	21.995276	-0.000143	-1.433270	-0.242803	0.000014
1240	1.2328e+02	7.6652	22.012791	-0.000176	-1.760875	-0.298300	0.000018
1241	1.2338e+02	7.6574	22.032344	-0.000197	-1.965628	-0.332986	0.000020
1242	1.2348e+02	7.6473	22.043750	-0.000115	-1.146616	-0.194242	0.000011
1243	1.2358e+02	7.6361	22.053526	-0.000098	-0.982814	-0.166493	0.000010
1244	1.2368e+02	7.6260	22.074708	-0.000213	-2.129430	-0.360735	0.000021
1245	1.2378e+02	7.6168	22.087743	-0.000131	-1.310419	-0.221991	0.000013
1246	1.2388e+02	7.6056	22.106480	-0.000188	-1.883727	-0.319112	0.000019
1247	1.2398e+02	7.5967	22.117479	-0.000111	-1.105666	-0.187305	0.000011
1248	1.2408e+02	7.5885	22.132550	-0.000152	-1.515171	-0.256677	0.000015
1249	1.2418e+02	7.5767	22.144363	-0.000119	-1.187567	-0.201179	0.000012
1250	1.2428e+02	7.5680	22.161064	-0.000168	-1.678974	-0.284426	0.000017
1251	1.2438e+02	7.5571	22.169211	-0.000082	-0.819012	-0.138744	0.000008
1252	1.2447e+02	7.5468	22.185097	-0.000160	-1.597073	-0.270551	0.000016
1253	1.2457e+02	7.5391	22.200576	-0.000156	-1.556122	-0.263614	0.000016
1254	1.2467e+02	7.5289	22.213204	-0.000127	-1.269468	-0.215054	0.000013
1255	1.2477e+02	7.5179	22.226646	-0.000135	-1.351369	-0.228928	0.000014
1256	1.2487e+02	7.5073	22.242533	-0.000160	-1.597073	-0.270551	0.000016
1257	1.2497e+02	7.4961	22.260048	-0.000176	-1.760875	-0.298300	0.000018
1258	1.2507e+02	7.4914	22.271861	-0.000119	-1.187567	-0.201179	0.000012
1259	1.2517e+02	7.4767	22.286933	-0.000152	-1.515171	-0.256677	0.000015
1260	1.2527e+02	7.4691	22.304041	-0.000172	-1.719924	-0.291363	0.000017
1261	1.2537e+02	7.4578	22.314225	-0.000102	-1.023764	-0.173430	0.000010
1262	1.2547e+02	7.4490	22.327260	-0.000131	-1.310419	-0.221991	0.000013
1263	1.2557e+02	7.4365	22.340295	-0.000131	-1.310419	-0.221991	0.000013
1264	1.2567e+02	7.4261	22.356181	-0.000160	-1.597073	-0.270551	0.000016
1265	1.2577e+02	7.4212	22.369624	-0.000135	-1.351369	-0.228928	0.000014
1266	1.2587e+02	7.4075	22.378992	-0.000094	-0.941863	-0.159556	0.000009
1267	1.2597e+02	7.3971	22.391620	-0.000127	-1.269468	-0.215054	0.000013
1268	1.2607e+02	7.3865	22.403026	-0.000115	-1.146616	-0.194242	0.000011
1269	1.2617e+02	7.3779	22.409950	-0.000070	-0.696160	-0.117933	0.000007
1270	1.2627e+02	7.3673	22.420949	-0.000111	-1.105666	-0.187305	0.000011
1271	1.2636e+02	7.3577	22.438057	-0.000172	-1.719924	-0.291363	0.000017
1272	1.2646e+02	7.3484	22.445797	-0.000078	-0.778061	-0.131807	0.000008
1273	1.2656e+02	7.3379	22.463312	-0.000176	-1.760875	-0.298300	0.000018
1274	1.2666e+02	7.3295	22.479199	-0.000160	-1.597073	-0.270551	0.000016
1275	1.2676e+02	7.3183	22.494678	-0.000156	-1.556122	-0.263614	0.000016
1276	1.2686e+02	7.3084	22.506083	-0.000115	-1.146616	-0.194242	0.000011
1277	1.2696e+02	7.2982	22.519118	-0.000131	-1.310419	-0.221991	0.000013
1278	1.2706e+02	7.2870	22.532561	-0.000135	-1.351369	-0.228928	0.000014
1279	1.2716e+02	7.2803	22.545596	-0.000131	-1.310419	-0.221991	0.000013
1280	1.2726e+02	7.2679	22.564741	-0.000192	-1.924677	-0.326049	0.000019
1281	1.2736e+02	7.2578	22.575739	-0.000111	-1.105666	-0.187305	0.000011
1282	1.2746e+02	7.2503	22.587552	-0.000119	-1.187567	-0.201179	0.000012
1283	1.2756e+02	7.2402	22.601809	-0.000143	-1.433270	-0.242803	0.000014
1284	1.2766e+02	7.2269	22.623805	-0.000221	-2.211331	-0.374610	0.000022
1285	1.2776e+02	7.2192	22.642136	-0.000184	-1.842776	-0.312175	0.000018
1286	1.2786e+02	7.2083	22.654356	-0.000123	-1.228517	-0.208116	0.000012
1287	1.2796e+02	7.1984	22.661688	-0.000074	-0.737110	-0.124870	0.000007
1288	1.2806e+02	7.1886	22.672686	-0.000111	-1.105666	-0.187305	0.000011
1289	1.2816e+02	7.1786	22.685721	-0.000131	-1.310419	-0.221991	0.000013
1290	1.2826e+02	7.1729	22.699164	-0.000135	-1.351369	-0.228928	0.000014
1291	1.2835e+02	7.1575	22.702830	-0.000037	-0.368555	-0.062435	0.000004
1292	1.2845e+02	7.1478	22.711791	-0.000090	-0.900913	-0.152619	0.000009
1293	1.2855e+02	7.1403	22.726863	-0.000152	-1.515171	-0.256677	0.000015
1294	1.2865e+02	7.1291	22.735825	-0.000090	-0.900913	-0.152619	0.000009
1295	1.2875e+02	7.1185	22.745193	-0.000094	-0.941863	-0.159556	0.000009
1296	1.2885e+02	7.1075	22.755784	-0.000106	-1.064715	-0.180368	0.000011
1297	1.2895e+02	7.0971	22.770041	-0.000143	-1.433270	-0.242803	0.000014
1298	1.2905e+02	7.0901	22.780632	-0.000106	-1.064715	-0.180368	0.000011
1299	1.2915e+02	7.0789	22.796926	-0.000164	-1.638023	-0.277489	0.000016
1300	1.2925e+02	7.0678	22.810368	-0.000135	-1.351369	-0.228928	0.000014
1301	1.2935e+02	7.0582	22.822181	-0.000119	-1.187567	-0.201179	0.000012
1302	1.2945e+02	7.0516	22.837253	-0.000152	-1.515171	-0.256677	0.000015
1303	1.2955e+02	7.0406	22.847029	-0.000098	-0.982814	-0.166493	0.000010
1304	1.2965e+02	7.0325	22.855991	-0.000090	-0.900913	-0.152619	0.000009
1305	1.2975e+02	7.0183	22.864545	-0.000086	-0.859962	-0.145682	0.000009
1306	1.2985e+02	7.0088	22.876765	-0.000123	-1.228517	-0.208116	0.000012
1307	1.2995e+02	7.0000	22.887763	-0.000111	-1.105666	-0.187305	0.000011
1308	1.3005e+02	6.9895	22.898762	-0.000111	-1.105666	-0.187305	0.000011
1309	1.3015e+02	6.9808	22.910167	-0.000115	-1.146616	-0.194242	0.000011
1310	1.3025e+02	6.9698	22.919536	-0.000094	-0.941863	-0.159556	0.000009
1311	1.3034e+02	6.9628	22.933386	-0.000139	-1.392320	-0.235865	0.000014
1312	1.3044e+02	6.9540	22.943162	-0.000098	-0.982814	-0.166493	0.000010
1313	1.3054e+02	6.9405	22.949679	-0.000066	-0.655209	-0.110995	0.000007
1314	1.3064e+02	6.9326	22.956604	-0.000070	-0.696160	-0.117933	0.000007
1315	1.3074e+02	6.9211	22.963529	-0.000070	-0.696160	-0.117933	0.000007
1316	1.3084e+02	6.9106	22.972491	-0.000090	-0.900913	-0.152619	0.000009
1317	1.3094e+02	6.9019	22.981859	-0.000094	-0.941863	-0.159556	0.000009
1318	1.3104e+02	6.8886	22.996931	-0.000152	-1.515171	-0.256677	0.000015
1319	1.3114e+02	6.8807	23.003041	-0.000061	-0.614259	-0.104058	0.000006
1320	1.3124e+02	6.8726	23.016484	-0.000135	-1.351369	-0.228928	0.000014
1321	1.3134e+02	6.8610	23.031148	-0.000147	-1.474221	-0.249740	0.000015
1322	1.3144e+02	6.8480	23.039702	-0.000086	-0.859962	-0.145682	0.000009
1323	1.3154e+02	6.8417	23.058847	-0.000192	-1.924677	-0.326049	0.000019
1324	1.3164e+02	6.8327	23.073511	-0.000147	-1.474221	-0.249740	0.000015
1325	1.3174e+02	6.8208	23.089805	-0.000164	-1.638023	-0.277489	0.000016
1326	1.3184e+02	6.8124	23.098359	-0.000086	-0.859962	-0.145682	0.000009
1327	1.3194e+02	6.8008	23.107321	-0.000090	-0.900913	-0.152619	0.000009
1328	1.3204e+02	6.7905	23.116690	-0.000094	-0.941863	-0.159556	0.000009
1329	1.3214e+02	6.7803	23.124429	-0.000078	-0.778061	-0.131807	0.000008
1330	1.3224e+02	6.7715	23.140723	-0.000164	-1.638023	-0.277489	0.000016
1331	1.3234e+02	6.7593	23.149685	-0.000090	-0.900913	-0.152619	0.000009
1332	1.3243e+02	6.7498	23.157017	-0.000074	-0.737110	-0.124870	0.000007
1333	1.3253e+02	6.7416	23.168830	-0.000119	-1.187567	-0.201179	0.000012
1334	1.3263e+02	6.7315	23.182679	-0.000139	-1.392320	-0.235865	0.000014
1335	1.3273e+02	6.7193	23.194492	-0.000119	-1.187567	-0.201179	0.000012
1336	1.3283e+02	6.7107	23.201010	-0.000066	-0.655209	-0.110995	0.000007
1337	1.3293e+02	6.7028	23.218118	-0.000172	-1.719924	-0.291363	0.000017
1338	1.3303e+02	6.6910	23.225858	-0.000078	-0.778061	-0.131807	0.000008
1339	1.3313e+02	6.6820	23.239300	-0.000135	-1.351369	-0.228928	0.000014
1340	1.3323e+02	6.6726	23.250705	-0.000115	-1.146616	-0.194242	0.000011
1341	1.3333e+02	6.6639	23.263333	-0.000127	-1.269468	-0.215054	0.000013
1342	1.3343e+02	6.6504	23.276368	-0.000131	-1.310419	-0.221991	0.000013
1343	1.3353e+02	6.6445	23.287774	-0.000115	-1.146616	-0.194242	0.000011
1344	1.3363e+02	6.6315	23.300401	-0.000127	-1.269468	-0.215054	0.000013
1345	1.3373e+02	6.6225	23.310992	-0.000106	-1.064715	-0.180368	0.000011
1346	1.3383e+02	6.6090	23.322398	-0.000115	-1.146616	-0.194242	0.000011
1347	1.3393e+02	6.6018	23.335025	-0.000127	-1.269468	-0.215054	0.000013
1348	1.3403e+02	6.5908	23.345616	-0.000106	-1.064715	-0.180368	0.000011
1349	1.3413e+02	6.5829	23.359059	-0.000135	-1.351369	-0.228928	0.000014
1350	1.3423e+02	6.5713	23.374130	-0.000152	-1.515171	-0.256677	0.000015
1351	1.3432e+02	6.5626	23.382277	-0.000082	-0.819012	-0.138744	0.000008
1352	1.3442e+02	6.5527	23.392053	-0.000098	-0.982814	-0.166493	0.000010
1353	1.3452e+02	6.5447	23.400608	-0.000086	-0.859962	-0.145682	0.000009
1354	1.3462e+02	6.5325	23.412420	-0.000119	-1.187567	-0.201179	0.000012
1355	1.3472e+02	6.5228	23.423826	-0.000115	-1.146616	-0.194242	0.000011
1356	1.3482e+02	6.5129	23.431158	-0.000074	-0.737110	-0.124870	0.000007
1357	1.3492e+02	6.5015	23.442156	-0.000111	-1.105666	-0.187305	0.000011
1358	1.3502e+02	6.4907	23.447452	-0.000053	-0.532358	-0.090184	0.000005
1359	1.3512e+02	6.4840	23.455599	-0.000082	-0.819012	-0.138744	0.000008
1360	1.3522e+02	6.4723	23.464968	-0.000094	-0.941863	-0.159556	0.000009
1361	1.3532e+02	6.4608	23.473929	-0.000090	-0.900913	-0.152619	0.000009
1362	1.3542e+02	6.4520	23.484520	-0.000106	-1.064715	-0.180368	0.000011
1363	1.3552e+02	6.4434	23.493482	-0.000090	-0.900913	-0.152619	0.000009
1364	1.3562e+02	6.4344	23.502036	-0.000086	-0.859962	-0.145682	0.000009
1365	1.3572e+02	6.4205	23.509368	-0.000074	-0.737110	-0.124870	0.000007
1366	1.3582e+02	6.4129	23.519959	-0.000106	-1.064715	-0.180368	0.000011
1367	1.3592e+02	6.4046	23.526476	-0.000066	-0.655209	-0.110995	0.000007
1368	1.3602e+02	6.3924	23.536660	-0.000102	-1.023764	-0.173430	0.000010
1369	1.3612e+02	6.3840	23.546844	-0.000102	-1.023764	-0.173430	0.000010
1370	1.3622e+02	6.3729	23.550510	-0.000037	-0.368555	-0.062435	0.000004
1371	1.3631e+02	6.3639	23.557842	-0.000074	-0.737110	-0.124870	0.000007
1372	1.3641e+02	6.3557	23.565174	-0.000074	-0.737110	-0.124870	0.000007
1373	1.3651e+02	6.3421	23.569655	-0.000045	-0.450456	-0.076309	0.000005
1374	1.3661e+02	6.3314	23.575765	-0.000061	-0.614259	-0.104058	0.000006
1375	1.3671e+02	6.3216	23.584319	-0.000086	-0.859962	-0.145682	0.000009
1376	1.3681e+02	6.3129	23.592873	-0.000086	-0.859962	-0.145682	0.000009
1377	1.3691e+02	6.3049	23.603871	-0.000111	-1.105666	-0.187305	0.000011
1378	1.3701e+02	6.2939	23.610389	-0.000066	-0.655209	-0.110995	0.000007
1379	1.3711e+02	6.2844	23.612018	-0.000016	-0.163802	-0.027749	0.000002
1380	1.3721e+02	6.2765	23.618536	-0.000066	-0.655209	-0.110995	0.000007
1381	1.3731e+02	6.2638	23.624239	-0.000057	-0.573308	-0.097121	0.000006
1382	1.3741e+02	6.2537	23.629534	-0.000053	-0.532358	-0.090184	0.000005
1383	1.3751e+02	6.2451	23.631163	-0.000016	-0.163802	-0.027749	0.000002
1384	1.3761e+02	6.2359	23.638496	-0.000074	-0.737110	-0.124870	0.000007
1385	1.3771e+02	6.2243	23.642976	-0.000045	-0.450456	-0.076309	0.000005
1386	1.3781e+02	6.2150	23.647457	-0.000045	-0.450456	-0.076309	0.000005
1387	1.3791e+02	6.2061	23.648272	-0.000008	-0.081901	-0.013874	0.000001
1388	1.3801e+02	6.1938	23.651123	-0.000029	-0.286654	-0.048561	0.000003
1389	1.3811e+02	6.1846	23.653975	-0.000029	-0.286654	-0.048561	0.000003
1390	1.3821e+02	6.1720	23.656826	-0.000029	-0.286654	-0.048561	0.000003
1391	1.3831e+02	6.1646	23.658455	-0.000016	-0.163802	-0.027749	0.000002
1392	1.3840e+02	6.1538	23.661307	-0.000029	-0.286654	-0.048561	0.000003
1393	1.3850e+02	6.1459	23.662529	-0.000012	-0.122852	-0.020812	0.000001
1394	1.3860e+02	6.1350	23.661714	0.000008	0.081901	0.013874	-0.000001
1395	1.3870e+02	6.1275	23.665380	-0.000037	-0.368555	-0.062435	0.000004
1396	1.3880e+02	6.1126	23.668232	-0.000029	-0.286654	-0.048561	0.000003
1397	1.3890e+02	6.1039	23.674749	-0.000066	-0.655209	-0.110995	0.000007
1398	1.3900e+02	6.0949	23.676378	-0.000016	-0.163802	-0.027749	0.000002
1399	1.3910e+02	6.0836	23.683303	-0.000070	-0.696160	-0.117933	0.000007
1400	1.3920e+02	6.0769	23.687784	-0.000045	-0.450456	-0.076309	0.000005
1401	1.3930e+02	6.0647	23.689006	-0.000012	-0.122852	-0.020812	0.000001
1402	1.3940e+02	6.0537	23.696338	-0.000074	-0.737110	-0.124870	0.000007
1403	1.3950e+02	6.0458	23.704078	-0.000078	-0.778061	-0.131807	0.000008
1404	1.3960e+02	6.0352	23.708966	-0.000049	-0.491407	-0.083247	0.000005
1405	1.3970e+02	6.0262	23.715076	-0.000061	-0.614259	-0.104058	0.000006
1406	1.3980e+02	6.0175	23.723223	-0.000082	-0.819012	-0.138744	0.000008
1407	1.3990e+02	6.0070	23.721593	0.000016	0.163802	0.027749	-0.000002
1408	1.4000e+02	5.9953	23.724038	-0.000025	-0.245703	-0.041623	0.000002
1409	1.4010e+02	5.9851	23.728926	-0.000049	-0.491407	-0.083247	0.000005
1410	1.4020e+02	5.9756	23.735850	-0.000070	-0.696160	-0.117933	0.000007
1411	1.4029e+02	5.9676	23.735443	0.000004	0.040951	0.006937	-0.000000
1412	1.4039e+02	5.9542	23.741553	-0.000061	-0.614259	-0.104058	0.000006
1413	1.4049e+02	5.9454	23.745627	-0.000041	-0.409506	-0.069372	0.000004
1414	1.4059e+02	5.9347	23.749293	-0.000037	-0.368555	-0.062435	0.000004
1415	1.4069e+02	5.9228	23.752959	-0.000037	-0.368555	-0.062435	0.000004
1416	1.4079e+02	5.9182	23.753366	-0.000004	-0.040951	-0.006937	0.000000
1417	1.4089e+02	5.9054	23.756218	-0.000029	-0.286654	-0.048561	0.000003
1418	1.4099e+02	5.8970	23.759476	-0.000033	-0.327605	-0.055498	0.000003
1419	1.4109e+02	5.8843	23.761920	-0.000025	-0.245703	-0.041623	0.000002
1420	1.4119e+02	5.8780	23.761920	-0.000000	-0.000000	-0.000000	0.000000
1421	1.4129e+02	5.8665	23.763550	-0.000016	-0.163802	-0.027749	0.000002
1422	1.4139e+02	5.8564	23.761513	0.000020	0.204753	0.034686	-0.000002
1423	1.4149e+02	5.8460	23.765586	-0.000041	-0.409506	-0.069372	0.000004
1424	1.4159e+02	5.8358	23.763550	0.000020	0.204753	0.034686	-0.000002
1425	1.4169e+02	5.8247	23.765179	-0.000016	-0.163802	-0.027749	0.000002
1426	1.4179e+02	5.8132	23.761513	0.000037	0.368555	0.062435	-0.000004
1427	1.4189e+02	5.8062	23.761106	0.000004	0.040951	0.006937	-0.000000
1428	1.4199e+02	5.7944	23.764364	-0.000033	-0.327605	-0.055498	0.000003
1429	1.4209e+02	5.7854	23.763550	0.000008	0.081901	0.013874	-0.000001
1430	1.4219e+02	5.7769	23.765994	-0.000025	-0.245703	-0.041623	0.000002
1431	1.4228e+02	5.7652	23.765179	0.000008	0.081901	0.013874	-0.000001
1432	1.4238e+02	5.7589	23.770067	-0.000049	-0.491407	-0.083247	0.000005
1433	1.4248e+02	5.7471	23.773326	-0.000033	-0.327605	-0.055498	0.000003
1434	1.4258e+02	5.7380	23.773326	-0.000000	-0.000000	-0.000000	0.000000
1435	1.4268e+02	5.7269	23.776992	-0.000037	-0.368555	-0.062435	0.000004
1436	1.4278e+02	5.7198	23.776585	0.000004	0.040951	0.006937	-0.000000
1437	1.4288e+02	5.7082	23.775363	0.000012	0.122852	0.020812	-0.000001
1438	1.4298e+02	5.6956	23.776992	-0.000016	-0.163802	-0.027749	0.000002
1439	1.4308e+02	5.6869	23.779436	-0.000025	-0.245703	-0.041623	0.000002
1440	1.4318e+02	5.6768	23.781065	-0.000016	-0.163802	-0.027749	0.000002
1441	1.4328e+02	5.6683	23.783102	-0.000020	-0.204753	-0.034686	0.000002
1442	1.4338e+02	5.6550	23.786361	-0.000033	-0.327605	-0.055498	0.000003
1443	1.4348e+02	5.6472	23.786768	-0.000004	-0.040951	-0.006937	0.000000
1444	1.4358e+02	5.6380	23.785954	0.000008	0.081901	0.013874	-0.000001
1445	1.4368e+02	5.6275	23.792471	-0.000066	-0.655209	-0.110995	0.000007
1446	1.4378e+02	5.6166	23.790434	0.000020	0.204753	0.034686	-0.000002
1447	1.4388e+02	5.6075	23.787176	0.000033	0.327605	0.055498	-0.000003
1448	1.4398e+02	5.5988	23.785546	0.000016	0.163802	0.027749	-0.000002
1449	1.4408e+02	5.5889	23.785139	0.000004	0.040951	0.006937	-0.000000
1450	1.4418e+02	5.5755	23.781880	0.000033	0.327605	0.055498	-0.000003
1451	1.4428e+02	5.5701	23.781065	0.000008	0.081901	0.013874	-0.000001
1452	1.4437e+02	5.5547	23.781880	-0.000008	-0.081901	-0.013874	0.000001
1453	1.4447e+02	5.5482	23.783510	-0.000016	-0.163802	-0.027749	0.000002
1454	1.4457e+02	5.5383	23.780251	0.000033	0.327605	0.055498	-0.000003
1455	1.4467e+02	5.5291	23.776585	0.000037	0.368555	0.062435	-0.000004
1456	1.4477e+02	5.5178	23.773326	0.000033	0.327605	0.055498	-0.000003
1457	1.4487e+02	5.5093	23.771289	0.000020	0.204753	0.034686	-0.000002
1458	1.4497e+02	5.5010	23.766401	0.000049	0.491407	0.083247	-0.000005
1459	1.4507e+02	5.4913	23.763957	0.000025	0.245703	0.041623	-0.000002
1460	1.4517e+02	5.4768	23.759884	0.000041	0.409506	0.069372	-0.000004
1461	1.4527e+02	5.4688	23.753366	0.000066	0.655209	0.110995	-0.000007
1462	1.4537e+02	5.4559	23.746849	0.000066	0.655209	0.110995	-0.000007
1463	1.4547e+02	5.4484	23.743997	0.000029	0.286654	0.048561	-0.000003
1464	1.4557e+02	5.4389	23.737480	0.000066	0.655209	0.110995	-0.000007
1465	1.4567e+02	5.4266	23.731777	0.000057	0.573308	0.097121	-0.000006
1466	1.4577e+02	5.4185	23.726482	0.000053	0.532358	0.090184	-0.000005
1467	1.4587e+02	5.4078	23.719964	0.000066	0.655209	0.110995	-0.000007
1468	1.4597e+02	5.3997	23.712225	0.000078	0.778061	0.131807	-0.000008
1469	1.4607e+02	5.3869	23.706114	0.000061	0.614259	0.104058	-0.000006
1470	1.4617e+02	5.3800	23.698782	0.000074	0.737110	0.124870	-0.000007
1471	1.4626e+02	5.3677	23.693080	0.000057	0.573308	0.097121	-0.000006
1472	1.4636e+02	5.3588	23.684118	0.000090	0.900913	0.152619	-0.000009
1473	1.4646e+02	5.3481	23.674342	0.000098	0.982814	0.166493	-0.000010
1474	1.4656e+02	5.3403	23.670676	0.000037	0.368555	0.062435	-0.000004
1475	1.4666e+02	5.3271	23.659270	0.000115	1.146616	0.194242	-0.000011
1476	1.4676e+02	5.3213	23.655197	0.000041	0.409506	0.069372	-0.000004
1477	1.4686e+02	5.3087	23.647457	0.000078	0.778061	0.131807	-0.000008
1478	1.4696e+02	5.2990	23.640125	0.000074	0.737110	0.124870	-0.000007
1479	1.4706e+02	5.2914	23.630349	0.000098	0.982814	0.166493	-0.000010
1480	1.4716e+02	5.2787	23.622202	0.000082	0.819012	0.138744	-0.000008
1481	1.4726e+02	5.2693	23.618943	0.000033	0.327605	0.055498	-0.000003
1482	1.4736e+02	5.2599	23.609982	0.000090	0.900913	0.152619	-0.000009
1483	1.4746e+02	5.2497	23.603464	0.000066	0.655209	0.110995	-0.000007
1484	1.4756e+02	5.2398	23.591651	0.000119	1.187567	0.201179	-0.000012
1485	1.4766e+02	5.2273	23.586356	0.000053	0.532358	0.090184	-0.000005
1486	1.4776e+02	5.2178	23.579431	0.000070	0.696160	0.117933	-0.000007
1487	1.4786e+02	5.2087	23.565989	0.000135	1.351369	0.228928	-0.000014
1488	1.4796e+02	5.1995	23.559064	0.000070	0.696160	0.117933	-0.000007
1489	1.4806e+02	5.1865	23.550102	0.000090	0.900913	0.152619	-0.000009
1490	1.4816e+02	5.1795	23.541955	0.000082	0.819012	0.138744	-0.000008
1491	1.4825e+02	5.1691	23.530142	0.000119	1.187567	0.201179	-0.000012
1492	1.4835e+02	5.1623	23.522403	0.000078	0.778061	0.131807	-0.000008
1493	1.4845e+02	5.1491	23.511405	0.000111	1.105666	0.187305	-0.000011
1494	1.4855e+02	5.1386	23.501221	0.000102	1.023764	0.173430	-0.000010
1495	1.4865e+02	5.1298	23.489001	0.000123	1.228517	0.208116	-0.000012
1496	1.4875e+02	5.1134	23.480854	0.000082	0.819012	0.138744	-0.000008
1497	1.4885e+02	5.1103	23.467412	0.000135	1.351369	0.228928	-0.000014
1498	1.4895e+02	5.1009	23.458043	0.000094	0.941863	0.159556	-0.000009
1499	1.4905e+02	5.0918	23.446230	0.000119	1.187567	0.201179	-0.000012
1500	1.4915e+02	5.0796	23.431158	0.000152	1.515171	0.256677	-0.000015
1501	1.4925e+02	5.0703	23.420160	0.000111	1.105666	0.187305	-0.000011
1502	1.4935e+02	5.0600	23.411606	0.000086	0.859962	0.145682	-0.000009
1503	1.4945e+02	5.0497	23.397756	0.000139	1.392320	0.235865	-0.000014
1504	1.4955e+02	5.0401	23.385536	0.000123	1.228517	0.208116	-0.000012
1505	1.4965e+02	5.0295	23.375352	0.000102	1.023764	0.173430	-0.000010
1506	1.4975e+02	5.0208	23.364354	0.000111	1.105666	0.187305	-0.000011
1507	1.4985e+02	5.0082	23.350912	0.000135	1.351369	0.228928	-0.000014
1508	1.4995e+02	4.9992	23.344394	0.000066	0.655209	0.110995	-0.000007
1509	1.5005e+02	4.9885	23.326879	0.000176	1.760875	0.298300	-0.000018
1510	1.5015e+02	4.9807	23.317510	0.000094	0.941863	0.159556	-0.000009
1511	1.5025e+02	4.9722	23.305289	0.000123	1.228517	0.208116	-0.000012
1512	1.5034e+02	4.9624	23.291847	0.000135	1.351369	0.228928	-0.000014
1513	1.5044e+02	4.9508	23.278812	0.000131	1.310419	0.221991	-0.000013
1514	1.5054e+02	4.9422	23.264148	0.000147	1.474221	0.249740	-0.000015
1515	1.5064e+02	4.9318	23.255186	0.000090	0.900913	0.152619	-0.000009
1516	1.5074e+02	4.9223	23.245003	0.000102	1.023764	0.173430	-0.000010
1517	1.5084e+02	4.9121	23.231560	0.000135	1.351369	0.228928	-0.000014
1518	1.5094e+02	4.9026	23.218933	0.000127	1.269468	0.215054	-0.000013
1519	1.5104e+02	4.8912	23.207935	0.000111	1.105666	0.187305	-0.000011
1520	1.5114e+02	4.8820	23.193678	0.000143	1.433270	0.242803	-0.000014
1521	1.5124e+02	4.8700	23.176976	0.000168	1.678974	0.284426	-0.000017
1522	1.5134e+02	4.8620	23.164349	0.000127	1.269468	0.215054	-0.000013
1523	1.5144e+02	4.8508	23.154573	0.000098	0.982814	0.166493	-0.000010
1524	1.5154e+02	4.8403	23.140723	0.000139	1.392320	0.235865	-0.000014
1525	1.5164e+02	4.8313	23.118727	0.000221	2.211331	0.374610	-0.000022
1526	1.5174e+02	4.8200	23.106099	0.000127	1.269468	0.215054	-0.000013
1527	1.5184e+02	4.8098	23.089398	0.000168	1.678974	0.284426	-0.000017
1528	1.5194e+02	4.8046	23.073919	0.000156	1.556122	0.263614	-0.000016
1529	1.5204e+02	4.7929	23.061291	0.000127	1.269468	0.215054	-0.000013
1530	1.5214e+02	4.7832	23.043368	0.000180	1.801826	0.305238	-0.000018
1531	1.5224e+02	4.7686	23.025852	0.000176	1.760875	0.298300	-0.000018
1532	1.5233e+02	4.7607	23.009966	0.000160	1.597073	0.270551	-0.000016
1533	1.5243e+02	4.7511	22.996116	0.000139	1.392320	0.235865	-0.000014
1534	1.5253e+02	4.7416	22.979415	0.000168	1.678974	0.284426	-0.000017
1535	1.5263e+02	4.7353	22.960270	0.000192	1.924677	0.326049	-0.000019
1536	1.5273e+02	4.7224	22.937866	0.000225	2.252282	0.381547	-0.000023
1537	1.5283e+02	4.7121	22.921980	0.000160	1.597073	0.270551	-0.000016
1538	1.5293e+02	4.7008	22.906501	0.000156	1.556122	0.263614	-0.000016
1539	1.5303e+02	4.6926	22.886949	0.000197	1.965628	0.332986	-0.000020
1540	1.5313e+02	4.6851	22.871877	0.000152	1.515171	0.256677	-0.000015
1541	1.5323e+02	4.6716	22.855176	0.000168	1.678974	0.284426	-0.000017
1542	1.5333e+02	4.6633	22.837253	0.000180	1.801826	0.305238	-0.000018
1543	1.5343e+02	4.6535	22.822588	0.000147	1.474221	0.249740	-0.000015
1544	1.5353e+02	4.6436	22.805073	0.000176	1.760875	0.298300	-0.000018
1545	1.5363e+02	4.6336	22.782669	0.000225	2.252282	0.381547	-0.000023
1546	1.5373e+02	4.6221	22.770856	0.000119	1.187567	0.201179	-0.000012
1547	1.5383e+02	4.6151	22.754155	0.000168	1.678974	0.284426	-0.000017
1548	1.5393e+02	4.6029	22.736232	0.000180	1.801826	0.305238	-0.000018
1549	1.5403e+02	4.5940	22.720345	0.000160	1.597073	0.270551	-0.000016
1550	1.5413e+02	4.5839	22.703644	0.000168	1.678974	0.284426	-0.000017
1551	1.5422e+02	4.5724	22.685721	0.000180	1.801826	0.305238	-0.000018
1552	1.5432e+02	4.5620	22.666984	0.000188	1.883727	0.319112	-0.000019
1553	1.5442e+02	4.5538	22.649468	0.000176	1.760875	0.298300	-0.000018
1554	1.5452e+02	4.5437	22.635618	0.000139	1.392320	0.235865	-0.000014
1555	1.5462e+02	4.5304	22.613622	0.000221	2.211331	0.374610	-0.000022
1556	1.5472e+02	4.5240	22.597735	0.000160	1.597073	0.270551	-0.000016
1557	1.5482e+02	4.5129	22.581442	0.000164	1.638023	0.277489	-0.000016
1558	1.5492e+02	4.5023	22.565963	0.000156	1.556122	0.263614	-0.000016
1559	1.5502e+02	4.4949	22.546003	0.000201	2.006578	0.339924	-0.000020
1560	1.5512e+02	4.4833	22.524821	0.000213	2.129430	0.360735	-0.000021
1561	1.5522e+02	4.4746	22.504047	0.000209	2.088480	0.353798	-0.000021
1562	1.5532e+02	4.4636	22.487753	0.000164	1.638023	0.277489	-0.000016
1563	1.5542e+02	4.4557	22.469830	0.000180	1.801826	0.305238	-0.000018
1564	1.5552e+02	4.4438	22.447019	0.000229	2.293232	0.388484	-0.000023
1565	1.5562e+02	4.4338	22.425837	0.000213	2.129430	0.360735	-0.000021
1566	1.5572e+02	4.4240	22.407506	0.000184	1.842776	0.312175	-0.000018
1567	1.5582e+02	4.4149	22.390398	0.000172	1.719924	0.291363	-0.000017
1568	1.5592e+02	4.4036	22.369216	0.000213	2.129430	0.360735	-0.000021
1569	1.5602e+02	4.3945	22.348034	0.000213	2.129430	0.360735	-0.000021
1570	1.5612e+02	4.3835	22.327667	0.000205	2.047529	0.346861	-0.000020
1571	1.5622e+02	4.3752	22.307707	0.000201	2.006578	0.339924	-0.000020
1572	1.5631e+02	4.3640	22.284489	0.000233	2.334183	0.395421	-0.000023
1573	1.5641e+02	4.3561	22.265751	0.000188	1.883727	0.319112	-0.000019
1574	1.5651e+02	4.3462	22.247828	0.000180	1.801826	0.305238	-0.000018
1575	1.5661e+02	4.3325	22.224202	0.000238	2.375134	0.402359	-0.000024
1576	1.5671e+02	4.3235	22.204650	0.000197	1.965628	0.332986	-0.000020
1577	1.5681e+02	4.3147	22.185505	0.000192	1.924677	0.326049	-0.000019
1578	1.5691e+02	4.3037	22.163916	0.000217	2.170381	0.367672	-0.000022
1579	1.5701e+02	4.2973	22.145178	0.000188	1.883727	0.319112	-0.000019
1580	1.5711e+02	4.2827	22.122367	0.000229	2.293232	0.388484	-0.000023
1581	1.5721e+02	4.2747	22.101592	0.000209	2.088480	0.353798	-0.000021
1582	1.5731e+02	4.2642	22.080818	0.000209	2.088480	0.353798	-0.000021
1583	1.5741e+02	4.2523	22.057192	0.000238	2.375134	0.402359	-0.000024
1584	1.5751e+02	4.2437	22.039269	0.000180	1.801826	0.305238	-0.000018
1585	1.5761e+02	4.2342	22.014828	0.000246	2.457035	0.416233	-0.000025
1586	1.5771e+02	4.2257	21.994868	0.000201	2.006578	0.339924	-0.000020
1587	1.5781e+02	4.2139	21.970021	0.000250	2.497985	0.423170	-0.000025
1588	1.5791e+02	4.2061	21.948024	0.000221	2.211331	0.374610	-0.000022
1589	1.5801e+02	4.1959	21.926842	0.000213	2.129430	0.360735	-0.000021
1590	1.5811e+02	4.1890	21.903216	0.000238	2.375134	0.402359	-0.000024
1591	1.5821e+02	4.1748	21.882849	0.000205	2.047529	0.346861	-0.000020
1592	1.5830e+02	4.1647	21.864519	0.000184	1.842776	0.312175	-0.000018
1593	1.5840e+02	4.1529	21.834783	0.000299	2.989392	0.506417	-0.000030
1594	1.5850e+02	4.1448	21.812786	0.000221	2.211331	0.374610	-0.000022
1595	1.5860e+02	4.1364	21.787531	0.000254	2.538936	0.430107	-0.000025
1596	1.5870e+02	4.1249	21.765127	0.000225	2.252282	0.381547	-0.000023
1597	1.5880e+02	4.1128	21.745575	0.000197	1.965628	0.332986	-0.000020
1598	1.5890e+02	4.1068	21.719912	0.000258	2.579887	0.437045	-0.000026
1599	1.5900e+02	4.0945	21.695064	0.000250	2.497985	0.423170	-0.000025
1600	1.5910e+02	4.0849	21.669809	0.000254	2.538936	0.430107	-0.000025
1601	1.5920e+02	4.0742	21.649035	0.000209	2.088480	0.353798	-0.000021
1602	1.5930e+02	4.0650	21.626223	0.000229	2.293232	0.388484	-0.000023
1603	1.5940e+02	4.0553	21.602598	0.000238	2.375134	0.402359	-0.000024
1604	1.5950e+02	4.0459	21.578972	0.000238	2.375134	0.402359	-0.000024
1605	1.5960e+02	4.0331	21.559827	0.000192	1.924677	0.326049	-0.000019
1606	1.5970e+02	4.0260	21.535386	0.000246	2.457035	0.416233	-0.000025
1607	1.5980e+02	4.0206	21.515426	0.000201	2.006578	0.339924	-0.000020
1608	1.5990e+02	4.0061	21.489764	0.000258	2.579887	0.437045	-0.000026
1609	1.6000e+02	3.9958	21.473877	0.000160	1.597073	0.270551	-0.000016
1610	1.6010e+02	3.9849	21.445363	0.000287	2.866541	0.485605	-0.000029
1611	1.6019e+02	3.9760	21.427033	0.000184	1.842776	0.312175	-0.000018
1612	1.6029e+02	3.9629	21.403814	0.000233	2.334183	0.395421	-0.000023
1613	1.6039e+02	3.9580	21.383040	0.000209	2.088480	0.353798	-0.000021
1614	1.6049e+02	3.9452	21.361451	0.000217	2.170381	0.367672	-0.000022
1615	1.6059e+02	3.9339	21.339047	0.000225	2.252282	0.381547	-0.000023
1616	1.6069e+02	3.9266	21.316236	0.000229	2.293232	0.388484	-0.000023
1617	1.6079e+02	3.9132	21.294239	0.000221	2.211331	0.374610	-0.000022
1618	1.6089e+02	3.9053	21.273872	0.000205	2.047529	0.346861	-0.000020
1619	1.6099e+02	3.8968	21.249432	0.000246	2.457035	0.416233	-0.000025
1620	1.6109e+02	3.8848	21.231101	0.000184	1.842776	0.312175	-0.000018
1621	1.6119e+02	3.8734	21.208290	0.000229	2.293232	0.388484	-0.000023
1622	1.6129e+02	3.8638	21.188738	0.000197	1.965628	0.332986	-0.000020
1623	1.6139e+02	3.8570	21.166741	0.000221	2.211331	0.374610	-0.000022
1624	1.6149e+02	3.8476	21.142708	0.000242	2.416084	0.409296	-0.000024
1625	1.6159e+02	3.8367	21.122748	0.000201	2.006578	0.339924	-0.000020
1626	1.6169e+02	3.8261	21.099529	0.000233	2.334183	0.395421	-0.000023
1627	1.6179e+02	3.8163	21.081606	0.000180	1.801826	0.305238	-0.000018
1628	1.6189e+02	3.8064	21.051463	0.000303	3.030343	0.513354	-0.000030
1629	1.6199e+02	3.7988	21.028652	0.000229	2.293232	0.388484	-0.000023
1630	1.6209e+02	3.7859	21.007063	0.000217	2.170381	0.367672	-0.000022
1631	1.6219e+02	3.7752	20.990769	0.000164	1.638023	0.277489	-0.000016
1632	1.6228e+02	3.7676	20.961033	0.000299	2.989392	0.506417	-0.000030
1633	1.6238e+02	3.7591	20.940666	0.000205	2.047529	0.346861	-0.000020
1634	1.6248e+02	3.7477	20.919077	0.000217	2.170381	0.367672	-0.000022
1635	1.6258e+02	3.7385	20.895451	0.000238	2.375134	0.402359	-0.000024
1636	1.6268e+02	3.7281	20.873454	0.000221	2.211331	0.374610	-0.000022
1637	1.6278e+02	3.7160	20.851051	0.000225	2.252282	0.381547	-0.000023
1638	1.6288e+02	3.7053	20.828239	0.000229	2.293232	0.388484	-0.000023
1639	1.6298e+02	3.6983	20.807058	0.000213	2.129430	0.360735	-0.000021
1640	1.6308e+02	3.6861	20.783024	0.000242	2.416084	0.409296	-0.000024
1641	1.6318e+02	3.6757	20.756547	0.000266	2.661788	0.450919	-0.000027
1642	1.6328e+02	3.6657	20.741068	0.000156	1.556122	0.263614	-0.000016
1643	1.6338e+02	3.6580	20.716220	0.000250	2.497985	0.423170	-0.000025
1644	1.6348e+02	3.6474	20.690965	0.000254	2.538936	0.430107	-0.000025
1645	1.6358e+02	3.6388	20.667339	0.000238	2.375134	0.402359	-0.000024
1646	1.6368e+02	3.6291	20.647787	0.000197	1.965628	0.332986	-0.000020
1647	1.6378e+02	3.6161	20.624975	0.000229	2.293232	0.388484	-0.000023
1648	1.6388e+02	3.6076	20.603794	0.000213	2.129430	0.360735	-0.000021
1649	1.6398e+02	3.5989	20.586278	0.000176	1.760875	0.298300	-0.000018
1650	1.6408e+02	3.5879	20.564689	0.000217	2.170381	0.367672	-0.000022
1651	1.6418e+02	3.5795	20.544729	0.000201	2.006578	0.339924	-0.000020
1652	1.6427e+02	3.5680	20.521103	0.000238	2.375134	0.402359	-0.000024
1653	1.6437e+02	3.5584	20.499921	0.000213	2.129430	0.360735	-0.000021
1654	1.6447e+02	3.5476	20.479554	0.000205	2.047529	0.346861	-0.000020
1655	1.6457e+02	3.5390	20.457558	0.000221	2.211331	0.374610	-0.000022
1656	1.6467e+02	3.5288	20.439227	0.000184	1.842776	0.312175	-0.000018
1657	1.6477e+02	3.5187	20.418453	0.000209	2.088480	0.353798	-0.000021
1658	1.6487e+02	3.5073	20.396864	0.000217	2.170381	0.367672	-0.000022
1659	1.6497e+02	3.4995	20.375682	0.000213	2.129430	0.360735	-0.000021
1660	1.6507e+02	3.4921	20.357351	0.000184	1.842776	0.312175	-0.000018
1661	1.6517e+02	3.4803	20.333318	0.000242	2.416084	0.409296	-0.000024
1662	1.6527e+02	3.4682	20.312136	0.000213	2.129430	0.360735	-0.000021
1663	1.6537e+02	3.4603	20.294621	0.000176	1.760875	0.298300	-0.000018
1664	1.6547e+02	3.4489	20.269365	0.000254	2.538936	0.430107	-0.000025
1665	1.6557e+02	3.4402	20.248998	0.000205	2.047529	0.346861	-0.000020
1666	1.6567e+02	3.4299	20.229038	0.000201	2.006578	0.339924	-0.000020
1667	1.6577e+02	3.4196	20.206227	0.000229	2.293232	0.388484	-0.000023
1668	1.6587e+02	3.4081	20.188304	0.000180	1.801826	0.305238	-0.000018
1669	1.6597e+02	3.3978	20.165493	0.000229	2.293232	0.388484	-0.000023
1670	1.6607e+02	3.3871	20.145941	0.000197	1.965628	0.332986	-0.000020
1671	1.6616e+02	3.3779	20.133313	0.000127	1.269468	0.215054	-0.000013
1672	1.6626e+02	3.3687	20.110909	0.000225	2.252282	0.381547	-0.000023
1673	1.6636e+02	3.3590	20.086876	0.000242	2.416084	0.409296	-0.000024
1674	1.6646e+02	3.3472	20.070582	0.000164	1.638023	0.277489	-0.000016
1675	1.6656e+02	3.3386	20.051030	0.000197	1.965628	0.332986	-0.000020
1676	1.6666e+02	3.3302	20.033514	0.000176	1.760875	0.298300	-0.000018
1677	1.6676e+02	3.3192	20.011518	0.000221	2.211331	0.374610	-0.000022
1678	1.6686e+02	3.3074	19.995631	0.000160	1.597073	0.270551	-0.000016
1679	1.6696e+02	3.2999	19.974449	0.000213	2.129430	0.360735	-0.000021
1680	1.6706e+02	3.2882	19.951638	0.000229	2.293232	0.388484	-0.000023
1681	1.6716e+02	3.2806	19.938196	0.000135	1.351369	0.228928	-0.000014
1682	1.6726e+02	3.2676	19.917014	0.000213	2.129430	0.360735	-0.000021
1683	1.6736e+02	3.2599	19.899091	0.000180	1.801826	0.305238	-0.000018
1684	1.6746e+02	3.2481	19.881168	0.000180	1.801826	0.305238	-0.000018
1685	1.6756e+02	3.2384	19.859986	0.000213	2.129430	0.360735	-0.000021
1686	1.6766e+02	3.2330	19.843692	0.000164	1.638023	0.277489	-0.000016
1687	1.6776e+02	3.2217	19.824140	0.000197	1.965628	0.332986	-0.000020
1688	1.6786e+02	3.2110	19.804995	0.000192	1.924677	0.326049	-0.000019
1689	1.6796e+02	3.2001	19.783813	0.000213	2.129430	0.360735	-0.000021
1690	1.6806e+02	3.1884	19.761409	0.000225	2.252282	0.381547	-0.000023
1691	1.6816e+02	3.1791	19.744708	0.000168	1.678974	0.284426	-0.000017
1692	1.6825e+02	3.1699	19.725970	0.000188	1.883727	0.319112	-0.000019
1693	1.6835e+02	3.1608	19.703974	0.000221	2.211331	0.374610	-0.000022
1694	1.6845e+02	3.1489	19.685236	0.000188	1.883727	0.319112	-0.000019
1695	1.6855e+02	3.1409	19.661610	0.000238	2.375134	0.402359	-0.000024
1696	1.6865e+02	3.1280	19.642058	0.000197	1.965628	0.332986	-0.000020
1697	1.6875e+02	3.1218	19.623320	0.000188	1.883727	0.319112	-0.000019
1698	1.6885e+02	3.1091	19.602138	0.000213	2.129430	0.360735	-0.000021
1699	1.6895e+02	3.1010	19.580549	0.000217	2.170381	0.367672	-0.000022
1700	1.6905e+02	3.0914	19.557738	0.000229	2.293232	0.388484	-0.000023
1701	1.6915e+02	3.0779	19.541037	0.000168	1.678974	0.284426	-0.000017
1702	1.6925e+02	3.0700	19.514152	0.000270	2.702738	0.457856	-0.000027
1703	1.6935e+02	3.0602	19.497451	0.000168	1.678974	0.284426	-0.000017
1704	1.6945e+02	3.0492	19.473825	0.000238	2.375134	0.402359	-0.000024
1705	1.6955e+02	3.0383	19.454680	0.000192	1.924677	0.326049	-0.000019
1706	1.6965e+02	3.0302	19.426981	0.000278	2.784639	0.471731	-0.000028
1707	1.6975e+02	3.0207	19.410280	0.000168	1.678974	0.284426	-0.000017
1708	1.6985e+02	3.0106	19.390727	0.000197	1.965628	0.332986	-0.000020
1709	1.6995e+02	3.0001	19.369546	0.000213	2.129430	0.360735	-0.000021
1710	1.7005e+02	2.9893	19.345512	0.000242	2.416084	0.409296	-0.000024
1711	1.7015e+02	2.9781	19.329626	0.000160	1.597073	0.270551	-0.000016
1712	1.7024e+02	2.9714	19.305186	0.000246	2.457035	0.416233	-0.000025
1713	1.7034e+02	2.9617	19.288077	0.000172	1.719924	0.291363	-0.000017
1714	1.7044e+02	2.9510	19.269339	0.000188	1.883727	0.319112	-0.000019
1715	1.7054e+02	2.9429	19.246528	0.000229	2.293232	0.388484	-0.000023
1716	1.7064e+02	2.9314	19.226161	0.000205	2.047529	0.346861	-0.000020
1717	1.7074e+02	2.9200	19.205794	0.000205	2.047529	0.346861	-0.000020
1718	1.7084e+02	2.9106	19.184612	0.000213	2.129430	0.360735	-0.000021
1719	1.7094e+02	2.9005	19.163430	0.000213	2.129430	0.360735	-0.000021
1720	1.7104e+02	2.8905	19.140212	0.000233	2.334183	0.395421	-0.000023
1721	1.7114e+02	2.8820	19.125955	0.000143	1.433270	0.242803	-0.000014
1722	1.7124e+02	2.8719	19.105995	0.000201	2.006578	0.339924	-0.000020
1723	1.7134e+02	2.8628	19.082777	0.000233	2.334183	0.395421	-0.000023
1724	1.7144e+02	2.8516	19.066890	0.000160	1.597073	0.270551	-0.000016
1725	1.7154e+02	2.8413	19.041635	0.000254	2.538936	0.430107	-0.000025
1726	1.7164e+02	2.8320	19.021675	0.000201	2.006578	0.339924	-0.000020
1727	1.7174e+02	2.8205	19.000086	0.000217	2.170381	0.367672	-0.000022
1728	1.7184e+02	2.8130	18.981756	0.000184	1.842776	0.312175	-0.000018
1729	1.7194e+02	2.8005	18.957315	0.000246	2.457035	0.416233	-0.000025
1730	1.7204e+02	2.7898	18.937355	0.000201	2.006578	0.339924	-0.000020
1731	1.7213e+02	2.7822	18.916581	0.000209	2.088480	0.353798	-0.000021
1732	1.7223e+02	2.7701	18.891733	0.000250	2.497985	0.423170	-0.000025
1733	1.7233e+02	2.7630	18.870958	0.000209	2.088480	0.353798	-0.000021
1734	1.7243e+02	2.7508	18.849369	0.000217	2.170381	0.367672	-0.000022
1735	1.7253e+02	2.7428	18.828187	0.000213	2.129430	0.360735	-0.000021
1736	1.7263e+02	2.7346	18.805376	0.000229	2.293232	0.388484	-0.000023
1737	1.7273e+02	2.7204	18.783380	0.000221	2.211331	0.374610	-0.000022
1738	1.7283e+02	2.7095	18.759347	0.000242	2.416084	0.409296	-0.000024
1739	1.7293e+02	2.7015	18.739794	0.000197	1.965628	0.332986	-0.000020
1740	1.7303e+02	2.6920	18.712502	0.000274	2.743689	0.464793	-0.000027
1741	1.7313e+02	2.6806	18.696208	0.000164	1.638023	0.277489	-0.000016
1742	1.7323e+02	2.6705	18.669731	0.000266	2.661788	0.450919	-0.000027
1743	1.7333e+02	2.6598	18.646920	0.000229	2.293232	0.388484	-0.000023
1744	1.7343e+02	2.6522	18.626553	0.000205	2.047529	0.346861	-0.000020
1745	1.7353e+02	2.6407	18.598446	0.000283	2.825590	0.478668	-0.000028
1746	1.7363e+02	2.6334	18.578486	0.000201	2.006578	0.339924	-0.000020
1747	1.7373e+02	2.6244	18.554861	0.000238	2.375134	0.402359	-0.000024
1748	1.7383e+02	2.6124	18.532049	0.000229	2.293232	0.388484	-0.000023
1749	1.7393e+02	2.6017	18.513312	0.000188	1.883727	0.319112	-0.000019
1750	1.7403e+02	2.5941	18.487649	0.000258	2.579887	0.437045	-0.000026
1751	1.7413e+02	2.5831	18.462801	0.000250	2.497985	0.423170	-0.000025
1752	1.7422e+02	2.5704	18.439583	0.000233	2.334183	0.395421	-0.000023
1753	1.7432e+02	2.5607	18.416771	0.000229	2.293232	0.388484	-0.000023
1754	1.7442e+02	2.5546	18.392738	0.000242	2.416084	0.409296	-0.000024
1755	1.7452e+02	2.5420	18.368705	0.000242	2.416084	0.409296	-0.000024
1756	1.7462e+02	2.5320	18.342228	0.000266	2.661788	0.450919	-0.000027
1757	1.7472e+02	2.5224	18.316973	0.000254	2.538936	0.430107	-0.000025
1758	1.7482e+02	2.5138	18.292532	0.000246	2.457035	0.416233	-0.000025
1759	1.7492e+02	2.5037	18.270943	0.000217	2.170381	0.367672	-0.000022
1760	1.7502e+02	2.4934	18.245688	0.000254	2.538936	0.430107	-0.000025
1761	1.7512e+02	2.4830	18.224506	0.000213	2.129430	0.360735	-0.000021
1762	1.7522e+02	2.4736	18.200065	0.000246	2.457035	0.416233	-0.000025
1763	1.7532e+02	2.4619	18.171144	0.000291	2.907491	0.492542	-0.000029
1764	1.7542e+02	2.4546	18.147925	0.000233	2.334183	0.395421	-0.000023
1765	1.7552e+02	2.4451	18.121855	0.000262	2.620837	0.443982	-0.000026
1766	1.7562e+02	2.4351	18.097008	0.000250	2.497985	0.423170	-0.000025
1767	1.7572e+02	2.4233	18.070938	0.000262	2.620837	0.443982	-0.000026
1768	1.7582e+02	2.4133	18.047312	0.000238	2.375134	0.402359	-0.000024
1769	1.7592e+02	2.4030	18.020834	0.000266	2.661788	0.450919	-0.000027
1770	1.7602e+02	2.3916	17.995172	0.000258	2.579887	0.437045	-0.000026
1771	1.7612e+02	2.3829	17.969917	0.000254	2.538936	0.430107	-0.000025
1772	1.7621e+02	2.3718	17.946291	0.000238	2.375134	0.402359	-0.000024
1773	1.7631e+02	2.3634	17.920221	0.000262	2.620837	0.443982	-0.000026
1774	1.7641e+02	2.3544	17.897002	0.000233	2.334183	0.395421	-0.000023
1775	1.7651e+02	2.3441	17.871747	0.000254	2.538936	0.430107	-0.000025
1776	1.7661e+02	2.3333	17.850973	0.000209	2.088480	0.353798	-0.000021
1777	1.7671e+02	2.3231	17.824903	0.000262	2.620837	0.443982	-0.000026
1778	1.7681e+02	2.3127	17.802092	0.000229	2.293232	0.388484	-0.000023
1779	1.7691e+02	2.3027	17.780095	0.000221	2.211331	0.374610	-0.000022
1780	1.7701e+02	2.2947	17.754025	0.000262	2.620837	0.443982	-0.000026
1781	1.7711e+02	2.2831	17.731214	0.000229	2.293232	0.388484	-0.000023
1782	1.7721e+02	2.2720	17.709625	0.000217	2.170381	0.367672	-0.000022
1783	1.7731e+02	2.2625	17.684370	0.000254	2.538936	0.430107	-0.000025
1784	1.7741e+02	2.2530	17.661966	0.000225	2.252282	0.381547	-0.000023
1785	1.7751e+02	2.2439	17.638340	0.000238	2.375134	0.402359	-0.000024
1786	1.7761e+02	2.2340	17.613085	0.000254	2.538936	0.430107	-0.000025
1787	1.7771e+02	2.2266	17.591903	0.000213	2.129430	0.360735	-0.000021
1788	1.7781e+02	2.2155	17.569906	0.000221	2.211331	0.374610	-0.000022
1789	1.7791e+02	2.2056	17.542614	0.000274	2.743689	0.464793	-0.000027
1790	1.7801e+02	2.1946	17.521433	0.000213	2.129430	0.360735	-0.000021
1791	1.7810e+02	2.1825	17.499436	0.000221	2.211331	0.374610	-0.000022
1792	1.7820e+02	2.1746	17.476625	0.000229	2.293232	0.388484	-0.000023
1793	1.7830e+02	2.1638	17.450555	0.000262	2.620837	0.443982	-0.000026
1794	1.7840e+02	2.1535	17.426929	0.000238	2.375134	0.402359	-0.000024
1795	1.7850e+02	2.1411	17.403303	0.000238	2.375134	0.402359	-0.000024
1796	1.7860e+02	2.1343	17.377233	0.000262	2.620837	0.443982	-0.000026
1797	1.7870e+02	2.1246	17.349941	0.000274	2.743689	0.464793	-0.000027
1798	1.7880e+02	2.1144	17.331204	0.000188	1.883727	0.319112	-0.000019
1799	1.7890e+02	2.1047	17.302282	0.000291	2.907491	0.492542	-0.000029
1800	1.7900e+02	2.0965	17.277027	0.000254	2.538936	0.430107	-0.000025
1801	1.7910e+02	2.0845	17.256253	0.000209	2.088480	0.353798	-0.000021
1802	1.7920e+02	2.0753	17.230183	0.000262	2.620837	0.443982	-0.000026
1803	1.7930e+02	2.0700	17.205742	0.000246	2.457035	0.416233	-0.000025
1804	1.7940e+02	2.0562	17.183746	0.000221	2.211331	0.374610	-0.000022
1805	1.7950e+02	2.0440	17.155232	0.000287	2.866541	0.485605	-0.000029
1806	1.7960e+02	2.0341	17.130791	0.000246	2.457035	0.416233	-0.000025
1807	1.7970e+02	2.0267	17.106758	0.000242	2.416084	0.409296	-0.000024
1808	1.7980e+02	2.0153	17.081910	0.000250	2.497985	0.423170	-0.000025
1809	1.7990e+02	2.0049	17.059099	0.000229	2.293232	0.388484	-0.000023
1810	1.8000e+02	1.9947	17.035066	0.000242	2.416084	0.409296	-0.000024
1811	1.8009e+02	1.9859	17.009810	0.000254	2.538936	0.430107	-0.000025
1812	1.8019e+02	1.9749	16.987814	0.000221	2.211331	0.374610	-0.000022
1813	1.8029e+02	1.9643	16.962151	0.000258	2.579887	0.437045	-0.000026
1814	1.8039e+02	1.9552	16.939340	0.000229	2.293232	0.388484	-0.000023
1815	1.8049e+02	1.9446	16.918973	0.000205	2.047529	0.346861	-0.000020
1816	1.8059e+02	1.9350	16.894125	0.000250	2.497985	0.423170	-0.000025
1817	1.8069e+02	1.9244	16.869684	0.000246	2.457035	0.416233	-0.000025
1818	1.8079e+02	1.9146	16.847688	0.000221	2.211331	0.374610	-0.000022
1819	1.8089e+02	1.9057	16.828950	0.000188	1.883727	0.319112	-0.000019
1820	1.8099e+02	1.8948	16.802880	0.000262	2.620837	0.443982	-0.000026
1821	1.8109e+02	1.8854	16.780476	0.000225	2.252282	0.381547	-0.000023
1822	1.8119e+02	1.8737	16.756851	0.000238	2.375134	0.402359	-0.000024
1823	1.8129e+02	1.8676	16.733632	0.000233	2.334183	0.395421	-0.000023
1824	1.8139e+02	1.8559	16.710006	0.000238	2.375134	0.402359	-0.000024
1825	1.8149e+02	1.8482	16.690454	0.000197	1.965628	0.332986	-0.000020
1826	1.8159e+02	1.8349	16.665198	0.000254	2.538936	0.430107	-0.000025
1827	1.8169e+02	1.8257	16.641165	0.000242	2.416084	0.409296	-0.000024
1828	1.8179e+02	1.8161	16.622427	0.000188	1.883727	0.319112	-0.000019
1829	1.8189e+02	1.8037	16.599616	0.000229	2.293232	0.388484	-0.000023
1830	1.8199e+02	1.7957	16.574361	0.000254	2.538936	0.430107	-0.000025
1831	1.8209e+02	1.7853	16.555216	0.000192	1.924677	0.326049	-0.000019
1832	1.8218e+02	1.7776	16.528739	0.000266	2.661788	0.450919	-0.000027
1833	1.8228e+02	1.7681	16.511223	0.000176	1.760875	0.298300	-0.000018
1834	1.8238e+02	1.7544	16.487597	0.000238	2.375134	0.402359	-0.000024
1835	1.8248e+02	1.7493	16.462342	0.000254	2.538936	0.430107	-0.000025
1836	1.8258e+02	1.7361	16.440753	0.000217	2.170381	0.367672	-0.000022
1837	1.8268e+02	1.7271	16.421608	0.000192	1.924677	0.326049	-0.000019
1838	1.8278e+02	1.7166	16.393501	0.000283	2.825590	0.478668	-0.000028
1839	1.8288e+02	1.7065	16.374763	0.000188	1.883727	0.319112	-0.000019
1840	1.8298e+02	1.6953	16.353989	0.000209	2.088480	0.353798	-0.000021
1841	1.8308e+02	1.6866	16.335658	0.000184	1.842776	0.312175	-0.000018
1842	1.8318e+02	1.6763	16.314069	0.000217	2.170381	0.367672	-0.000022
1843	1.8328e+02	1.6674	16.294517	0.000197	1.965628	0.332986	-0.000020
1844	1.8338e+02	1.6589	16.268854	0.000258	2.579887	0.437045	-0.000026
1845	1.8348e+02	1.6473	16.252153	0.000168	1.678974	0.284426	-0.000017
1846	1.8358e+02	1.6372	16.230564	0.000217	2.170381	0.367672	-0.000022
1847	1.8368e+02	1.6286	16.206531	0.000242	2.416084	0.409296	-0.000024
1848	1.8378e+02	1.6164	16.183312	0.000233	2.334183	0.395421	-0.000023
1849	1.8388e+02	1.6064	16.167019	0.000164	1.638023	0.277489	-0.000016
1850	1.8398e+02	1.5968	16.147466	0.000197	1.965628	0.332986	-0.000020
1851	1.8407e+02	1.5880	16.125877	0.000217	2.170381	0.367672	-0.000022
1852	1.8417e+02	1.5757	16.103880	0.000221	2.211331	0.374610	-0.000022
1853	1.8427e+02	1.5675	16.085957	0.000180	1.801826	0.305238	-0.000018
1854	1.8437e+02	1.5572	16.064368	0.000217	2.170381	0.367672	-0.000022
1855	1.8447e+02	1.5459	16.046852	0.000176	1.760875	0.298300	-0.000018
1856	1.8457e+02	1.5387	16.023634	0.000233	2.334183	0.395421	-0.000023
1857	1.8467e+02	1.5276	16.001230	0.000225	2.252282	0.381547	-0.000023
1858	1.8477e+02	1.5159	15.977604	0.000238	2.375134	0.402359	-0.000024
1859	1.8487e+02	1.5069	15.958459	0.000192	1.924677	0.326049	-0.000019
1860	1.8497e+02	1.4980	15.935648	0.000229	2.293232	0.388484	-0.000023
1861	1.8507e+02	1.4870	15.912837	0.000229	2.293232	0.388484	-0.000023
1862	1.8517e+02	1.4783	15.889211	0.000238	2.375134	0.402359	-0.000024
1863	1.8527e+02	1.4690	15.868436	0.000209	2.088480	0.353798	-0.000021
1864	1.8537e+02	1.4569	15.846847	0.000217	2.170381	0.367672	-0.000022
1865	1.8547e+02	1.4493	15.821592	0.000254	2.538936	0.430107	-0.000025
1866	1.8557e+02	1.4366	15.803262	0.000184	1.842776	0.312175	-0.000018
1867	1.8567e+02	1.4281	15.777599	0.000258	2.579887	0.437045	-0.000026
1868	1.8577e+02	1.4214	15.754381	0.000233	2.334183	0.395421	-0.000023
1869	1.8587e+02	1.4061	15.731977	0.000225	2.252282	0.381547	-0.000023
1870	1.8597e+02	1.3981	15.708351	0.000238	2.375134	0.402359	-0.000024
1871	1.8606e+02	1.3878	15.685947	0.000225	2.252282	0.381547	-0.000023
1872	1.8616e+02	1.3782	15.659877	0.000262	2.620837	0.443982	-0.000026
1873	1.8626e+02	1.3657	15.637066	0.000229	2.293232	0.388484	-0.000023
1874	1.8636e+02	1.3607	15.618328	0.000188	1.883727	0.319112	-0.000019
1875	1.8646e+02	1.3480	15.594702	0.000238	2.375134	0.402359	-0.000024
1876	1.8656e+02	1.3393	15.570262	0.000246	2.457035	0.416233	-0.000025
1877	1.8666e+02	1.3307	15.547043	0.000233	2.334183	0.395421	-0.000023
1878	1.8676e+02	1.3211	15.527491	0.000197	1.965628	0.332986	-0.000020
1879	1.8686e+02	1.3072	15.504272	0.000233	2.334183	0.395421	-0.000023
1880	1.8696e+02	1.2991	15.481054	0.000233	2.334183	0.395421	-0.000023
1881	1.8706e+02	1.2863	15.462316	0.000188	1.883727	0.319112	-0.000019
1882	1.8716e+02	1.2795	15.443578	0.000188	1.883727	0.319112	-0.000019
1883	1.8726e+02	1.2701	15.418323	0.000254	2.538936	0.430107	-0.000025
1884	1.8736e+02	1.2579	15.397141	0.000213	2.129430	0.360735	-0.000021
1885	1.8746e+02	1.2505	15.376367	0.000209	2.088480	0.353798	-0.000021
1886	1.8756e+02	1.2405	15.351519	0.000250	2.497985	0.423170	-0.000025
1887	1.8766e+02	1.2293	15.327486	0.000242	2.416084	0.409296	-0.000024
1888	1.8776e+02	1.2215	15.309562	0.000180	1.801826	0.305238	-0.000018
1889	1.8786e+02	1.2099	15.284715	0.000250	2.497985	0.423170	-0.000025
1890	1.8796e+02	1.2004	15.263125	0.000217	2.170381	0.367672	-0.000022
1891	1.8806e+02	1.1914	15.239907	0.000233	2.334183	0.395421	-0.000023
1892	1.8815e+02	1.1800	15.217503	0.000225	2.252282	0.381547	-0.000023
1893	1.8825e+02	1.1720	15.196321	0.000213	2.129430	0.360735	-0.000021
1894	1.8835e+02	1.1625	15.172695	0.000238	2.375134	0.402359	-0.000024
1895	1.8845e+02	1.1497	15.151106	0.000217	2.170381	0.367672	-0.000022
1896	1.8855e+02	1.1414	15.129517	0.000217	2.170381	0.367672	-0.000022
1897	1.8865e+02	1.1288	15.102225	0.000274	2.743689	0.464793	-0.000027
1898	1.8875e+02	1.1197	15.080636	0.000217	2.170381	0.367672	-0.000022
1899	1.8885e+02	1.1111	15.057825	0.000229	2.293232	0.388484	-0.000023
1900	1.8895e+02	1.0989	15.034606	0.000233	2.334183	0.395421	-0.000023
1901	1.8905e+02	1.0914	15.010980	0.000238	2.375134	0.402359	-0.000024
1902	1.8915e+02	1.0809	14.986947	0.000242	2.416084	0.409296	-0.000024
1903	1.8925e+02	1.0737	14.958841	0.000283	2.825590	0.478668	-0.000028
1904	1.8935e+02	1.0590	14.936437	0.000225	2.252282	0.381547	-0.000023
1905	1.8945e+02	1.0477	14.911589	0.000250	2.497985	0.423170	-0.000025
1906	1.8955e+02	1.0394	14.886741	0.000250	2.497985	0.423170	-0.000025
1907	1.8965e+02	1.0310	14.864744	0.000221	2.211331	0.374610	-0.000022
1908	1.8975e+02	1.0213	14.839489	0.000254	2.538936	0.430107	-0.000025
1909	1.8985e+02	1.0118	14.818307	0.000213	2.129430	0.360735	-0.000021
1910	1.8995e+02	1.0024	14.788164	0.000303	3.030343	0.513354	-0.000030
1911	1.9004e+02	0.9930	14.765353	0.000229	2.293232	0.388484	-0.000023
1912	1.9014e+02	0.9801	14.742949	0.000225	2.252282	0.381547	-0.000023
1913	1.9024e+02	0.9696	14.717694	0.000254	2.538936	0.430107	-0.000025
1914	1.9034e+02	0.9610	14.692031	0.000258	2.579887	0.437045	-0.000026
1915	1.9044e+02	0.9486	14.670442	0.000217	2.170381	0.367672	-0.000022
1916	1.9054e+02	0.9399	14.644372	0.000262	2.620837	0.443982	-0.000026
1917	1.9064e+02	0.9315	14.618709	0.000258	2.579887	0.437045	-0.000026
1918	1.9074e+02	0.9224	14.593454	0.000254	2.538936	0.430107	-0.000025
1919	1.9084e+02	0.9090	14.569014	0.000246	2.457035	0.416233	-0.000025
1920	1.9094e+02	0.9007	14.548239	0.000209	2.088480	0.353798	-0.000021
1921	1.9104e+02	0.8928	14.518096	0.000303	3.030343	0.513354	-0.000030
1922	1.9114e+02	0.8830	14.495285	0.000229	2.293232	0.388484	-0.000023
1923	1.9124e+02	0.8739	14.466771	0.000287	2.866541	0.485605	-0.000029
1924	1.9134e+02	0.8624	14.441515	0.000254	2.538936	0.430107	-0.000025
1925	1.9144e+02	0.8517	14.415853	0.000258	2.579887	0.437045	-0.000026
1926	1.9154e+02	0.8425	14.389376	0.000266	2.661788	0.450919	-0.000027
1927	1.9164e+02	0.8321	14.362491	0.000270	2.702738	0.457856	-0.000027
1928	1.9174e+02	0.8199	14.334384	0.000283	2.825590	0.478668	-0.000028
1929	1.9184e+02	0.8121	14.309944	0.000246	2.457035	0.416233	-0.000025
1930	1.9194e+02	0.8045	14.283874	0.000262	2.620837	0.443982	-0.000026
1931	1.9203e+02	0.7902	14.255767	0.000283	2.825590	0.478668	-0.000028
1932	1.9213e+02	0.7813	14.226846	0.000291	2.907491	0.492542	-0.000029
1933	1.9223e+02	0.7699	14.204035	0.000229	2.293232	0.388484	-0.000023
1934	1.9233e+02	0.7619	14.178780	0.000254	2.538936	0.430107	-0.000025
1935	1.9243e+02	0.7516	14.149044	0.000299	2.989392	0.506417	-0.000030
1936	1.9253e+02	0.7440	14.120530	0.000287	2.866541	0.485605	-0.000029
1937	1.9263e+02	0.7296	14.094867	0.000258	2.579887	0.437045	-0.000026
1938	1.9273e+02	0.7216	14.069204	0.000258	2.579887	0.437045	-0.000026
1939	1.9283e+02	0.7139	14.045986	0.000233	2.334183	0.395421	-0.000023
1940	1.9293e+02	0.7031	14.015435	0.000307	3.071293	0.520291	-0.000031
1941	1.9303e+02	0.6905	13.989773	0.000258	2.579887	0.437045	-0.000026
1942	1.9313e+02	0.6820	13.963703	0.000262	2.620837	0.443982	-0.000026
1943	1.9323e+02	0.6741	13.936411	0.000274	2.743689	0.464793	-0.000027
1944	1.9333e+02	0.6612	13.908711	0.000278	2.784639	0.471731	-0.000028
1945	1.9343e+02	0.6486	13.884678	0.000242	2.416084	0.409296	-0.000024
1946	1.9353e+02	0.6420	13.861867	0.000229	2.293232	0.388484	-0.000023
1947	1.9363e+02	0.6316	13.839056	0.000229	2.293232	0.388484	-0.000023
1948	1.9373e+02	0.6234	13.812171	0.000270	2.702738	0.457856	-0.000027
1949	1.9383e+02	0.6140	13.784472	0.000278	2.784639	0.471731	-0.000028
1950	1.9393e+02	0.6008	13.762068	0.000225	2.252282	0.381547	-0.000023
1951	1.9403e+02	0.5927	13.734776	0.000274	2.743689	0.464793	-0.000027
1952	1.9412e+02	0.5834	13.708706	0.000262	2.620837	0.443982	-0.000026
1953	1.9422e+02	0.5732	13.684266	0.000246	2.457035	0.416233	-0.000025
1954	1.9432e+02	0.5644	13.658603	0.000258	2.579887	0.437045	-0.000026
1955	1.9442e+02	0.5533	13.634570	0.000242	2.416084	0.409296	-0.000024
1956	1.9452e+02	0.5460	13.612981	0.000217	2.170381	0.367672	-0.000022
1957	1.9462e+02	0.5349	13.582430	0.000307	3.071293	0.520291	-0.000031
1958	1.9472e+02	0.5231	13.561656	0.000209	2.088480	0.353798	-0.000021
1959	1.9482e+02	0.5144	13.536808	0.000250	2.497985	0.423170	-0.000025
1960	1.9492e+02	0.5036	13.513182	0.000238	2.375134	0.402359	-0.000024
1961	1.9502e+02	0.4929	13.486297	0.000270	2.702738	0.457856	-0.000027
1962	1.9512e+02	0.4808	13.461857	0.000246	2.457035	0.416233	-0.000025
1963	1.9522e+02	0.4721	13.433750	0.000283	2.825590	0.478668	-0.000028
1964	1.9532e+02	0.4615	13.408495	0.000254	2.538936	0.430107	-0.000025
1965	1.9542e+02	0.4517	13.380795	0.000278	2.784639	0.471731	-0.000028
1966	1.9552e+02	0.4442	13.351059	0.000299	2.989392	0.506417	-0.000030
1967	1.9562e+02	0.4351	13.329470	0.000217	2.170381	0.367672	-0.000022
1968	1.9572e+02	0.4223	13.299734	0.000299	2.989392	0.506417	-0.000030
1969	1.9582e+02	0.4123	13.272442	0.000274	2.743689	0.464793	-0.000027
1970	1.9592e+02	0.4031	13.250853	0.000217	2.170381	0.367672	-0.000022
1971	1.9601e+02	0.3943	13.223969	0.000270	2.702738	0.457856	-0.000027
1972	1.9611e+02	0.3842	13.201972	0.000221	2.211331	0.374610	-0.000022
1973	1.9621e+02	0.3718	13.174273	0.000278	2.784639	0.471731	-0.000028
1974	1.9631e+02	0.3680	13.142500	0.000319	3.194145	0.541103	-0.000032
1975	1.9641e+02	0.3516	13.119282	0.000233	2.334183	0.395421	-0.000023
1976	1.9651e+02	0.3421	13.093212	0.000262	2.620837	0.443982	-0.000026
1977	1.9661e+02	0.3358	13.067549	0.000258	2.579887	0.437045	-0.000026
1978	1.9671e+02	0.3226	13.041479	0.000262	2.620837	0.443982	-0.000026
1979	1.9681e+02	0.3117	13.012965	0.000287	2.866541	0.485605	-0.000029
1980	1.9691e+02	0.3033	12.988932	0.000242	2.416084	0.409296	-0.000024
1981	1.9701e+02	0.2969	12.966935	0.000221	2.211331	0.374610	-0.000022
1982	1.9711e+02	0.2841	12.940458	0.000266	2.661788	0.450919	-0.000027
1983	1.9721e+02	0.2743	12.914388	0.000262	2.620837	0.443982	-0.000026
1984	1.9731e+02	0.2625	12.889540	0.000250	2.497985	0.423170	-0.000025
1985	1.9741e+02	0.2546	12.862656	0.000270	2.702738	0.457856	-0.000027
1986	1.9751e+02	0.2450	12.841881	0.000209	2.088480	0.353798	-0.000021
1987	1.9761e+02	0.2361	12.819477	0.000225	2.252282	0.381547	-0.000023
1988	1.9771e+02	0.2245	12.790149	0.000295	2.948442	0.499480	-0.000029
1989	1.9781e+02	0.2145	12.770189	0.000201	2.006578	0.339924	-0.000020
1990	1.9791e+02	0.2032	12.742897	0.000274	2.743689	0.464793	-0.000027
1991	1.9800e+02	0.1936	12.718864	0.000242	2.416084	0.409296	-0.000024
1992	1.9810e+02	0.1830	12.698904	0.000201	2.006578	0.339924	-0.000020
1993	1.9820e+02	0.1732	12.672427	0.000266	2.661788	0.450919	-0.000027
1994	1.9830e+02	0.1648	12.649616	0.000229	2.293232	0.388484	-0.000023
1995	1.9840e+02	0.1533	12.626804	0.000229	2.293232	0.388484	-0.000023
1996	1.9850e+02	0.1438	12.599105	0.000278	2.784639	0.471731	-0.000028
1997	1.9860e+02	0.1328	12.578331	0.000209	2.088480	0.353798	-0.000021
1998	1.9870e+02	0.1248	12.549817	0.000287	2.866541	0.485605	-0.000029
1999	1.9880e+02	0.1142	12.527005	0.000229	2.293232	0.388484	-0.000023
2000	1.9890e+02	0.1087	12.498084	0.000291	2.907491	0.492542	-0.000029
2001	1.9900e+02	0.0948	12.475273	0.000229	2.293232	0.388484	-0.000023
2002	1.9910e+02	0.0819	12.453276	0.000221	2.211331	0.374610	-0.000022
2003	1.9920e+02	0.0743	12.429651	0.000238	2.375134	0.402359	-0.000024
2004	1.9930e+02	0.0651	12.406432	0.000233	2.334183	0.395421	-0.000023
2005	1.9940e+02	0.0539	12.383621	0.000229	2.293232	0.388484	-0.000023
2006	1.9950e+02	0.0453	12.361624	0.000221	2.211331	0.374610	-0.000022
2007	1.9960e+02	0.0368	12.337184	0.000246	2.457035	0.416233	-0.000025
2008	1.9970e+02	0.0246	12.313558	0.000238	2.375134	0.402359	-0.000024
2009	1.9980e+02	0.0170	12.294820	0.000188	1.883727	0.319112	-0.000019
2010	1.9990e+02	0.0063	12.269565	0.000254	2.538936	0.430107	-0.000025
2011	2.0000e+02	-0.0034	12.247161	0.000254	2.538936	0.430107	-0.000023

PMax (uC/cm2):	3.76e+01
Pr (uC/cm2):	3.61e+01
-Pr (uC/cm2):	0.00e+00
PLoss (uC/cm2):	0.00e+00
C (Max-Eff) (nF):	3.77e-01
K (Eff):	6.38e+02
Vert. (+/-Pr) Shift (uC/cm2):	1.80e+01
Offset (uC/cm2):	2.38e+01

A (Loop Area - uC/cm2·Volts):	-1.60e-01



Hysteresis Version: 5.48.1 - Radiant Technologies, Inc., 1999 - 9/12/24

