»»»»»»»»»»»»»»»»»»»»»»»»»»»»»»»»»»»» Hysteresis ««««««««««««««««««««««««««««««««««««
»»»  Executed Version:	5.48.1
»»»  Vision Version:	5.48.4 (R)
»»»  Vision Compiled:	9/18/24
»»»  Driver Version:	5.47.0
»»»  Windows Version:	Windows 8 or 8.1
»»»  Processor Information:	x86 (AMD or Intel) - 32 Processors
»»»  Tester Name:	PMF21124-494 (100V)
»»»  Tester S/N:	PMF21124-494
»»»  Internal Amp Type:	100V RevK 270k
»»»  Internal Amp S/N:	iAB2-596/K     
»»»  Execution Count:	1
»»»»»»»»»»»»»»»»»»»»»»»»»»»»»»»»»»»»»»»»»»««««««««««««««««««««««««««««««««««««««««««

Stored:	6/26/2025 - 15:30:14
Configured:	06/26/25 10:24:47 AM
Executed:	06/26/25 03:29:43 PM

»»»»»»»»»»»»»»»»»»»»»»»»»»»»»»»»»»» Sample Info ««««««««««««««««««««««««««««««««««««
Sample Name:	
Lot Name:	
Wafer Name:	
Die Row/Column:	0/0
Capacitor Number:	0
Sample Area (cm2):	1.00e-04
Sample Thickness (microns):	1.50e-01

Amplifier:	Internal

»»»»»»»»»»»»»»»»»»»»»»»»»»»»»»»»»»» Tester Info «««««««««««««««««««««««««««««««««««
Tester Name:	PMF21124-494 (100V)
Tester Serial Number:	PMF21124-494
Return Signal Amp. Level:	1.9 [Index: 2]

»»»»»»»»»»»»»»»»»»»»»»»»»»»»»»»» Hysteresis Info ««««««««««««««««««««««««««««««««««
Task Name:	Hyst-562
Volts:	10.00
Field:	666.67 (kV/cm)
DCBias:	0.00
DCField:	0.00 (kV/cm)
Hysteresis Period (ms):	2.00e+02
Preset:	Enabled
Preset Delay (ms):	1.00e+03
Profile:	Standard Monopolar

»»»»»»»»»»»»»»»»»»»»»»»»»»»»»»»»»»»»»» Data «««««««««««««««««««««««««««««««««««««««
Points:	2011

Valid Data

Point	Time (ms)	Drive Voltage	Measured Polarization (uC/cm2)	Capacitance (uF)	Normalized Capacitance (uF/cm2)	Dielectric Constant	Instantaneous Current (mA)
   1	0.0000e+00	-0.0060	-10.720441	0.000221	2.210496	0.374468	0.000022
   2	9.9500e-02	0.0055	-10.698445	0.000221	2.210496	0.374468	0.000022
   3	1.9900e-01	0.0146	-10.681744	0.000168	1.678340	0.284318	0.000017
   4	2.9850e-01	0.0222	-10.664635	0.000172	1.719275	0.291253	0.000017
   5	3.9800e-01	0.0349	-10.645083	0.000196	1.964886	0.332861	0.000020
   6	4.9750e-01	0.0431	-10.626752	0.000184	1.842080	0.312057	0.000018
   7	5.9700e-01	0.0554	-10.608829	0.000180	1.801145	0.305122	0.000018
   8	6.9650e-01	0.0642	-10.587648	0.000213	2.128626	0.360599	0.000021
   9	7.9600e-01	0.0736	-10.565651	0.000221	2.210496	0.374468	0.000022
  10	8.9550e-01	0.0854	-10.546099	0.000196	1.964886	0.332861	0.000020
  11	9.9500e-01	0.0969	-10.528176	0.000180	1.801145	0.305122	0.000018
  12	1.0945e+00	0.1064	-10.506994	0.000213	2.128626	0.360599	0.000021
  13	1.1940e+00	0.1141	-10.487034	0.000201	2.005821	0.339795	0.000020
  14	1.2935e+00	0.1259	-10.466667	0.000205	2.046756	0.346730	0.000020
  15	1.3930e+00	0.1337	-10.446707	0.000201	2.005821	0.339795	0.000020
  16	1.4925e+00	0.1452	-10.426747	0.000201	2.005821	0.339795	0.000020
  17	1.5920e+00	0.1537	-10.405565	0.000213	2.128626	0.360599	0.000021
  18	1.6915e+00	0.1645	-10.382754	0.000229	2.292366	0.388337	0.000023
  19	1.7910e+00	0.1755	-10.361572	0.000213	2.128626	0.360599	0.000021
  20	1.8905e+00	0.1852	-10.345279	0.000164	1.637405	0.277384	0.000016
  21	1.9900e+00	0.1949	-10.317172	0.000282	2.824523	0.478487	0.000028
  22	2.0895e+00	0.2035	-10.297620	0.000196	1.964886	0.332861	0.000020
  23	2.1890e+00	0.2142	-10.275623	0.000221	2.210496	0.374468	0.000022
  24	2.2885e+00	0.2245	-10.256885	0.000188	1.883015	0.318991	0.000019
  25	2.3880e+00	0.2353	-10.229186	0.000278	2.783588	0.471553	0.000028
  26	2.4875e+00	0.2449	-10.208412	0.000209	2.087691	0.353664	0.000021
  27	2.5870e+00	0.2535	-10.183156	0.000254	2.537977	0.429945	0.000025
  28	2.6865e+00	0.2672	-10.164011	0.000192	1.923950	0.325926	0.000019
  29	2.7860e+00	0.2764	-10.136312	0.000278	2.783588	0.471553	0.000028
  30	2.8855e+00	0.2848	-10.117574	0.000188	1.883015	0.318991	0.000019
  31	2.9850e+00	0.2970	-10.094763	0.000229	2.292366	0.388337	0.000023
  32	3.0845e+00	0.3042	-10.071952	0.000229	2.292366	0.388337	0.000023
  33	3.1840e+00	0.3123	-10.050770	0.000213	2.128626	0.360599	0.000021
  34	3.2835e+00	0.3220	-10.026330	0.000246	2.456107	0.416076	0.000025
  35	3.3830e+00	0.3344	-9.999852	0.000266	2.660783	0.450749	0.000027
  36	3.4825e+00	0.3432	-9.981522	0.000184	1.842080	0.312057	0.000018
  37	3.5820e+00	0.3565	-9.955859	0.000258	2.578912	0.436880	0.000026
  38	3.6815e+00	0.3626	-9.933455	0.000225	2.251431	0.381403	0.000023
  39	3.7810e+00	0.3731	-9.907386	0.000262	2.619847	0.443814	0.000026
  40	3.8805e+00	0.3845	-9.889055	0.000184	1.842080	0.312057	0.000018
  41	3.9800e+00	0.3931	-9.860948	0.000282	2.824523	0.478487	0.000028
  42	4.0795e+00	0.4041	-9.836101	0.000250	2.497042	0.423010	0.000025
  43	4.1790e+00	0.4153	-9.812882	0.000233	2.333302	0.395272	0.000023
  44	4.2785e+00	0.4219	-9.789256	0.000237	2.374237	0.402207	0.000024
  45	4.3780e+00	0.4345	-9.766038	0.000233	2.333302	0.395272	0.000023
  46	4.4775e+00	0.4443	-9.741597	0.000246	2.456107	0.416076	0.000025
  47	4.5770e+00	0.4498	-9.713490	0.000282	2.824523	0.478487	0.000028
  48	4.6765e+00	0.4633	-9.694345	0.000192	1.923950	0.325926	0.000019
  49	4.7760e+00	0.4750	-9.674386	0.000201	2.005821	0.339795	0.000020
  50	4.8755e+00	0.4858	-9.645872	0.000287	2.865458	0.485422	0.000029
  51	4.9750e+00	0.4932	-9.624282	0.000217	2.169561	0.367534	0.000022
  52	5.0745e+00	0.5067	-9.603508	0.000209	2.087691	0.353664	0.000021
  53	5.1740e+00	0.5111	-9.574179	0.000295	2.947328	0.499291	0.000029
  54	5.2735e+00	0.5223	-9.549739	0.000246	2.456107	0.416076	0.000025
  55	5.3730e+00	0.5331	-9.530186	0.000196	1.964886	0.332861	0.000020
  56	5.4725e+00	0.5429	-9.501672	0.000287	2.865458	0.485422	0.000029
  57	5.5720e+00	0.5553	-9.477639	0.000242	2.415172	0.409141	0.000024
  58	5.6715e+00	0.5627	-9.456865	0.000209	2.087691	0.353664	0.000021
  59	5.7710e+00	0.5750	-9.427943	0.000291	2.906393	0.492356	0.000029
  60	5.8705e+00	0.5822	-9.402281	0.000258	2.578912	0.436880	0.000026
  61	5.9700e+00	0.5918	-9.379877	0.000225	2.251431	0.381403	0.000023
  62	6.0695e+00	0.6028	-9.354622	0.000254	2.537977	0.429945	0.000025
  63	6.1690e+00	0.6132	-9.327737	0.000270	2.701718	0.457683	0.000027
  64	6.2685e+00	0.6241	-9.308592	0.000192	1.923950	0.325926	0.000019
  65	6.3680e+00	0.6352	-9.282522	0.000262	2.619847	0.443814	0.000026
  66	6.4675e+00	0.6445	-9.260118	0.000225	2.251431	0.381403	0.000023
  67	6.5670e+00	0.6537	-9.237307	0.000229	2.292366	0.388337	0.000023
  68	6.6665e+00	0.6635	-9.213274	0.000242	2.415172	0.409141	0.000024
  69	6.7660e+00	0.6706	-9.186389	0.000270	2.701718	0.457683	0.000027
  70	6.8655e+00	0.6783	-9.160319	0.000262	2.619847	0.443814	0.000026
  71	6.9650e+00	0.6948	-9.137508	0.000229	2.292366	0.388337	0.000023
  72	7.0645e+00	0.7024	-9.115104	0.000225	2.251431	0.381403	0.000023
  73	7.1640e+00	0.7121	-9.082517	0.000327	3.274809	0.554768	0.000033
  74	7.2635e+00	0.7191	-9.060520	0.000221	2.210496	0.374468	0.000022
  75	7.3630e+00	0.7308	-9.030784	0.000299	2.988263	0.506226	0.000030
  76	7.4625e+00	0.7417	-9.007566	0.000233	2.333302	0.395272	0.000023
  77	7.5620e+00	0.7522	-8.981496	0.000262	2.619847	0.443814	0.000026
  78	7.6615e+00	0.7632	-8.955833	0.000258	2.578912	0.436880	0.000026
  79	7.7610e+00	0.7714	-8.930171	0.000258	2.578912	0.436880	0.000026
  80	7.8605e+00	0.7825	-8.906952	0.000233	2.333302	0.395272	0.000023
  81	7.9600e+00	0.7871	-8.882104	0.000250	2.497042	0.423010	0.000025
  82	8.0595e+00	0.8016	-8.856849	0.000254	2.537977	0.429945	0.000025
  83	8.1590e+00	0.8128	-8.830372	0.000266	2.660783	0.450749	0.000027
  84	8.2585e+00	0.8205	-8.802265	0.000282	2.824523	0.478487	0.000028
  85	8.3580e+00	0.8324	-8.779861	0.000225	2.251431	0.381403	0.000023
  86	8.4575e+00	0.8430	-8.750125	0.000299	2.988263	0.506226	0.000030
  87	8.5570e+00	0.8511	-8.723648	0.000266	2.660783	0.450749	0.000027
  88	8.6565e+00	0.8627	-8.695949	0.000278	2.783588	0.471553	0.000028
  89	8.7560e+00	0.8727	-8.670694	0.000254	2.537977	0.429945	0.000025
  90	8.8555e+00	0.8810	-8.642994	0.000278	2.783588	0.471553	0.000028
  91	8.9550e+00	0.8901	-8.614888	0.000282	2.824523	0.478487	0.000028
  92	9.0545e+00	0.9027	-8.592484	0.000225	2.251431	0.381403	0.000023
  93	9.1540e+00	0.9127	-8.566007	0.000266	2.660783	0.450749	0.000027
  94	9.2535e+00	0.9219	-8.541566	0.000246	2.456107	0.416076	0.000025
  95	9.3530e+00	0.9310	-8.520791	0.000209	2.087691	0.353664	0.000021
  96	9.4525e+00	0.9413	-8.488204	0.000327	3.274809	0.554768	0.000033
  97	9.5520e+00	0.9521	-8.467022	0.000213	2.128626	0.360599	0.000021
  98	9.6515e+00	0.9610	-8.441767	0.000254	2.537977	0.429945	0.000025
  99	9.7510e+00	0.9681	-8.413253	0.000287	2.865458	0.485422	0.000029
 100	9.8505e+00	0.9811	-8.385961	0.000274	2.742653	0.464618	0.000027
 101	9.9500e+00	0.9921	-8.365187	0.000209	2.087691	0.353664	0.000021
 102	1.0050e+01	1.0003	-8.337895	0.000274	2.742653	0.464618	0.000027
 103	1.0149e+01	1.0096	-8.313861	0.000242	2.415172	0.409141	0.000024
 104	1.0248e+01	1.0189	-8.285347	0.000287	2.865458	0.485422	0.000029
 105	1.0348e+01	1.0283	-8.264980	0.000205	2.046756	0.346730	0.000020
 106	1.0447e+01	1.0388	-8.236466	0.000287	2.865458	0.485422	0.000029
 107	1.0547e+01	1.0505	-8.214470	0.000221	2.210496	0.374468	0.000022
 108	1.0646e+01	1.0611	-8.192473	0.000221	2.210496	0.374468	0.000022
 109	1.0746e+01	1.0697	-8.170477	0.000221	2.210496	0.374468	0.000022
 110	1.0845e+01	1.0812	-8.146036	0.000246	2.456107	0.416076	0.000025
 111	1.0945e+01	1.0924	-8.121596	0.000246	2.456107	0.416076	0.000025
 112	1.1044e+01	1.1021	-8.100007	0.000217	2.169561	0.367534	0.000022
 113	1.1144e+01	1.1105	-8.078825	0.000213	2.128626	0.360599	0.000021
 114	1.1243e+01	1.1201	-8.054384	0.000246	2.456107	0.416076	0.000025
 115	1.1343e+01	1.1317	-8.028722	0.000258	2.578912	0.436880	0.000026
 116	1.1443e+01	1.1391	-8.006318	0.000225	2.251431	0.381403	0.000023
 117	1.1542e+01	1.1510	-7.986765	0.000196	1.964886	0.332861	0.000020
 118	1.1642e+01	1.1597	-7.961103	0.000258	2.578912	0.436880	0.000026
 119	1.1741e+01	1.1700	-7.942365	0.000188	1.883015	0.318991	0.000019
 120	1.1841e+01	1.1806	-7.917517	0.000250	2.497042	0.423010	0.000025
 121	1.1940e+01	1.1882	-7.891855	0.000258	2.578912	0.436880	0.000026
 122	1.2040e+01	1.1992	-7.869043	0.000229	2.292366	0.388337	0.000023
 123	1.2139e+01	1.2098	-7.849898	0.000192	1.923950	0.325926	0.000019
 124	1.2239e+01	1.2185	-7.824236	0.000258	2.578912	0.436880	0.000026
 125	1.2338e+01	1.2297	-7.802647	0.000217	2.169561	0.367534	0.000022
 126	1.2438e+01	1.2410	-7.781872	0.000209	2.087691	0.353664	0.000021
 127	1.2537e+01	1.2482	-7.759876	0.000221	2.210496	0.374468	0.000022
 128	1.2636e+01	1.2595	-7.738286	0.000217	2.169561	0.367534	0.000022
 129	1.2736e+01	1.2679	-7.717105	0.000213	2.128626	0.360599	0.000021
 130	1.2835e+01	1.2785	-7.694701	0.000225	2.251431	0.381403	0.000023
 131	1.2935e+01	1.2907	-7.669853	0.000250	2.497042	0.423010	0.000025
 132	1.3034e+01	1.2972	-7.648671	0.000213	2.128626	0.360599	0.000021
 133	1.3134e+01	1.3097	-7.626675	0.000221	2.210496	0.374468	0.000022
 134	1.3233e+01	1.3189	-7.607529	0.000192	1.923950	0.325926	0.000019
 135	1.3333e+01	1.3288	-7.582274	0.000254	2.537977	0.429945	0.000025
 136	1.3432e+01	1.3377	-7.561500	0.000209	2.087691	0.353664	0.000021
 137	1.3532e+01	1.3498	-7.540318	0.000213	2.128626	0.360599	0.000021
 138	1.3632e+01	1.3580	-7.516692	0.000237	2.374237	0.402207	0.000024
 139	1.3731e+01	1.3676	-7.493474	0.000233	2.333302	0.395272	0.000023
 140	1.3831e+01	1.3778	-7.474736	0.000188	1.883015	0.318991	0.000019
 141	1.3930e+01	1.3873	-7.451925	0.000229	2.292366	0.388337	0.000023
 142	1.4030e+01	1.3981	-7.432780	0.000192	1.923950	0.325926	0.000019
 143	1.4129e+01	1.4081	-7.412412	0.000205	2.046756	0.346730	0.000020
 144	1.4229e+01	1.4169	-7.387565	0.000250	2.497042	0.423010	0.000025
 145	1.4328e+01	1.4283	-7.366790	0.000209	2.087691	0.353664	0.000021
 146	1.4428e+01	1.4346	-7.343572	0.000233	2.333302	0.395272	0.000023
 147	1.4527e+01	1.4488	-7.322797	0.000209	2.087691	0.353664	0.000021
 148	1.4627e+01	1.4578	-7.297542	0.000254	2.537977	0.429945	0.000025
 149	1.4726e+01	1.4704	-7.275953	0.000217	2.169561	0.367534	0.000022
 150	1.4825e+01	1.4802	-7.252734	0.000233	2.333302	0.395272	0.000023
 151	1.4925e+01	1.4867	-7.231960	0.000209	2.087691	0.353664	0.000021
 152	1.5024e+01	1.4966	-7.213629	0.000184	1.842080	0.312057	0.000018
 153	1.5124e+01	1.5068	-7.190818	0.000229	2.292366	0.388337	0.000023
 154	1.5223e+01	1.5186	-7.171673	0.000192	1.923950	0.325926	0.000019
 155	1.5323e+01	1.5273	-7.146010	0.000258	2.578912	0.436880	0.000026
 156	1.5422e+01	1.5368	-7.127680	0.000184	1.842080	0.312057	0.000018
 157	1.5522e+01	1.5492	-7.109757	0.000180	1.801145	0.305122	0.000018
 158	1.5621e+01	1.5562	-7.088575	0.000213	2.128626	0.360599	0.000021
 159	1.5721e+01	1.5676	-7.074725	0.000139	1.391794	0.235776	0.000014
 160	1.5820e+01	1.5808	-7.049063	0.000258	2.578912	0.436880	0.000026
 161	1.5920e+01	1.5887	-7.031547	0.000176	1.760210	0.298188	0.000018
 162	1.6020e+01	1.5972	-7.010773	0.000209	2.087691	0.353664	0.000021
 163	1.6119e+01	1.6062	-6.986739	0.000242	2.415172	0.409141	0.000024
 164	1.6218e+01	1.6177	-6.965558	0.000213	2.128626	0.360599	0.000021
 165	1.6318e+01	1.6270	-6.941932	0.000237	2.374237	0.402207	0.000024
 166	1.6418e+01	1.6362	-6.925231	0.000168	1.678340	0.284318	0.000017
 167	1.6517e+01	1.6495	-6.908122	0.000172	1.719275	0.291253	0.000017
 168	1.6616e+01	1.6577	-6.887755	0.000205	2.046756	0.346730	0.000020
 169	1.6716e+01	1.6671	-6.866166	0.000217	2.169561	0.367534	0.000022
 170	1.6816e+01	1.6763	-6.846206	0.000201	2.005821	0.339795	0.000020
 171	1.6915e+01	1.6876	-6.829098	0.000172	1.719275	0.291253	0.000017
 172	1.7015e+01	1.6972	-6.808323	0.000209	2.087691	0.353664	0.000021
 173	1.7114e+01	1.7080	-6.790808	0.000176	1.760210	0.298188	0.000018
 174	1.7213e+01	1.7152	-6.768404	0.000225	2.251431	0.381403	0.000023
 175	1.7313e+01	1.7268	-6.753332	0.000151	1.514599	0.256580	0.000015
 176	1.7413e+01	1.7365	-6.729299	0.000242	2.415172	0.409141	0.000024
 177	1.7512e+01	1.7474	-6.710154	0.000192	1.923950	0.325926	0.000019
 178	1.7611e+01	1.7551	-6.689379	0.000209	2.087691	0.353664	0.000021
 179	1.7711e+01	1.7675	-6.667790	0.000217	2.169561	0.367534	0.000022
 180	1.7811e+01	1.7776	-6.649460	0.000184	1.842080	0.312057	0.000018
 181	1.7910e+01	1.7880	-6.631537	0.000180	1.801145	0.305122	0.000018
 182	1.8009e+01	1.7960	-6.603023	0.000287	2.865458	0.485422	0.000029
 183	1.8109e+01	1.8073	-6.587951	0.000151	1.514599	0.256580	0.000015
 184	1.8209e+01	1.8173	-6.564733	0.000233	2.333302	0.395272	0.000023
 185	1.8308e+01	1.8269	-6.544365	0.000205	2.046756	0.346730	0.000020
 186	1.8407e+01	1.8353	-6.522776	0.000217	2.169561	0.367534	0.000022
 187	1.8507e+01	1.8467	-6.506483	0.000164	1.637405	0.277384	0.000016
 188	1.8607e+01	1.8566	-6.480413	0.000262	2.619847	0.443814	0.000026
 189	1.8706e+01	1.8667	-6.458416	0.000221	2.210496	0.374468	0.000022
 190	1.8805e+01	1.8778	-6.439678	0.000188	1.883015	0.318991	0.000019
 191	1.8905e+01	1.8871	-6.419311	0.000205	2.046756	0.346730	0.000020
 192	1.9005e+01	1.8969	-6.393241	0.000262	2.619847	0.443814	0.000026
 193	1.9104e+01	1.9089	-6.372060	0.000213	2.128626	0.360599	0.000021
 194	1.9203e+01	1.9144	-6.348026	0.000242	2.415172	0.409141	0.000024
 195	1.9303e+01	1.9275	-6.326437	0.000217	2.169561	0.367534	0.000022
 196	1.9402e+01	1.9357	-6.308514	0.000180	1.801145	0.305122	0.000018
 197	1.9502e+01	1.9483	-6.283666	0.000250	2.497042	0.423010	0.000025
 198	1.9602e+01	1.9540	-6.257596	0.000262	2.619847	0.443814	0.000026
 199	1.9701e+01	1.9646	-6.239673	0.000180	1.801145	0.305122	0.000018
 200	1.9800e+01	1.9755	-6.214825	0.000250	2.497042	0.423010	0.000025
 201	1.9900e+01	1.9880	-6.191607	0.000233	2.333302	0.395272	0.000023
 202	2.0000e+01	1.9952	-6.165944	0.000258	2.578912	0.436880	0.000026
 203	2.0099e+01	2.0069	-6.148836	0.000172	1.719275	0.291253	0.000017
 204	2.0198e+01	2.0157	-6.124395	0.000246	2.456107	0.416076	0.000025
 205	2.0298e+01	2.0254	-6.103213	0.000213	2.128626	0.360599	0.000021
 206	2.0398e+01	2.0325	-6.077551	0.000258	2.578912	0.436880	0.000026
 207	2.0497e+01	2.0458	-6.052703	0.000250	2.497042	0.423010	0.000025
 208	2.0596e+01	2.0560	-6.028670	0.000242	2.415172	0.409141	0.000024
 209	2.0696e+01	2.0644	-6.007488	0.000213	2.128626	0.360599	0.000021
 210	2.0796e+01	2.0773	-5.984677	0.000229	2.292366	0.388337	0.000023
 211	2.0895e+01	2.0865	-5.960644	0.000242	2.415172	0.409141	0.000024
 212	2.0994e+01	2.0930	-5.938240	0.000225	2.251431	0.381403	0.000023
 213	2.1094e+01	2.1050	-5.908911	0.000295	2.947328	0.499291	0.000029
 214	2.1194e+01	2.1175	-5.888544	0.000205	2.046756	0.346730	0.000020
 215	2.1293e+01	2.1244	-5.864511	0.000242	2.415172	0.409141	0.000024
 216	2.1392e+01	2.1331	-5.842922	0.000217	2.169561	0.367534	0.000022
 217	2.1492e+01	2.1433	-5.821332	0.000217	2.169561	0.367534	0.000022
 218	2.1591e+01	2.1590	-5.794448	0.000270	2.701718	0.457683	0.000027
 219	2.1691e+01	2.1641	-5.775710	0.000188	1.883015	0.318991	0.000019
 220	2.1791e+01	2.1747	-5.751677	0.000242	2.415172	0.409141	0.000024
 221	2.1890e+01	2.1845	-5.728051	0.000237	2.374237	0.402207	0.000024
 222	2.1989e+01	2.1943	-5.700352	0.000278	2.783588	0.471553	0.000028
 223	2.2089e+01	2.2036	-5.677540	0.000229	2.292366	0.388337	0.000023
 224	2.2189e+01	2.2166	-5.653507	0.000242	2.415172	0.409141	0.000024
 225	2.2288e+01	2.2243	-5.631918	0.000217	2.169561	0.367534	0.000022
 226	2.2387e+01	2.2339	-5.605034	0.000270	2.701718	0.457683	0.000027
 227	2.2487e+01	2.2437	-5.577334	0.000278	2.783588	0.471553	0.000028
 228	2.2587e+01	2.2526	-5.556967	0.000205	2.046756	0.346730	0.000020
 229	2.2686e+01	2.2655	-5.535378	0.000217	2.169561	0.367534	0.000022
 230	2.2785e+01	2.2755	-5.509715	0.000258	2.578912	0.436880	0.000026
 231	2.2885e+01	2.2845	-5.485275	0.000246	2.456107	0.416076	0.000025
 232	2.2985e+01	2.2955	-5.464093	0.000213	2.128626	0.360599	0.000021
 233	2.3084e+01	2.3039	-5.440874	0.000233	2.333302	0.395272	0.000023
 234	2.3183e+01	2.3160	-5.416434	0.000246	2.456107	0.416076	0.000025
 235	2.3283e+01	2.3246	-5.391993	0.000246	2.456107	0.416076	0.000025
 236	2.3383e+01	2.3341	-5.367960	0.000242	2.415172	0.409141	0.000024
 237	2.3482e+01	2.3419	-5.344742	0.000233	2.333302	0.395272	0.000023
 238	2.3581e+01	2.3526	-5.323152	0.000217	2.169561	0.367534	0.000022
 239	2.3681e+01	2.3658	-5.294638	0.000287	2.865458	0.485422	0.000029
 240	2.3780e+01	2.3751	-5.271013	0.000237	2.374237	0.402207	0.000024
 241	2.3880e+01	2.3822	-5.246979	0.000242	2.415172	0.409141	0.000024
 242	2.3980e+01	2.3928	-5.213985	0.000332	3.315744	0.561702	0.000033
 243	2.4079e+01	2.4041	-5.192396	0.000217	2.169561	0.367534	0.000022
 244	2.4178e+01	2.4148	-5.165104	0.000274	2.742653	0.464618	0.000027
 245	2.4278e+01	2.4242	-5.143107	0.000221	2.210496	0.374468	0.000022
 246	2.4378e+01	2.4329	-5.121518	0.000217	2.169561	0.367534	0.000022
 247	2.4477e+01	2.4419	-5.094226	0.000274	2.742653	0.464618	0.000027
 248	2.4576e+01	2.4536	-5.070600	0.000237	2.374237	0.402207	0.000024
 249	2.4676e+01	2.4628	-5.046974	0.000237	2.374237	0.402207	0.000024
 250	2.4776e+01	2.4723	-5.017238	0.000299	2.988263	0.506226	0.000030
 251	2.4875e+01	2.4828	-4.996871	0.000205	2.046756	0.346730	0.000020
 252	2.4974e+01	2.4903	-4.969579	0.000274	2.742653	0.464618	0.000027
 253	2.5074e+01	2.5045	-4.943102	0.000266	2.660783	0.450749	0.000027
 254	2.5174e+01	2.5131	-4.915810	0.000274	2.742653	0.464618	0.000027
 255	2.5273e+01	2.5215	-4.892184	0.000237	2.374237	0.402207	0.000024
 256	2.5372e+01	2.5304	-4.864077	0.000282	2.824523	0.478487	0.000028
 257	2.5472e+01	2.5414	-4.836785	0.000274	2.742653	0.464618	0.000027
 258	2.5572e+01	2.5536	-4.810716	0.000262	2.619847	0.443814	0.000026
 259	2.5671e+01	2.5640	-4.786275	0.000246	2.456107	0.416076	0.000025
 260	2.5770e+01	2.5719	-4.766315	0.000201	2.005821	0.339795	0.000020
 261	2.5870e+01	2.5819	-4.739023	0.000274	2.742653	0.464618	0.000027
 262	2.5970e+01	2.5923	-4.715397	0.000237	2.374237	0.402207	0.000024
 263	2.6069e+01	2.6030	-4.688920	0.000266	2.660783	0.450749	0.000027
 264	2.6169e+01	2.6096	-4.665702	0.000233	2.333302	0.395272	0.000023
 265	2.6268e+01	2.6220	-4.637188	0.000287	2.865458	0.485422	0.000029
 266	2.6367e+01	2.6324	-4.615598	0.000217	2.169561	0.367534	0.000022
 267	2.6467e+01	2.6405	-4.591158	0.000246	2.456107	0.416076	0.000025
 268	2.6567e+01	2.6524	-4.566717	0.000246	2.456107	0.416076	0.000025
 269	2.6666e+01	2.6627	-4.544314	0.000225	2.251431	0.381403	0.000023
 270	2.6765e+01	2.6727	-4.516614	0.000278	2.783588	0.471553	0.000028
 271	2.6865e+01	2.6821	-4.492174	0.000246	2.456107	0.416076	0.000025
 272	2.6965e+01	2.6900	-4.469362	0.000229	2.292366	0.388337	0.000023
 273	2.7064e+01	2.7009	-4.447366	0.000221	2.210496	0.374468	0.000022
 274	2.7163e+01	2.7086	-4.423333	0.000242	2.415172	0.409141	0.000024
 275	2.7263e+01	2.7203	-4.399707	0.000237	2.374237	0.402207	0.000024
 276	2.7363e+01	2.7309	-4.377303	0.000225	2.251431	0.381403	0.000023
 277	2.7462e+01	2.7416	-4.354085	0.000233	2.333302	0.395272	0.000023
 278	2.7561e+01	2.7532	-4.330459	0.000237	2.374237	0.402207	0.000024
 279	2.7661e+01	2.7630	-4.310092	0.000205	2.046756	0.346730	0.000020
 280	2.7761e+01	2.7706	-4.288095	0.000221	2.210496	0.374468	0.000022
 281	2.7860e+01	2.7824	-4.261210	0.000270	2.701718	0.457683	0.000027
 282	2.7959e+01	2.7911	-4.244102	0.000172	1.719275	0.291253	0.000017
 283	2.8059e+01	2.8019	-4.220476	0.000237	2.374237	0.402207	0.000024
 284	2.8159e+01	2.8098	-4.198072	0.000225	2.251431	0.381403	0.000023
 285	2.8258e+01	2.8220	-4.176483	0.000217	2.169561	0.367534	0.000022
 286	2.8358e+01	2.8311	-4.155301	0.000213	2.128626	0.360599	0.000021
 287	2.8457e+01	2.8419	-4.132083	0.000233	2.333302	0.395272	0.000023
 288	2.8556e+01	2.8515	-4.113345	0.000188	1.883015	0.318991	0.000019
 289	2.8656e+01	2.8593	-4.086868	0.000266	2.660783	0.450749	0.000027
 290	2.8756e+01	2.8736	-4.068945	0.000180	1.801145	0.305122	0.000018
 291	2.8855e+01	2.8816	-4.045726	0.000233	2.333302	0.395272	0.000023
 292	2.8954e+01	2.8886	-4.027396	0.000184	1.842080	0.312057	0.000018
 293	2.9054e+01	2.9012	-4.002955	0.000246	2.456107	0.416076	0.000025
 294	2.9154e+01	2.9096	-3.982995	0.000201	2.005821	0.339795	0.000020
 295	2.9253e+01	2.9217	-3.963036	0.000201	2.005821	0.339795	0.000020
 296	2.9352e+01	2.9315	-3.939410	0.000237	2.374237	0.402207	0.000024
 297	2.9452e+01	2.9399	-3.920672	0.000188	1.883015	0.318991	0.000019
 298	2.9552e+01	2.9503	-3.897046	0.000237	2.374237	0.402207	0.000024
 299	2.9651e+01	2.9599	-3.877494	0.000196	1.964886	0.332861	0.000020
 300	2.9750e+01	2.9715	-3.853868	0.000237	2.374237	0.402207	0.000024
 301	2.9850e+01	2.9804	-3.835945	0.000180	1.801145	0.305122	0.000018
 302	2.9950e+01	2.9897	-3.812319	0.000237	2.374237	0.402207	0.000024
 303	3.0049e+01	2.9992	-3.788286	0.000242	2.415172	0.409141	0.000024
 304	3.0148e+01	3.0099	-3.771177	0.000172	1.719275	0.291253	0.000017
 305	3.0248e+01	3.0199	-3.749181	0.000221	2.210496	0.374468	0.000022
 306	3.0348e+01	3.0287	-3.729221	0.000201	2.005821	0.339795	0.000020
 307	3.0447e+01	3.0383	-3.712927	0.000164	1.637405	0.277384	0.000016
 308	3.0547e+01	3.0516	-3.689709	0.000233	2.333302	0.395272	0.000023
 309	3.0646e+01	3.0608	-3.664861	0.000250	2.497042	0.423010	0.000025
 310	3.0745e+01	3.0711	-3.648160	0.000168	1.678340	0.284318	0.000017
 311	3.0845e+01	3.0803	-3.625756	0.000225	2.251431	0.381403	0.000023
 312	3.0945e+01	3.0882	-3.606204	0.000196	1.964886	0.332861	0.000020
 313	3.1044e+01	3.1004	-3.581763	0.000246	2.456107	0.416076	0.000025
 314	3.1143e+01	3.1129	-3.562211	0.000196	1.964886	0.332861	0.000020
 315	3.1243e+01	3.1194	-3.541843	0.000205	2.046756	0.346730	0.000020
 316	3.1343e+01	3.1310	-3.516588	0.000254	2.537977	0.429945	0.000025
 317	3.1442e+01	3.1390	-3.498258	0.000184	1.842080	0.312057	0.000018
 318	3.1541e+01	3.1484	-3.478298	0.000201	2.005821	0.339795	0.000020
 319	3.1641e+01	3.1611	-3.455080	0.000233	2.333302	0.395272	0.000023
 320	3.1741e+01	3.1709	-3.437156	0.000180	1.801145	0.305122	0.000018
 321	3.1840e+01	3.1783	-3.415975	0.000213	2.128626	0.360599	0.000021
 322	3.1939e+01	3.1903	-3.395200	0.000209	2.087691	0.353664	0.000021
 323	3.2039e+01	3.1991	-3.375648	0.000196	1.964886	0.332861	0.000020
 324	3.2139e+01	3.2097	-3.360983	0.000147	1.473664	0.249645	0.000015
 325	3.2238e+01	3.2166	-3.338987	0.000221	2.210496	0.374468	0.000022
 326	3.2337e+01	3.2312	-3.320656	0.000184	1.842080	0.312057	0.000018
 327	3.2437e+01	3.2401	-3.299067	0.000217	2.169561	0.367534	0.000022
 328	3.2536e+01	3.2500	-3.278700	0.000205	2.046756	0.346730	0.000020
 329	3.2636e+01	3.2603	-3.261999	0.000168	1.678340	0.284318	0.000017
 330	3.2736e+01	3.2671	-3.240817	0.000213	2.128626	0.360599	0.000021
 331	3.2835e+01	3.2797	-3.222487	0.000184	1.842080	0.312057	0.000018
 332	3.2934e+01	3.2893	-3.204157	0.000184	1.842080	0.312057	0.000018
 333	3.3034e+01	3.3002	-3.182160	0.000221	2.210496	0.374468	0.000022
 334	3.3133e+01	3.3103	-3.165459	0.000168	1.678340	0.284318	0.000017
 335	3.3233e+01	3.3176	-3.144684	0.000209	2.087691	0.353664	0.000021
 336	3.3333e+01	3.3321	-3.125947	0.000188	1.883015	0.318991	0.000019
 337	3.3432e+01	3.3389	-3.107209	0.000188	1.883015	0.318991	0.000019
 338	3.3532e+01	3.3498	-3.091323	0.000160	1.596470	0.270449	0.000016
 339	3.3631e+01	3.3583	-3.077880	0.000135	1.350859	0.228842	0.000014
 340	3.3730e+01	3.3681	-3.055884	0.000221	2.210496	0.374468	0.000022
 341	3.3830e+01	3.3794	-3.041627	0.000143	1.432729	0.242711	0.000014
 342	3.3929e+01	3.3891	-3.018001	0.000237	2.374237	0.402207	0.000024
 343	3.4029e+01	3.3979	-2.999671	0.000184	1.842080	0.312057	0.000018
 344	3.4129e+01	3.4077	-2.978896	0.000209	2.087691	0.353664	0.000021
 345	3.4228e+01	3.4190	-2.956900	0.000221	2.210496	0.374468	0.000022
 346	3.4328e+01	3.4300	-2.939791	0.000172	1.719275	0.291253	0.000017
 347	3.4427e+01	3.4393	-2.922683	0.000172	1.719275	0.291253	0.000017
 348	3.4526e+01	3.4480	-2.899872	0.000229	2.292366	0.388337	0.000023
 349	3.4626e+01	3.4592	-2.880727	0.000192	1.923950	0.325926	0.000019
 350	3.4725e+01	3.4684	-2.861989	0.000188	1.883015	0.318991	0.000019
 351	3.4825e+01	3.4774	-2.845695	0.000164	1.637405	0.277384	0.000016
 352	3.4925e+01	3.4879	-2.824921	0.000209	2.087691	0.353664	0.000021
 353	3.5024e+01	3.4972	-2.807405	0.000176	1.760210	0.298188	0.000018
 354	3.5123e+01	3.5065	-2.787445	0.000201	2.005821	0.339795	0.000020
 355	3.5223e+01	3.5176	-2.763005	0.000246	2.456107	0.416076	0.000025
 356	3.5322e+01	3.5271	-2.745489	0.000176	1.760210	0.298188	0.000018
 357	3.5422e+01	3.5366	-2.723492	0.000221	2.210496	0.374468	0.000022
 358	3.5522e+01	3.5464	-2.703940	0.000196	1.964886	0.332861	0.000020
 359	3.5621e+01	3.5575	-2.678685	0.000254	2.537977	0.429945	0.000025
 360	3.5721e+01	3.5668	-2.656281	0.000225	2.251431	0.381403	0.000023
 361	3.5820e+01	3.5778	-2.640394	0.000160	1.596470	0.270449	0.000016
 362	3.5919e+01	3.5877	-2.617176	0.000233	2.333302	0.395272	0.000023
 363	3.6019e+01	3.5945	-2.592735	0.000246	2.456107	0.416076	0.000025
 364	3.6118e+01	3.6074	-2.574405	0.000184	1.842080	0.312057	0.000018
 365	3.6218e+01	3.6173	-2.554852	0.000196	1.964886	0.332861	0.000020
 366	3.6318e+01	3.6275	-2.528783	0.000262	2.619847	0.443814	0.000026
 367	3.6417e+01	3.6369	-2.508823	0.000201	2.005821	0.339795	0.000020
 368	3.6517e+01	3.6480	-2.484790	0.000242	2.415172	0.409141	0.000024
 369	3.6616e+01	3.6575	-2.465644	0.000192	1.923950	0.325926	0.000019
 370	3.6715e+01	3.6677	-2.440797	0.000250	2.497042	0.423010	0.000025
 371	3.6815e+01	3.6805	-2.421244	0.000196	1.964886	0.332861	0.000020
 372	3.6914e+01	3.6869	-2.398840	0.000225	2.251431	0.381403	0.000023
 373	3.7014e+01	3.6974	-2.380510	0.000184	1.842080	0.312057	0.000018
 374	3.7114e+01	3.7060	-2.355255	0.000254	2.537977	0.429945	0.000025
 375	3.7213e+01	3.7162	-2.332036	0.000233	2.333302	0.395272	0.000023
 376	3.7313e+01	3.7263	-2.308003	0.000242	2.415172	0.409141	0.000024
 377	3.7412e+01	3.7374	-2.289672	0.000184	1.842080	0.312057	0.000018
 378	3.7511e+01	3.7463	-2.264825	0.000250	2.497042	0.423010	0.000025
 379	3.7611e+01	3.7553	-2.244865	0.000201	2.005821	0.339795	0.000020
 380	3.7711e+01	3.7691	-2.221646	0.000233	2.333302	0.395272	0.000023
 381	3.7810e+01	3.7744	-2.197613	0.000242	2.415172	0.409141	0.000024
 382	3.7910e+01	3.7865	-2.174395	0.000233	2.333302	0.395272	0.000023
 383	3.8009e+01	3.7965	-2.155657	0.000188	1.883015	0.318991	0.000019
 384	3.8108e+01	3.8046	-2.131216	0.000246	2.456107	0.416076	0.000025
 385	3.8208e+01	3.8163	-2.106776	0.000246	2.456107	0.416076	0.000025
 386	3.8307e+01	3.8233	-2.085594	0.000213	2.128626	0.360599	0.000021
 387	3.8407e+01	3.8365	-2.069708	0.000160	1.596470	0.270449	0.000016
 388	3.8507e+01	3.8461	-2.046082	0.000237	2.374237	0.402207	0.000024
 389	3.8606e+01	3.8551	-2.018382	0.000278	2.783588	0.471553	0.000028
 390	3.8706e+01	3.8670	-1.995979	0.000225	2.251431	0.381403	0.000023
 391	3.8805e+01	3.8772	-1.974389	0.000217	2.169561	0.367534	0.000022
 392	3.8904e+01	3.8869	-1.948319	0.000262	2.619847	0.443814	0.000026
 393	3.9004e+01	3.8953	-1.925101	0.000233	2.333302	0.395272	0.000023
 394	3.9103e+01	3.9079	-1.906363	0.000188	1.883015	0.318991	0.000019
 395	3.9203e+01	3.9145	-1.882737	0.000237	2.374237	0.402207	0.000024
 396	3.9303e+01	3.9249	-1.858297	0.000246	2.456107	0.416076	0.000025
 397	3.9402e+01	3.9372	-1.834671	0.000237	2.374237	0.402207	0.000024
 398	3.9502e+01	3.9457	-1.810638	0.000242	2.415172	0.409141	0.000024
 399	3.9601e+01	3.9568	-1.792307	0.000184	1.842080	0.312057	0.000018
 400	3.9700e+01	3.9672	-1.772755	0.000196	1.964886	0.332861	0.000020
 401	3.9800e+01	3.9746	-1.748314	0.000246	2.456107	0.416076	0.000025
 402	3.9900e+01	3.9835	-1.723466	0.000250	2.497042	0.423010	0.000025
 403	3.9999e+01	3.9944	-1.699433	0.000242	2.415172	0.409141	0.000024
 404	4.0099e+01	4.0038	-1.675400	0.000242	2.415172	0.409141	0.000024
 405	4.0198e+01	4.0176	-1.655440	0.000201	2.005821	0.339795	0.000020
 406	4.0297e+01	4.0263	-1.628148	0.000274	2.742653	0.464618	0.000027
 407	4.0397e+01	4.0347	-1.610225	0.000180	1.801145	0.305122	0.000018
 408	4.0496e+01	4.0454	-1.580896	0.000295	2.947328	0.499291	0.000029
 409	4.0596e+01	4.0543	-1.559715	0.000213	2.128626	0.360599	0.000021
 410	4.0696e+01	4.0636	-1.532830	0.000270	2.701718	0.457683	0.000027
 411	4.0795e+01	4.0735	-1.508797	0.000242	2.415172	0.409141	0.000024
 412	4.0895e+01	4.0859	-1.483949	0.000250	2.497042	0.423010	0.000025
 413	4.0994e+01	4.0945	-1.460730	0.000233	2.333302	0.395272	0.000023
 414	4.1093e+01	4.1045	-1.439549	0.000213	2.128626	0.360599	0.000021
 415	4.1193e+01	4.1141	-1.415515	0.000242	2.415172	0.409141	0.000024
 416	4.1292e+01	4.1244	-1.392297	0.000233	2.333302	0.395272	0.000023
 417	4.1392e+01	4.1348	-1.369893	0.000225	2.251431	0.381403	0.000023
 418	4.1492e+01	4.1444	-1.347489	0.000225	2.251431	0.381403	0.000023
 419	4.1591e+01	4.1541	-1.316938	0.000307	3.070134	0.520095	0.000031
 420	4.1691e+01	4.1635	-1.293313	0.000237	2.374237	0.402207	0.000024
 421	4.1790e+01	4.1719	-1.270094	0.000233	2.333302	0.395272	0.000023
 422	4.1889e+01	4.1833	-1.245654	0.000246	2.456107	0.416076	0.000025
 423	4.1989e+01	4.1951	-1.218769	0.000270	2.701718	0.457683	0.000027
 424	4.2089e+01	4.2041	-1.194328	0.000246	2.456107	0.416076	0.000025
 425	4.2188e+01	4.2153	-1.170702	0.000237	2.374237	0.402207	0.000024
 426	4.2288e+01	4.2245	-1.146262	0.000246	2.456107	0.416076	0.000025
 427	4.2387e+01	4.2352	-1.120599	0.000258	2.578912	0.436880	0.000026
 428	4.2486e+01	4.2449	-1.096973	0.000237	2.374237	0.402207	0.000024
 429	4.2586e+01	4.2547	-1.073755	0.000233	2.333302	0.395272	0.000023
 430	4.2685e+01	4.2625	-1.054610	0.000192	1.923950	0.325926	0.000019
 431	4.2785e+01	4.2748	-1.028947	0.000258	2.578912	0.436880	0.000026
 432	4.2885e+01	4.2852	-1.004914	0.000242	2.415172	0.409141	0.000024
 433	4.2984e+01	4.2953	-0.979251	0.000258	2.578912	0.436880	0.000026
 434	4.3084e+01	4.3056	-0.953182	0.000262	2.619847	0.443814	0.000026
 435	4.3183e+01	4.3116	-0.930370	0.000229	2.292366	0.388337	0.000023
 436	4.3282e+01	4.3235	-0.912855	0.000176	1.760210	0.298188	0.000018
 437	4.3382e+01	4.3331	-0.888414	0.000246	2.456107	0.416076	0.000025
 438	4.3481e+01	4.3452	-0.861529	0.000270	2.701718	0.457683	0.000027
 439	4.3581e+01	4.3541	-0.838718	0.000229	2.292366	0.388337	0.000023
 440	4.3681e+01	4.3653	-0.816314	0.000225	2.251431	0.381403	0.000023
 441	4.3780e+01	4.3745	-0.795540	0.000209	2.087691	0.353664	0.000021
 442	4.3880e+01	4.3834	-0.773136	0.000225	2.251431	0.381403	0.000023
 443	4.3979e+01	4.3955	-0.751140	0.000221	2.210496	0.374468	0.000022
 444	4.4078e+01	4.4039	-0.730773	0.000205	2.046756	0.346730	0.000020
 445	4.4178e+01	4.4133	-0.708369	0.000225	2.251431	0.381403	0.000023
 446	4.4278e+01	4.4230	-0.688002	0.000205	2.046756	0.346730	0.000020
 447	4.4377e+01	4.4318	-0.665598	0.000225	2.251431	0.381403	0.000023
 448	4.4477e+01	4.4424	-0.644009	0.000217	2.169561	0.367534	0.000022
 449	4.4576e+01	4.4515	-0.624049	0.000201	2.005821	0.339795	0.000020
 450	4.4675e+01	4.4611	-0.602460	0.000217	2.169561	0.367534	0.000022
 451	4.4775e+01	4.4749	-0.580056	0.000225	2.251431	0.381403	0.000023
 452	4.4874e+01	4.4854	-0.558874	0.000213	2.128626	0.360599	0.000021
 453	4.4974e+01	4.4946	-0.540544	0.000184	1.842080	0.312057	0.000018
 454	4.5074e+01	4.5031	-0.520176	0.000205	2.046756	0.346730	0.000020
 455	4.5173e+01	4.5123	-0.496958	0.000233	2.333302	0.395272	0.000023
 456	4.5273e+01	4.5244	-0.478220	0.000188	1.883015	0.318991	0.000019
 457	4.5372e+01	4.5326	-0.455816	0.000225	2.251431	0.381403	0.000023
 458	4.5471e+01	4.5415	-0.436671	0.000192	1.923950	0.325926	0.000019
 459	4.5571e+01	4.5512	-0.417526	0.000192	1.923950	0.325926	0.000019
 460	4.5670e+01	4.5634	-0.394308	0.000233	2.333302	0.395272	0.000023
 461	4.5770e+01	4.5733	-0.375977	0.000184	1.842080	0.312057	0.000018
 462	4.5870e+01	4.5795	-0.356017	0.000201	2.005821	0.339795	0.000020
 463	4.5969e+01	4.5934	-0.336058	0.000201	2.005821	0.339795	0.000020
 464	4.6069e+01	4.6008	-0.316505	0.000196	1.964886	0.332861	0.000020
 465	4.6168e+01	4.6120	-0.296953	0.000196	1.964886	0.332861	0.000020
 466	4.6267e+01	4.6231	-0.274549	0.000225	2.251431	0.381403	0.000023
 467	4.6367e+01	4.6322	-0.254182	0.000205	2.046756	0.346730	0.000020
 468	4.6467e+01	4.6429	-0.237073	0.000172	1.719275	0.291253	0.000017
 469	4.6566e+01	4.6539	-0.216299	0.000209	2.087691	0.353664	0.000021
 470	4.6666e+01	4.6647	-0.198783	0.000176	1.760210	0.298188	0.000018
 471	4.6765e+01	4.6728	-0.172306	0.000266	2.660783	0.450749	0.000027
 472	4.6864e+01	4.6840	-0.155198	0.000172	1.719275	0.291253	0.000017
 473	4.6964e+01	4.6928	-0.130350	0.000250	2.497042	0.423010	0.000025
 474	4.7063e+01	4.7018	-0.109982	0.000205	2.046756	0.346730	0.000020
 475	4.7163e+01	4.7112	-0.092874	0.000172	1.719275	0.291253	0.000017
 476	4.7263e+01	4.7224	-0.074544	0.000184	1.842080	0.312057	0.000018
 477	4.7362e+01	4.7315	-0.057028	0.000176	1.760210	0.298188	0.000018
 478	4.7462e+01	4.7411	-0.036253	0.000209	2.087691	0.353664	0.000021
 479	4.7561e+01	4.7513	-0.015072	0.000213	2.128626	0.360599	0.000021
 480	4.7660e+01	4.7636	0.002037	0.000172	1.719275	0.291253	0.000017
 481	4.7760e+01	4.7705	0.022404	0.000205	2.046756	0.346730	0.000020
 482	4.7859e+01	4.7803	0.043178	0.000209	2.087691	0.353664	0.000021
 483	4.7959e+01	4.7909	0.061101	0.000180	1.801145	0.305122	0.000018
 484	4.8059e+01	4.8016	0.084727	0.000237	2.374237	0.402207	0.000024
 485	4.8158e+01	4.8113	0.103465	0.000188	1.883015	0.318991	0.000019
 486	4.8258e+01	4.8211	0.125462	0.000221	2.210496	0.374468	0.000022
 487	4.8357e+01	4.8302	0.145829	0.000205	2.046756	0.346730	0.000020
 488	4.8456e+01	4.8405	0.162937	0.000172	1.719275	0.291253	0.000017
 489	4.8556e+01	4.8519	0.184526	0.000217	2.169561	0.367534	0.000022
 490	4.8656e+01	4.8636	0.202857	0.000184	1.842080	0.312057	0.000018
 491	4.8755e+01	4.8715	0.218336	0.000156	1.555534	0.263515	0.000016
 492	4.8855e+01	4.8794	0.235851	0.000176	1.760210	0.298188	0.000018
 493	4.8954e+01	4.8917	0.254182	0.000184	1.842080	0.312057	0.000018
 494	4.9053e+01	4.8995	0.272920	0.000188	1.883015	0.318991	0.000019
 495	4.9153e+01	4.9100	0.289621	0.000168	1.678340	0.284318	0.000017
 496	4.9252e+01	4.9218	0.309988	0.000205	2.046756	0.346730	0.000020
 497	4.9352e+01	4.9304	0.327911	0.000180	1.801145	0.305122	0.000018
 498	4.9452e+01	4.9409	0.346649	0.000188	1.883015	0.318991	0.000019
 499	4.9551e+01	4.9505	0.365794	0.000192	1.923950	0.325926	0.000019
 500	4.9651e+01	4.9608	0.383717	0.000180	1.801145	0.305122	0.000018
 501	4.9750e+01	4.9699	0.401640	0.000180	1.801145	0.305122	0.000018
 502	4.9849e+01	4.9786	0.418341	0.000168	1.678340	0.284318	0.000017
 503	4.9949e+01	4.9913	0.435449	0.000172	1.719275	0.291253	0.000017
 504	5.0048e+01	5.0005	0.454187	0.000188	1.883015	0.318991	0.000019
 505	5.0148e+01	5.0100	0.469259	0.000151	1.514599	0.256580	0.000015
 506	5.0248e+01	5.0218	0.488404	0.000192	1.923950	0.325926	0.000019
 507	5.0347e+01	5.0298	0.507549	0.000192	1.923950	0.325926	0.000019
 508	5.0447e+01	5.0389	0.520584	0.000131	1.309924	0.221907	0.000013
 509	5.0546e+01	5.0492	0.539729	0.000192	1.923950	0.325926	0.000019
 510	5.0645e+01	5.0591	0.554801	0.000151	1.514599	0.256580	0.000015
 511	5.0745e+01	5.0695	0.574760	0.000201	2.005821	0.339795	0.000020
 512	5.0844e+01	5.0786	0.592276	0.000176	1.760210	0.298188	0.000018
 513	5.0944e+01	5.0897	0.613051	0.000209	2.087691	0.353664	0.000021
 514	5.1044e+01	5.0986	0.630159	0.000172	1.719275	0.291253	0.000017
 515	5.1143e+01	5.1092	0.650119	0.000201	2.005821	0.339795	0.000020
 516	5.1242e+01	5.1185	0.669264	0.000192	1.923950	0.325926	0.000019
 517	5.1342e+01	5.1337	0.682299	0.000131	1.309924	0.221907	0.000013
 518	5.1441e+01	5.1394	0.703073	0.000209	2.087691	0.353664	0.000021
 519	5.1541e+01	5.1514	0.722626	0.000196	1.964886	0.332861	0.000020
 520	5.1641e+01	5.1585	0.740549	0.000180	1.801145	0.305122	0.000018
 521	5.1740e+01	5.1681	0.758064	0.000176	1.760210	0.298188	0.000018
 522	5.1840e+01	5.1771	0.779654	0.000217	2.169561	0.367534	0.000022
 523	5.1939e+01	5.1900	0.801650	0.000221	2.210496	0.374468	0.000022
 524	5.2038e+01	5.2013	0.817944	0.000164	1.637405	0.277384	0.000016
 525	5.2138e+01	5.2082	0.833830	0.000160	1.596470	0.270449	0.000016
 526	5.2237e+01	5.2207	0.859085	0.000254	2.537977	0.429945	0.000025
 527	5.2337e+01	5.2285	0.877823	0.000188	1.883015	0.318991	0.000019
 528	5.2437e+01	5.2384	0.897783	0.000201	2.005821	0.339795	0.000020
 529	5.2536e+01	5.2483	0.918965	0.000213	2.128626	0.360599	0.000021
 530	5.2636e+01	5.2579	0.941369	0.000225	2.251431	0.381403	0.000023
 531	5.2735e+01	5.2702	0.962143	0.000209	2.087691	0.353664	0.000021
 532	5.2834e+01	5.2817	0.982103	0.000201	2.005821	0.339795	0.000020
 533	5.2934e+01	5.2888	1.000841	0.000188	1.883015	0.318991	0.000019
 534	5.3033e+01	5.2979	1.023244	0.000225	2.251431	0.381403	0.000023
 535	5.3133e+01	5.3085	1.039946	0.000168	1.678340	0.284318	0.000017
 536	5.3233e+01	5.3181	1.064793	0.000250	2.497042	0.423010	0.000025
 537	5.3332e+01	5.3277	1.083939	0.000192	1.923950	0.325926	0.000019
 538	5.3431e+01	5.3385	1.105528	0.000217	2.169561	0.367534	0.000022
 539	5.3531e+01	5.3484	1.126709	0.000213	2.128626	0.360599	0.000021
 540	5.3630e+01	5.3593	1.148299	0.000217	2.169561	0.367534	0.000022
 541	5.3730e+01	5.3692	1.167444	0.000192	1.923950	0.325926	0.000019
 542	5.3830e+01	5.3794	1.187404	0.000201	2.005821	0.339795	0.000020
 543	5.3929e+01	5.3854	1.208993	0.000217	2.169561	0.367534	0.000022
 544	5.4029e+01	5.3954	1.232619	0.000237	2.374237	0.402207	0.000024
 545	5.4128e+01	5.4111	1.249727	0.000172	1.719275	0.291253	0.000017
 546	5.4227e+01	5.4194	1.272538	0.000229	2.292366	0.388337	0.000023
 547	5.4327e+01	5.4275	1.296571	0.000242	2.415172	0.409141	0.000024
 548	5.4426e+01	5.4399	1.314902	0.000184	1.842080	0.312057	0.000018
 549	5.4526e+01	5.4481	1.339750	0.000250	2.497042	0.423010	0.000025
 550	5.4626e+01	5.4565	1.361746	0.000221	2.210496	0.374468	0.000022
 551	5.4725e+01	5.4678	1.383335	0.000217	2.169561	0.367534	0.000022
 552	5.4825e+01	5.4802	1.406554	0.000233	2.333302	0.395272	0.000023
 553	5.4924e+01	5.4913	1.426921	0.000205	2.046756	0.346730	0.000020
 554	5.5023e+01	5.5004	1.446881	0.000201	2.005821	0.339795	0.000020
 555	5.5123e+01	5.5063	1.466841	0.000201	2.005821	0.339795	0.000020
 556	5.5222e+01	5.5213	1.487615	0.000209	2.087691	0.353664	0.000021
 557	5.5322e+01	5.5273	1.509611	0.000221	2.210496	0.374468	0.000022
 558	5.5422e+01	5.5384	1.530386	0.000209	2.087691	0.353664	0.000021
 559	5.5521e+01	5.5473	1.554419	0.000242	2.415172	0.409141	0.000024
 560	5.5620e+01	5.5596	1.576008	0.000217	2.169561	0.367534	0.000022
 561	5.5720e+01	5.5697	1.601264	0.000254	2.537977	0.429945	0.000025
 562	5.5819e+01	5.5778	1.622038	0.000209	2.087691	0.353664	0.000021
 563	5.5919e+01	5.5903	1.640776	0.000188	1.883015	0.318991	0.000019
 564	5.6019e+01	5.5979	1.663587	0.000229	2.292366	0.388337	0.000023
 565	5.6118e+01	5.6075	1.685176	0.000217	2.169561	0.367534	0.000022
 566	5.6218e+01	5.6177	1.705136	0.000201	2.005821	0.339795	0.000020
 567	5.6317e+01	5.6276	1.728354	0.000233	2.333302	0.395272	0.000023
 568	5.6416e+01	5.6402	1.751166	0.000229	2.292366	0.388337	0.000023
 569	5.6516e+01	5.6477	1.771533	0.000205	2.046756	0.346730	0.000020
 570	5.6615e+01	5.6539	1.789863	0.000184	1.842080	0.312057	0.000018
 571	5.6715e+01	5.6655	1.814304	0.000246	2.456107	0.416076	0.000025
 572	5.6815e+01	5.6792	1.833449	0.000192	1.923950	0.325926	0.000019
 573	5.6914e+01	5.6873	1.858297	0.000250	2.497042	0.423010	0.000025
 574	5.7014e+01	5.6960	1.881923	0.000237	2.374237	0.402207	0.000024
 575	5.7113e+01	5.7082	1.905141	0.000233	2.333302	0.395272	0.000023
 576	5.7212e+01	5.7165	1.928360	0.000233	2.333302	0.395272	0.000023
 577	5.7312e+01	5.7278	1.949949	0.000217	2.169561	0.367534	0.000022
 578	5.7411e+01	5.7349	1.974797	0.000250	2.497042	0.423010	0.000025
 579	5.7511e+01	5.7482	1.997608	0.000229	2.292366	0.388337	0.000023
 580	5.7611e+01	5.7555	2.018382	0.000209	2.087691	0.353664	0.000021
 581	5.7710e+01	5.7642	2.043230	0.000250	2.497042	0.423010	0.000025
 582	5.7809e+01	5.7755	2.064412	0.000213	2.128626	0.360599	0.000021
 583	5.7909e+01	5.7871	2.087631	0.000233	2.333302	0.395272	0.000023
 584	5.8008e+01	5.7999	2.109627	0.000221	2.210496	0.374468	0.000022
 585	5.8108e+01	5.8060	2.132438	0.000229	2.292366	0.388337	0.000023
 586	5.8208e+01	5.8147	2.156064	0.000237	2.374237	0.402207	0.000024
 587	5.8307e+01	5.8269	2.181319	0.000254	2.537977	0.429945	0.000025
 588	5.8407e+01	5.8375	2.202909	0.000217	2.169561	0.367534	0.000022
 589	5.8506e+01	5.8453	2.228571	0.000258	2.578912	0.436880	0.000026
 590	5.8605e+01	5.8552	2.253419	0.000250	2.497042	0.423010	0.000025
 591	5.8705e+01	5.8672	2.276230	0.000229	2.292366	0.388337	0.000023
 592	5.8804e+01	5.8758	2.299449	0.000233	2.333302	0.395272	0.000023
 593	5.8904e+01	5.8867	2.326333	0.000270	2.701718	0.457683	0.000027
 594	5.9004e+01	5.8945	2.349144	0.000229	2.292366	0.388337	0.000023
 595	5.9103e+01	5.9057	2.370734	0.000217	2.169561	0.367534	0.000022
 596	5.9203e+01	5.9151	2.390693	0.000201	2.005821	0.339795	0.000020
 597	5.9302e+01	5.9240	2.416356	0.000258	2.578912	0.436880	0.000026
 598	5.9401e+01	5.9341	2.433872	0.000176	1.760210	0.298188	0.000018
 599	5.9501e+01	5.9464	2.459942	0.000262	2.619847	0.443814	0.000026
 600	5.9600e+01	5.9561	2.483160	0.000233	2.333302	0.395272	0.000023
 601	5.9700e+01	5.9635	2.504749	0.000217	2.169561	0.367534	0.000022
 602	5.9800e+01	5.9747	2.529190	0.000246	2.456107	0.416076	0.000025
 603	5.9899e+01	5.9847	2.549557	0.000205	2.046756	0.346730	0.000020
 604	5.9998e+01	5.9933	2.571961	0.000225	2.251431	0.381403	0.000023
 605	6.0098e+01	6.0059	2.595179	0.000233	2.333302	0.395272	0.000023
 606	6.0197e+01	6.0166	2.616769	0.000217	2.169561	0.367534	0.000022
 607	6.0297e+01	6.0242	2.642024	0.000254	2.537977	0.429945	0.000025
 608	6.0397e+01	6.0343	2.660762	0.000188	1.883015	0.318991	0.000019
 609	6.0496e+01	6.0454	2.683165	0.000225	2.251431	0.381403	0.000023
 610	6.0596e+01	6.0561	2.702718	0.000196	1.964886	0.332861	0.000020
 611	6.0695e+01	6.0654	2.723492	0.000209	2.087691	0.353664	0.000021
 612	6.0794e+01	6.0743	2.740193	0.000168	1.678340	0.284318	0.000017
 613	6.0894e+01	6.0857	2.765041	0.000250	2.497042	0.423010	0.000025
 614	6.0993e+01	6.0952	2.785408	0.000205	2.046756	0.346730	0.000020
 615	6.1093e+01	6.1046	2.806183	0.000209	2.087691	0.353664	0.000021
 616	6.1193e+01	6.1161	2.830216	0.000242	2.415172	0.409141	0.000024
 617	6.1292e+01	6.1257	2.846917	0.000168	1.678340	0.284318	0.000017
 618	6.1392e+01	6.1347	2.865248	0.000184	1.842080	0.312057	0.000018
 619	6.1491e+01	6.1452	2.884393	0.000192	1.923950	0.325926	0.000019
 620	6.1590e+01	6.1541	2.905574	0.000213	2.128626	0.360599	0.000021
 621	6.1690e+01	6.1607	2.926349	0.000209	2.087691	0.353664	0.000021
 622	6.1789e+01	6.1753	2.947123	0.000209	2.087691	0.353664	0.000021
 623	6.1889e+01	6.1842	2.966676	0.000196	1.964886	0.332861	0.000020
 624	6.1989e+01	6.1951	2.991116	0.000246	2.456107	0.416076	0.000025
 625	6.2088e+01	6.2057	3.002115	0.000111	1.105248	0.187234	0.000011
 626	6.2188e+01	6.2139	3.026555	0.000246	2.456107	0.416076	0.000025
 627	6.2287e+01	6.2231	3.047737	0.000213	2.128626	0.360599	0.000021
 628	6.2386e+01	6.2322	3.064031	0.000164	1.637405	0.277384	0.000016
 629	6.2486e+01	6.2444	3.085212	0.000213	2.128626	0.360599	0.000021
 630	6.2586e+01	6.2547	3.101099	0.000160	1.596470	0.270449	0.000016
 631	6.2685e+01	6.2618	3.121466	0.000205	2.046756	0.346730	0.000020
 632	6.2785e+01	6.2753	3.140611	0.000192	1.923950	0.325926	0.000019
 633	6.2884e+01	6.2830	3.160164	0.000196	1.964886	0.332861	0.000020
 634	6.2983e+01	6.2940	3.180123	0.000201	2.005821	0.339795	0.000020
 635	6.3083e+01	6.3012	3.195602	0.000156	1.555534	0.263515	0.000016
 636	6.3182e+01	6.3131	3.218006	0.000225	2.251431	0.381403	0.000023
 637	6.3282e+01	6.3268	3.235929	0.000180	1.801145	0.305122	0.000018
 638	6.3382e+01	6.3344	3.254260	0.000184	1.842080	0.312057	0.000018
 639	6.3481e+01	6.3414	3.277478	0.000233	2.333302	0.395272	0.000023
 640	6.3581e+01	6.3517	3.294587	0.000172	1.719275	0.291253	0.000017
 641	6.3680e+01	6.3639	3.311695	0.000172	1.719275	0.291253	0.000017
 642	6.3779e+01	6.3723	3.330840	0.000192	1.923950	0.325926	0.000019
 643	6.3879e+01	6.3850	3.349578	0.000188	1.883015	0.318991	0.000019
 644	6.3978e+01	6.3944	3.367094	0.000176	1.760210	0.298188	0.000018
 645	6.4078e+01	6.4022	3.384609	0.000176	1.760210	0.298188	0.000018
 646	6.4177e+01	6.4147	3.403754	0.000192	1.923950	0.325926	0.000019
 647	6.4277e+01	6.4222	3.425344	0.000217	2.169561	0.367534	0.000022
 648	6.4376e+01	6.4339	3.443267	0.000180	1.801145	0.305122	0.000018
 649	6.4476e+01	6.4445	3.463634	0.000205	2.046756	0.346730	0.000020
 650	6.4576e+01	6.4544	3.481557	0.000180	1.801145	0.305122	0.000018
 651	6.4675e+01	6.4648	3.501517	0.000201	2.005821	0.339795	0.000020
 652	6.4775e+01	6.4727	3.522698	0.000213	2.128626	0.360599	0.000021
 653	6.4874e+01	6.4820	3.540214	0.000176	1.760210	0.298188	0.000018
 654	6.4974e+01	6.4931	3.558137	0.000180	1.801145	0.305122	0.000018
 655	6.5073e+01	6.5018	3.578504	0.000205	2.046756	0.346730	0.000020
 656	6.5172e+01	6.5141	3.594391	0.000160	1.596470	0.270449	0.000016
 657	6.5272e+01	6.5226	3.611906	0.000176	1.760210	0.298188	0.000018
 658	6.5371e+01	6.5319	3.632274	0.000205	2.046756	0.346730	0.000020
 659	6.5471e+01	6.5426	3.648975	0.000168	1.678340	0.284318	0.000017
 660	6.5570e+01	6.5542	3.662824	0.000139	1.391794	0.235776	0.000014
 661	6.5670e+01	6.5632	3.681969	0.000192	1.923950	0.325926	0.000019
 662	6.5769e+01	6.5728	3.699892	0.000180	1.801145	0.305122	0.000018
 663	6.5869e+01	6.5804	3.715779	0.000160	1.596470	0.270449	0.000016
 664	6.5969e+01	6.5920	3.736146	0.000205	2.046756	0.346730	0.000020
 665	6.6068e+01	6.6019	3.752032	0.000160	1.596470	0.270449	0.000016
 666	6.6168e+01	6.6096	3.770770	0.000188	1.883015	0.318991	0.000019
 667	6.6267e+01	6.6236	3.788286	0.000176	1.760210	0.298188	0.000018
 668	6.6367e+01	6.6313	3.804579	0.000164	1.637405	0.277384	0.000016
 669	6.6466e+01	6.6433	3.821280	0.000168	1.678340	0.284318	0.000017
 670	6.6566e+01	6.6491	3.839611	0.000184	1.842080	0.312057	0.000018
 671	6.6665e+01	6.6618	3.853053	0.000135	1.350859	0.228842	0.000014
 672	6.6764e+01	6.6718	3.870569	0.000176	1.760210	0.298188	0.000018
 673	6.6864e+01	6.6846	3.888492	0.000180	1.801145	0.305122	0.000018
 674	6.6963e+01	6.6923	3.903971	0.000156	1.555534	0.263515	0.000016
 675	6.7063e+01	6.7016	3.920265	0.000164	1.637405	0.277384	0.000016
 676	6.7162e+01	6.7085	3.936558	0.000164	1.637405	0.277384	0.000016
 677	6.7262e+01	6.7242	3.952852	0.000164	1.637405	0.277384	0.000016
 678	6.7362e+01	6.7318	3.971590	0.000188	1.883015	0.318991	0.000019
 679	6.7461e+01	6.7425	3.989920	0.000184	1.842080	0.312057	0.000018
 680	6.7561e+01	6.7503	4.009473	0.000196	1.964886	0.332861	0.000020
 681	6.7660e+01	6.7608	4.023322	0.000139	1.391794	0.235776	0.000014
 682	6.7760e+01	6.7702	4.041245	0.000180	1.801145	0.305122	0.000018
 683	6.7859e+01	6.7808	4.058761	0.000176	1.760210	0.298188	0.000018
 684	6.7959e+01	6.7912	4.075870	0.000172	1.719275	0.291253	0.000017
 685	6.8058e+01	6.8014	4.095422	0.000196	1.964886	0.332861	0.000020
 686	6.8157e+01	6.8101	4.110494	0.000151	1.514599	0.256580	0.000015
 687	6.8257e+01	6.8209	4.130046	0.000196	1.964886	0.332861	0.000020
 688	6.8356e+01	6.8333	4.149191	0.000192	1.923950	0.325926	0.000019
 689	6.8456e+01	6.8426	4.162226	0.000131	1.309924	0.221907	0.000013
 690	6.8555e+01	6.8523	4.185037	0.000229	2.292366	0.388337	0.000023
 691	6.8655e+01	6.8594	4.200924	0.000160	1.596470	0.270449	0.000016
 692	6.8754e+01	6.8746	4.219661	0.000188	1.883015	0.318991	0.000019
 693	6.8854e+01	6.8804	4.239214	0.000196	1.964886	0.332861	0.000020
 694	6.8954e+01	6.8893	4.260803	0.000217	2.169561	0.367534	0.000022
 695	6.9053e+01	6.9009	4.280763	0.000201	2.005821	0.339795	0.000020
 696	6.9153e+01	6.9088	4.297871	0.000172	1.719275	0.291253	0.000017
 697	6.9252e+01	6.9213	4.319460	0.000217	2.169561	0.367534	0.000022
 698	6.9352e+01	6.9315	4.336161	0.000168	1.678340	0.284318	0.000017
 699	6.9451e+01	6.9408	4.357751	0.000217	2.169561	0.367534	0.000022
 700	6.9550e+01	6.9508	4.377303	0.000196	1.964886	0.332861	0.000020
 701	6.9650e+01	6.9598	4.396448	0.000192	1.923950	0.325926	0.000019
 702	6.9749e+01	6.9678	4.416408	0.000201	2.005821	0.339795	0.000020
 703	6.9849e+01	6.9772	4.437997	0.000217	2.169561	0.367534	0.000022
 704	6.9948e+01	6.9921	4.458364	0.000205	2.046756	0.346730	0.000020
 705	7.0048e+01	7.0020	4.475473	0.000172	1.719275	0.291253	0.000017
 706	7.0147e+01	7.0125	4.494210	0.000188	1.883015	0.318991	0.000019
 707	7.0247e+01	7.0201	4.517429	0.000233	2.333302	0.395272	0.000023
 708	7.0347e+01	7.0290	4.537796	0.000205	2.046756	0.346730	0.000020
 709	7.0446e+01	7.0403	4.558163	0.000205	2.046756	0.346730	0.000020
 710	7.0546e+01	7.0517	4.576086	0.000180	1.801145	0.305122	0.000018
 711	7.0645e+01	7.0581	4.594824	0.000188	1.883015	0.318991	0.000019
 712	7.0745e+01	7.0705	4.622116	0.000274	2.742653	0.464618	0.000027
 713	7.0844e+01	7.0797	4.640446	0.000184	1.842080	0.312057	0.000018
 714	7.0944e+01	7.0915	4.660406	0.000201	2.005821	0.339795	0.000020
 715	7.1043e+01	7.0989	4.683217	0.000229	2.292366	0.388337	0.000023
 716	7.1142e+01	7.1102	4.704399	0.000213	2.128626	0.360599	0.000021
 717	7.1242e+01	7.1206	4.726396	0.000221	2.210496	0.374468	0.000022
 718	7.1341e+01	7.1270	4.744726	0.000184	1.842080	0.312057	0.000018
 719	7.1441e+01	7.1398	4.764278	0.000196	1.964886	0.332861	0.000020
 720	7.1540e+01	7.1504	4.783831	0.000196	1.964886	0.332861	0.000020
 721	7.1640e+01	7.1616	4.805420	0.000217	2.169561	0.367534	0.000022
 722	7.1740e+01	7.1679	4.826195	0.000209	2.087691	0.353664	0.000021
 723	7.1839e+01	7.1807	4.844525	0.000184	1.842080	0.312057	0.000018
 724	7.1939e+01	7.1880	4.868558	0.000242	2.415172	0.409141	0.000024
 725	7.2038e+01	7.1998	4.888518	0.000201	2.005821	0.339795	0.000020
 726	7.2138e+01	7.2102	4.908478	0.000201	2.005821	0.339795	0.000020
 727	7.2237e+01	7.2189	4.931289	0.000229	2.292366	0.388337	0.000023
 728	7.2337e+01	7.2261	4.953285	0.000221	2.210496	0.374468	0.000022
 729	7.2436e+01	7.2424	4.974467	0.000213	2.128626	0.360599	0.000021
 730	7.2535e+01	7.2474	4.993612	0.000192	1.923950	0.325926	0.000019
 731	7.2635e+01	7.2599	5.016424	0.000229	2.292366	0.388337	0.000023
 732	7.2734e+01	7.2683	5.035161	0.000188	1.883015	0.318991	0.000019
 733	7.2834e+01	7.2774	5.060009	0.000250	2.497042	0.423010	0.000025
 734	7.2933e+01	7.2897	5.079969	0.000201	2.005821	0.339795	0.000020
 735	7.3033e+01	7.2999	5.096263	0.000164	1.637405	0.277384	0.000016
 736	7.3132e+01	7.3071	5.120703	0.000246	2.456107	0.416076	0.000025
 737	7.3232e+01	7.3145	5.141478	0.000209	2.087691	0.353664	0.000021
 738	7.3332e+01	7.3275	5.163474	0.000221	2.210496	0.374468	0.000022
 739	7.3431e+01	7.3389	5.184656	0.000213	2.128626	0.360599	0.000021
 740	7.3531e+01	7.3479	5.206245	0.000217	2.169561	0.367534	0.000022
 741	7.3630e+01	7.3584	5.227427	0.000213	2.128626	0.360599	0.000021
 742	7.3730e+01	7.3687	5.249423	0.000221	2.210496	0.374468	0.000022
 743	7.3829e+01	7.3791	5.272235	0.000229	2.292366	0.388337	0.000023
 744	7.3928e+01	7.3893	5.295453	0.000233	2.333302	0.395272	0.000023
 745	7.4028e+01	7.3995	5.317042	0.000217	2.169561	0.367534	0.000022
 746	7.4127e+01	7.4075	5.337817	0.000209	2.087691	0.353664	0.000021
 747	7.4227e+01	7.4203	5.360628	0.000229	2.292366	0.388337	0.000023
 748	7.4326e+01	7.4261	5.385069	0.000246	2.456107	0.416076	0.000025
 749	7.4426e+01	7.4400	5.401770	0.000168	1.678340	0.284318	0.000017
 750	7.4525e+01	7.4458	5.427025	0.000254	2.537977	0.429945	0.000025
 751	7.4625e+01	7.4585	5.446577	0.000196	1.964886	0.332861	0.000020
 752	7.4725e+01	7.4685	5.471832	0.000254	2.537977	0.429945	0.000025
 753	7.4824e+01	7.4756	5.490570	0.000188	1.883015	0.318991	0.000019
 754	7.4924e+01	7.4854	5.518677	0.000282	2.824523	0.478487	0.000028
 755	7.5023e+01	7.4966	5.540673	0.000221	2.210496	0.374468	0.000022
 756	7.5123e+01	7.5085	5.563485	0.000229	2.292366	0.388337	0.000023
 757	7.5222e+01	7.5170	5.586703	0.000233	2.333302	0.395272	0.000023
 758	7.5322e+01	7.5286	5.611144	0.000246	2.456107	0.416076	0.000025
 759	7.5421e+01	7.5370	5.634770	0.000237	2.374237	0.402207	0.000024
 760	7.5520e+01	7.5501	5.655137	0.000205	2.046756	0.346730	0.000020
 761	7.5620e+01	7.5573	5.678355	0.000233	2.333302	0.395272	0.000023
 762	7.5719e+01	7.5684	5.701166	0.000229	2.292366	0.388337	0.000023
 763	7.5819e+01	7.5782	5.721126	0.000201	2.005821	0.339795	0.000020
 764	7.5918e+01	7.5868	5.743937	0.000229	2.292366	0.388337	0.000023
 765	7.6018e+01	7.5963	5.764304	0.000205	2.046756	0.346730	0.000020
 766	7.6118e+01	7.6064	5.789967	0.000258	2.578912	0.436880	0.000026
 767	7.6217e+01	7.6179	5.813186	0.000233	2.333302	0.395272	0.000023
 768	7.6317e+01	7.6279	5.833145	0.000201	2.005821	0.339795	0.000020
 769	7.6416e+01	7.6373	5.855957	0.000229	2.292366	0.388337	0.000023
 770	7.6516e+01	7.6453	5.878768	0.000229	2.292366	0.388337	0.000023
 771	7.6615e+01	7.6563	5.899542	0.000209	2.087691	0.353664	0.000021
 772	7.6715e+01	7.6664	5.921946	0.000225	2.251431	0.381403	0.000023
 773	7.6814e+01	7.6748	5.945572	0.000237	2.374237	0.402207	0.000024
 774	7.6913e+01	7.6840	5.966346	0.000209	2.087691	0.353664	0.000021
 775	7.7013e+01	7.6981	5.986306	0.000201	2.005821	0.339795	0.000020
 776	7.7112e+01	7.7051	6.009525	0.000233	2.333302	0.395272	0.000023
 777	7.7212e+01	7.7166	6.025411	0.000160	1.596470	0.270449	0.000016
 778	7.7311e+01	7.7271	6.046593	0.000213	2.128626	0.360599	0.000021
 779	7.7411e+01	7.7377	6.067367	0.000209	2.087691	0.353664	0.000021
 780	7.7510e+01	7.7456	6.088142	0.000209	2.087691	0.353664	0.000021
 781	7.7610e+01	7.7577	6.109324	0.000213	2.128626	0.360599	0.000021
 782	7.7710e+01	7.7666	6.128061	0.000188	1.883015	0.318991	0.000019
 783	7.7809e+01	7.7754	6.149650	0.000217	2.169561	0.367534	0.000022
 784	7.7909e+01	7.7841	6.166352	0.000168	1.678340	0.284318	0.000017
 785	7.8008e+01	7.7962	6.185904	0.000196	1.964886	0.332861	0.000020
 786	7.8108e+01	7.8053	6.204642	0.000188	1.883015	0.318991	0.000019
 787	7.8207e+01	7.8140	6.227453	0.000229	2.292366	0.388337	0.000023
 788	7.8306e+01	7.8262	6.243747	0.000164	1.637405	0.277384	0.000016
 789	7.8406e+01	7.8349	6.262484	0.000188	1.883015	0.318991	0.000019
 790	7.8505e+01	7.8451	6.283666	0.000213	2.128626	0.360599	0.000021
 791	7.8605e+01	7.8533	6.299145	0.000156	1.555534	0.263515	0.000016
 792	7.8704e+01	7.8651	6.324400	0.000254	2.537977	0.429945	0.000025
 793	7.8804e+01	7.8756	6.337843	0.000135	1.350859	0.228842	0.000014
 794	7.8903e+01	7.8853	6.363098	0.000254	2.537977	0.429945	0.000025
 795	7.9003e+01	7.8967	6.380206	0.000172	1.719275	0.291253	0.000017
 796	7.9103e+01	7.9043	6.399351	0.000192	1.923950	0.325926	0.000019
 797	7.9202e+01	7.9127	6.420941	0.000217	2.169561	0.367534	0.000022
 798	7.9302e+01	7.9244	6.435605	0.000147	1.473664	0.249645	0.000015
 799	7.9401e+01	7.9377	6.455157	0.000196	1.964886	0.332861	0.000020
 800	7.9501e+01	7.9475	6.474710	0.000196	1.964886	0.332861	0.000020
 801	7.9600e+01	7.9552	6.494262	0.000196	1.964886	0.332861	0.000020
 802	7.9700e+01	7.9655	6.512593	0.000184	1.842080	0.312057	0.000018
 803	7.9799e+01	7.9751	6.532552	0.000201	2.005821	0.339795	0.000020
 804	7.9898e+01	7.9850	6.547624	0.000151	1.514599	0.256580	0.000015
 805	7.9998e+01	7.9959	6.568806	0.000213	2.128626	0.360599	0.000021
 806	8.0097e+01	8.0048	6.588358	0.000196	1.964886	0.332861	0.000020
 807	8.0197e+01	8.0153	6.609540	0.000213	2.128626	0.360599	0.000021
 808	8.0296e+01	8.0245	6.625427	0.000160	1.596470	0.270449	0.000016
 809	8.0396e+01	8.0337	6.642942	0.000176	1.760210	0.298188	0.000018
 810	8.0496e+01	8.0457	6.663717	0.000209	2.087691	0.353664	0.000021
 811	8.0595e+01	8.0552	6.678788	0.000151	1.514599	0.256580	0.000015
 812	8.0695e+01	8.0649	6.700785	0.000221	2.210496	0.374468	0.000022
 813	8.0794e+01	8.0747	6.717893	0.000172	1.719275	0.291253	0.000017
 814	8.0894e+01	8.0850	6.737446	0.000196	1.964886	0.332861	0.000020
 815	8.0993e+01	8.0936	6.753332	0.000160	1.596470	0.270449	0.000016
 816	8.1093e+01	8.1045	6.772477	0.000192	1.923950	0.325926	0.000019
 817	8.1192e+01	8.1141	6.793659	0.000213	2.128626	0.360599	0.000021
 818	8.1291e+01	8.1234	6.810767	0.000172	1.719275	0.291253	0.000017
 819	8.1391e+01	8.1365	6.829098	0.000184	1.842080	0.312057	0.000018
 820	8.1490e+01	8.1480	6.849465	0.000205	2.046756	0.346730	0.000020
 821	8.1590e+01	8.1539	6.867388	0.000180	1.801145	0.305122	0.000018
 822	8.1689e+01	8.1641	6.888163	0.000209	2.087691	0.353664	0.000021
 823	8.1789e+01	8.1738	6.903642	0.000156	1.555534	0.263515	0.000016
 824	8.1888e+01	8.1831	6.924009	0.000205	2.046756	0.346730	0.000020
 825	8.1988e+01	8.1939	6.935007	0.000111	1.105248	0.187234	0.000011
 826	8.2088e+01	8.2020	6.957411	0.000225	2.251431	0.381403	0.000023
 827	8.2187e+01	8.2153	6.977371	0.000201	2.005821	0.339795	0.000020
 828	8.2287e+01	8.2235	6.992035	0.000147	1.473664	0.249645	0.000015
 829	8.2386e+01	8.2320	7.009958	0.000180	1.801145	0.305122	0.000018
 830	8.2486e+01	8.2448	7.027881	0.000180	1.801145	0.305122	0.000018
 831	8.2585e+01	8.2553	7.043767	0.000160	1.596470	0.270449	0.000016
 832	8.2684e+01	8.2618	7.059654	0.000160	1.596470	0.270449	0.000016
 833	8.2784e+01	8.2734	7.081243	0.000217	2.169561	0.367534	0.000022
 834	8.2883e+01	8.2816	7.098759	0.000176	1.760210	0.298188	0.000018
 835	8.2983e+01	8.2929	7.112201	0.000135	1.350859	0.228842	0.000014
 836	8.3082e+01	8.3015	7.131346	0.000192	1.923950	0.325926	0.000019
 837	8.3182e+01	8.3131	7.146825	0.000156	1.555534	0.263515	0.000016
 838	8.3281e+01	8.3246	7.162711	0.000160	1.596470	0.270449	0.000016
 839	8.3381e+01	8.3331	7.180227	0.000176	1.760210	0.298188	0.000018
 840	8.3481e+01	8.3466	7.196114	0.000160	1.596470	0.270449	0.000016
 841	8.3580e+01	8.3538	7.209963	0.000139	1.391794	0.235776	0.000014
 842	8.3680e+01	8.3631	7.231145	0.000213	2.128626	0.360599	0.000021
 843	8.3779e+01	8.3747	7.242551	0.000115	1.146183	0.194169	0.000011
 844	8.3879e+01	8.3821	7.261288	0.000188	1.883015	0.318991	0.000019
 845	8.3978e+01	8.3936	7.278804	0.000176	1.760210	0.298188	0.000018
 846	8.4078e+01	8.4048	7.294690	0.000160	1.596470	0.270449	0.000016
 847	8.4177e+01	8.4153	7.312613	0.000180	1.801145	0.305122	0.000018
 848	8.4276e+01	8.4216	7.331351	0.000188	1.883015	0.318991	0.000019
 849	8.4376e+01	8.4326	7.350904	0.000196	1.964886	0.332861	0.000020
 850	8.4475e+01	8.4441	7.366383	0.000156	1.555534	0.263515	0.000016
 851	8.4575e+01	8.4515	7.386342	0.000201	2.005821	0.339795	0.000020
 852	8.4674e+01	8.4604	7.403451	0.000172	1.719275	0.291253	0.000017
 853	8.4774e+01	8.4711	7.419745	0.000164	1.637405	0.277384	0.000016
 854	8.4874e+01	8.4821	7.433594	0.000139	1.391794	0.235776	0.000014
 855	8.4973e+01	8.4922	7.452332	0.000188	1.883015	0.318991	0.000019
 856	8.5073e+01	8.5017	7.472292	0.000201	2.005821	0.339795	0.000020
 857	8.5172e+01	8.5151	7.493474	0.000213	2.128626	0.360599	0.000021
 858	8.5272e+01	8.5233	7.513026	0.000196	1.964886	0.332861	0.000020
 859	8.5371e+01	8.5310	7.526468	0.000135	1.350859	0.228842	0.000014
 860	8.5471e+01	8.5409	7.547650	0.000213	2.128626	0.360599	0.000021
 861	8.5570e+01	8.5508	7.569239	0.000217	2.169561	0.367534	0.000022
 862	8.5669e+01	8.5618	7.587977	0.000188	1.883015	0.318991	0.000019
 863	8.5769e+01	8.5743	7.606307	0.000184	1.842080	0.312057	0.000018
 864	8.5868e+01	8.5815	7.627489	0.000213	2.128626	0.360599	0.000021
 865	8.5968e+01	8.5941	7.647856	0.000205	2.046756	0.346730	0.000020
 866	8.6067e+01	8.6040	7.664965	0.000172	1.719275	0.291253	0.000017
 867	8.6167e+01	8.6126	7.688591	0.000237	2.374237	0.402207	0.000024
 868	8.6266e+01	8.6244	7.706106	0.000176	1.760210	0.298188	0.000018
 869	8.6366e+01	8.6304	7.724844	0.000188	1.883015	0.318991	0.000019
 870	8.6466e+01	8.6411	7.749692	0.000250	2.497042	0.423010	0.000025
 871	8.6565e+01	8.6552	7.766800	0.000172	1.719275	0.291253	0.000017
 872	8.6665e+01	8.6622	7.785946	0.000192	1.923950	0.325926	0.000019
 873	8.6764e+01	8.6726	7.809571	0.000237	2.374237	0.402207	0.000024
 874	8.6864e+01	8.6821	7.830753	0.000213	2.128626	0.360599	0.000021
 875	8.6963e+01	8.6893	7.847862	0.000172	1.719275	0.291253	0.000017
 876	8.7063e+01	8.7029	7.872302	0.000246	2.456107	0.416076	0.000025
 877	8.7162e+01	8.7123	7.889411	0.000172	1.719275	0.291253	0.000017
 878	8.7261e+01	8.7211	7.911407	0.000221	2.210496	0.374468	0.000022
 879	8.7361e+01	8.7305	7.930552	0.000192	1.923950	0.325926	0.000019
 880	8.7460e+01	8.7387	7.952141	0.000217	2.169561	0.367534	0.000022
 881	8.7560e+01	8.7527	7.973323	0.000213	2.128626	0.360599	0.000021
 882	8.7659e+01	8.7638	7.994912	0.000217	2.169561	0.367534	0.000022
 883	8.7759e+01	8.7713	8.018131	0.000233	2.333302	0.395272	0.000023
 884	8.7859e+01	8.7836	8.037276	0.000192	1.923950	0.325926	0.000019
 885	8.7958e+01	8.7906	8.060902	0.000237	2.374237	0.402207	0.000024
 886	8.8058e+01	8.8013	8.079640	0.000188	1.883015	0.318991	0.000019
 887	8.8157e+01	8.8135	8.102858	0.000233	2.333302	0.395272	0.000023
 888	8.8257e+01	8.8215	8.122003	0.000192	1.923950	0.325926	0.000019
 889	8.8356e+01	8.8303	8.143592	0.000217	2.169561	0.367534	0.000022
 890	8.8456e+01	8.8406	8.164367	0.000209	2.087691	0.353664	0.000021
 891	8.8555e+01	8.8485	8.185956	0.000217	2.169561	0.367534	0.000022
 892	8.8654e+01	8.8590	8.207138	0.000213	2.128626	0.360599	0.000021
 893	8.8754e+01	8.8660	8.226283	0.000192	1.923950	0.325926	0.000019
 894	8.8853e+01	8.8798	8.249094	0.000229	2.292366	0.388337	0.000023
 895	8.8953e+01	8.8908	8.273127	0.000242	2.415172	0.409141	0.000024
 896	8.9052e+01	8.8989	8.294309	0.000213	2.128626	0.360599	0.000021
 897	8.9152e+01	8.9102	8.316713	0.000225	2.251431	0.381403	0.000023
 898	8.9251e+01	8.9204	8.337080	0.000205	2.046756	0.346730	0.000020
 899	8.9351e+01	8.9307	8.357854	0.000209	2.087691	0.353664	0.000021
 900	8.9451e+01	8.9398	8.380666	0.000229	2.292366	0.388337	0.000023
 901	8.9550e+01	8.9487	8.401847	0.000213	2.128626	0.360599	0.000021
 902	8.9650e+01	8.9606	8.422622	0.000209	2.087691	0.353664	0.000021
 903	8.9749e+01	8.9688	8.444211	0.000217	2.169561	0.367534	0.000022
 904	8.9849e+01	8.9797	8.465800	0.000217	2.169561	0.367534	0.000022
 905	8.9948e+01	8.9893	8.486982	0.000213	2.128626	0.360599	0.000021
 906	9.0047e+01	9.0000	8.509793	0.000229	2.292366	0.388337	0.000023
 907	9.0147e+01	9.0094	8.537493	0.000278	2.783588	0.471553	0.000028
 908	9.0246e+01	9.0186	8.559082	0.000217	2.169561	0.367534	0.000022
 909	9.0346e+01	9.0308	8.579856	0.000209	2.087691	0.353664	0.000021
 910	9.0445e+01	9.0397	8.599816	0.000201	2.005821	0.339795	0.000020
 911	9.0545e+01	9.0497	8.626293	0.000266	2.660783	0.450749	0.000027
 912	9.0644e+01	9.0577	8.648697	0.000225	2.251431	0.381403	0.000023
 913	9.0744e+01	9.0686	8.674360	0.000258	2.578912	0.436880	0.000026
 914	9.0844e+01	9.0784	8.695541	0.000213	2.128626	0.360599	0.000021
 915	9.0943e+01	9.0869	8.722019	0.000266	2.660783	0.450749	0.000027
 916	9.1043e+01	9.1016	8.742793	0.000209	2.087691	0.353664	0.000021
 917	9.1142e+01	9.1077	8.767641	0.000250	2.497042	0.423010	0.000025
 918	9.1242e+01	9.1197	8.788008	0.000205	2.046756	0.346730	0.000020
 919	9.1341e+01	9.1286	8.811634	0.000237	2.374237	0.402207	0.000024
 920	9.1441e+01	9.1397	8.832001	0.000205	2.046756	0.346730	0.000020
 921	9.1540e+01	9.1506	8.859700	0.000278	2.783588	0.471553	0.000028
 922	9.1639e+01	9.1595	8.883326	0.000237	2.374237	0.402207	0.000024
 923	9.1739e+01	9.1708	8.907767	0.000246	2.456107	0.416076	0.000025
 924	9.1838e+01	9.1785	8.930985	0.000233	2.333302	0.395272	0.000023
 925	9.1938e+01	9.1885	8.957463	0.000266	2.660783	0.450749	0.000027
 926	9.2037e+01	9.1968	8.982311	0.000250	2.497042	0.423010	0.000025
 927	9.2137e+01	9.2096	9.007158	0.000250	2.497042	0.423010	0.000025
 928	9.2237e+01	9.2206	9.030784	0.000237	2.374237	0.402207	0.000024
 929	9.2336e+01	9.2274	9.056854	0.000262	2.619847	0.443814	0.000026
 930	9.2436e+01	9.2383	9.080480	0.000237	2.374237	0.402207	0.000024
 931	9.2535e+01	9.2486	9.101662	0.000213	2.128626	0.360599	0.000021
 932	9.2635e+01	9.2570	9.125695	0.000242	2.415172	0.409141	0.000024
 933	9.2734e+01	9.2654	9.147284	0.000217	2.169561	0.367534	0.000022
 934	9.2834e+01	9.2776	9.171725	0.000246	2.456107	0.416076	0.000025
 935	9.2933e+01	9.2873	9.194129	0.000225	2.251431	0.381403	0.000023
 936	9.3032e+01	9.2958	9.221013	0.000270	2.701718	0.457683	0.000027
 937	9.3132e+01	9.3073	9.245047	0.000242	2.415172	0.409141	0.000024
 938	9.3231e+01	9.3164	9.267858	0.000229	2.292366	0.388337	0.000023
 939	9.3331e+01	9.3262	9.289447	0.000217	2.169561	0.367534	0.000022
 940	9.3430e+01	9.3372	9.316739	0.000274	2.742653	0.464618	0.000027
 941	9.3530e+01	9.3474	9.336699	0.000201	2.005821	0.339795	0.000020
 942	9.3629e+01	9.3580	9.361547	0.000250	2.497042	0.423010	0.000025
 943	9.3729e+01	9.3678	9.381099	0.000196	1.964886	0.332861	0.000020
 944	9.3829e+01	9.3766	9.406354	0.000254	2.537977	0.429945	0.000025
 945	9.3928e+01	9.3902	9.426721	0.000205	2.046756	0.346730	0.000020
 946	9.4028e+01	9.3954	9.449125	0.000225	2.251431	0.381403	0.000023
 947	9.4127e+01	9.4053	9.471936	0.000229	2.292366	0.388337	0.000023
 948	9.4227e+01	9.4141	9.492303	0.000205	2.046756	0.346730	0.000020
 949	9.4326e+01	9.4279	9.513078	0.000209	2.087691	0.353664	0.000021
 950	9.4425e+01	9.4386	9.539148	0.000262	2.619847	0.443814	0.000026
 951	9.4525e+01	9.4470	9.559922	0.000209	2.087691	0.353664	0.000021
 952	9.4624e+01	9.4587	9.579475	0.000196	1.964886	0.332861	0.000020
 953	9.4724e+01	9.4678	9.600657	0.000213	2.128626	0.360599	0.000021
 954	9.4823e+01	9.4769	9.625912	0.000254	2.537977	0.429945	0.000025
 955	9.4923e+01	9.4836	9.648723	0.000229	2.292366	0.388337	0.000023
 956	9.5022e+01	9.4973	9.662573	0.000139	1.391794	0.235776	0.000014
 957	9.5122e+01	9.5077	9.689050	0.000266	2.660783	0.450749	0.000027
 958	9.5222e+01	9.5176	9.708195	0.000192	1.923950	0.325926	0.000019
 959	9.5321e+01	9.5276	9.731414	0.000233	2.333302	0.395272	0.000023
 960	9.5421e+01	9.5380	9.750966	0.000196	1.964886	0.332861	0.000020
 961	9.5520e+01	9.5468	9.771740	0.000209	2.087691	0.353664	0.000021
 962	9.5620e+01	9.5570	9.798218	0.000266	2.660783	0.450749	0.000027
 963	9.5719e+01	9.5639	9.816955	0.000188	1.883015	0.318991	0.000019
 964	9.5819e+01	9.5760	9.837323	0.000205	2.046756	0.346730	0.000020
 965	9.5918e+01	9.5856	9.858912	0.000217	2.169561	0.367534	0.000022
 966	9.6017e+01	9.5963	9.879686	0.000209	2.087691	0.353664	0.000021
 967	9.6117e+01	9.6071	9.900053	0.000205	2.046756	0.346730	0.000020
 968	9.6216e+01	9.6151	9.919606	0.000196	1.964886	0.332861	0.000020
 969	9.6316e+01	9.6265	9.944046	0.000246	2.456107	0.416076	0.000025
 970	9.6415e+01	9.6362	9.966858	0.000229	2.292366	0.388337	0.000023
 971	9.6515e+01	9.6451	9.985595	0.000188	1.883015	0.318991	0.000019
 972	9.6615e+01	9.6555	10.005555	0.000201	2.005821	0.339795	0.000020
 973	9.6714e+01	9.6661	10.028366	0.000229	2.292366	0.388337	0.000023
 974	9.6814e+01	9.6763	10.048733	0.000205	2.046756	0.346730	0.000020
 975	9.6913e+01	9.6862	10.074803	0.000262	2.619847	0.443814	0.000026
 976	9.7013e+01	9.6958	10.090690	0.000160	1.596470	0.270449	0.000016
 977	9.7112e+01	9.7056	10.117167	0.000266	2.660783	0.450749	0.000027
 978	9.7212e+01	9.7144	10.135090	0.000180	1.801145	0.305122	0.000018
 979	9.7311e+01	9.7247	10.154642	0.000196	1.964886	0.332861	0.000020
 980	9.7410e+01	9.7366	10.175824	0.000213	2.128626	0.360599	0.000021
 981	9.7510e+01	9.7475	10.201080	0.000254	2.537977	0.429945	0.000025
 982	9.7609e+01	9.7560	10.218595	0.000176	1.760210	0.298188	0.000018
 983	9.7709e+01	9.7659	10.242221	0.000237	2.374237	0.402207	0.000024
 984	9.7808e+01	9.7767	10.262588	0.000205	2.046756	0.346730	0.000020
 985	9.7908e+01	9.7845	10.282955	0.000205	2.046756	0.346730	0.000020
 986	9.8007e+01	9.7955	10.303730	0.000209	2.087691	0.353664	0.000021
 987	9.8107e+01	9.8060	10.328578	0.000250	2.497042	0.423010	0.000025
 988	9.8207e+01	9.8138	10.349760	0.000213	2.128626	0.360599	0.000021
 989	9.8306e+01	9.8242	10.370127	0.000205	2.046756	0.346730	0.000020
 990	9.8406e+01	9.8315	10.387642	0.000176	1.760210	0.298188	0.000018
 991	9.8505e+01	9.8447	10.414120	0.000266	2.660783	0.450749	0.000027
 992	9.8605e+01	9.8560	10.436524	0.000225	2.251431	0.381403	0.000023
 993	9.8704e+01	9.8635	10.454854	0.000184	1.842080	0.312057	0.000018
 994	9.8803e+01	9.8785	10.474406	0.000196	1.964886	0.332861	0.000020
 995	9.8903e+01	9.8843	10.493959	0.000196	1.964886	0.332861	0.000020
 996	9.9002e+01	9.8940	10.512289	0.000184	1.842080	0.312057	0.000018
 997	9.9102e+01	9.9023	10.535100	0.000229	2.292366	0.388337	0.000023
 998	9.9201e+01	9.9139	10.557097	0.000221	2.210496	0.374468	0.000022
 999	9.9301e+01	9.9222	10.579501	0.000225	2.251431	0.381403	0.000023
1000	9.9400e+01	9.9322	10.598646	0.000192	1.923950	0.325926	0.000019
1001	9.9500e+01	9.9451	10.621050	0.000225	2.251431	0.381403	0.000023
1002	9.9600e+01	9.9573	10.639787	0.000188	1.883015	0.318991	0.000019
1003	9.9699e+01	9.9620	10.661784	0.000221	2.210496	0.374468	0.000022
1004	9.9799e+01	9.9750	10.682151	0.000205	2.046756	0.346730	0.000020
1005	9.9898e+01	9.9841	10.702518	0.000205	2.046756	0.346730	0.000020
1006	9.9998e+01	9.9951	10.720441	0.000180	1.801145	0.305122	0.000018
1007	1.0010e+02	9.9866	10.708628	0.000119	1.187118	0.201103	-0.000012
1008	1.0020e+02	9.9725	10.698037	0.000106	1.064313	0.180300	-0.000011
1009	1.0030e+02	9.9658	10.685817	0.000123	1.228053	0.208038	-0.000012
1010	1.0040e+02	9.9549	10.673597	0.000123	1.228053	0.208038	-0.000012
1011	1.0050e+02	9.9451	10.660562	0.000131	1.309924	0.221907	-0.000013
1012	1.0059e+02	9.9365	10.647120	0.000135	1.350859	0.228842	-0.000014
1013	1.0069e+02	9.9253	10.636936	0.000102	1.023378	0.173365	-0.000010
1014	1.0079e+02	9.9134	10.621050	0.000160	1.596470	0.270449	-0.000016
1015	1.0089e+02	9.9039	10.616162	0.000049	0.491221	0.083215	-0.000005
1016	1.0099e+02	9.8932	10.605163	0.000111	1.105248	0.187234	-0.000011
1017	1.0109e+02	9.8853	10.592128	0.000131	1.309924	0.221907	-0.000013
1018	1.0119e+02	9.8737	10.580315	0.000119	1.187118	0.201103	-0.000012
1019	1.0129e+02	9.8650	10.565244	0.000151	1.514599	0.256580	-0.000015
1020	1.0139e+02	9.8550	10.555060	0.000102	1.023378	0.173365	-0.000010
1021	1.0149e+02	9.8413	10.543247	0.000119	1.187118	0.201103	-0.000012
1022	1.0159e+02	9.8328	10.527361	0.000160	1.596470	0.270449	-0.000016
1023	1.0169e+02	9.8232	10.517177	0.000102	1.023378	0.173365	-0.000010
1024	1.0179e+02	9.8157	10.505364	0.000119	1.187118	0.201103	-0.000012
1025	1.0189e+02	9.8041	10.491107	0.000143	1.432729	0.242711	-0.000014
1026	1.0199e+02	9.7955	10.478072	0.000131	1.309924	0.221907	-0.000013
1027	1.0209e+02	9.7858	10.467482	0.000106	1.064313	0.180300	-0.000011
1028	1.0219e+02	9.7754	10.453225	0.000143	1.432729	0.242711	-0.000014
1029	1.0229e+02	9.7643	10.440190	0.000131	1.309924	0.221907	-0.000013
1030	1.0239e+02	9.7523	10.433265	0.000070	0.695897	0.117888	-0.000007
1031	1.0248e+02	9.7446	10.418193	0.000151	1.514599	0.256580	-0.000015
1032	1.0258e+02	9.7381	10.410046	0.000082	0.818702	0.138692	-0.000008
1033	1.0268e+02	9.7256	10.395382	0.000147	1.473664	0.249645	-0.000015
1034	1.0278e+02	9.7153	10.390086	0.000053	0.532157	0.090150	-0.000005
1035	1.0288e+02	9.7033	10.374200	0.000160	1.596470	0.270449	-0.000016
1036	1.0298e+02	9.6957	10.365646	0.000086	0.859637	0.145627	-0.000009
1037	1.0308e+02	9.6864	10.351389	0.000143	1.432729	0.242711	-0.000014
1038	1.0318e+02	9.6730	10.342020	0.000094	0.941508	0.159496	-0.000009
1039	1.0328e+02	9.6633	10.326948	0.000151	1.514599	0.256580	-0.000015
1040	1.0338e+02	9.6572	10.316765	0.000102	1.023378	0.173365	-0.000010
1041	1.0348e+02	9.6471	10.302508	0.000143	1.432729	0.242711	-0.000014
1042	1.0358e+02	9.6339	10.296398	0.000061	0.614027	0.104019	-0.000006
1043	1.0368e+02	9.6261	10.279289	0.000172	1.719275	0.291253	-0.000017
1044	1.0378e+02	9.6167	10.270328	0.000090	0.900573	0.152561	-0.000009
1045	1.0388e+02	9.6048	10.258107	0.000123	1.228053	0.208038	-0.000012
1046	1.0398e+02	9.5968	10.246702	0.000115	1.146183	0.194169	-0.000011
1047	1.0408e+02	9.5875	10.234074	0.000127	1.268989	0.214972	-0.000013
1048	1.0418e+02	9.5785	10.222669	0.000115	1.146183	0.194169	-0.000011
1049	1.0428e+02	9.5662	10.212078	0.000106	1.064313	0.180300	-0.000011
1050	1.0438e+02	9.5557	10.199043	0.000131	1.309924	0.221907	-0.000013
1051	1.0447e+02	9.5471	10.186823	0.000123	1.228053	0.208038	-0.000012
1052	1.0457e+02	9.5353	10.177861	0.000090	0.900573	0.152561	-0.000009
1053	1.0467e+02	9.5249	10.162382	0.000156	1.555534	0.263515	-0.000016
1054	1.0477e+02	9.5166	10.150162	0.000123	1.228053	0.208038	-0.000012
1055	1.0487e+02	9.5084	10.140793	0.000094	0.941508	0.159496	-0.000009
1056	1.0497e+02	9.4961	10.128165	0.000127	1.268989	0.214972	-0.000013
1057	1.0507e+02	9.4843	10.116760	0.000115	1.146183	0.194169	-0.000011
1058	1.0517e+02	9.4781	10.103725	0.000131	1.309924	0.221907	-0.000013
1059	1.0527e+02	9.4685	10.091504	0.000123	1.228053	0.208038	-0.000012
1060	1.0537e+02	9.4550	10.079284	0.000123	1.228053	0.208038	-0.000012
1061	1.0547e+02	9.4491	10.068693	0.000106	1.064313	0.180300	-0.000011
1062	1.0557e+02	9.4355	10.056473	0.000123	1.228053	0.208038	-0.000012
1063	1.0567e+02	9.4269	10.046289	0.000102	1.023378	0.173365	-0.000010
1064	1.0577e+02	9.4183	10.033662	0.000127	1.268989	0.214972	-0.000013
1065	1.0587e+02	9.4061	10.022663	0.000111	1.105248	0.187234	-0.000011
1066	1.0597e+02	9.3978	10.012887	0.000098	0.982443	0.166430	-0.000010
1067	1.0607e+02	9.3848	9.995779	0.000172	1.719275	0.291253	-0.000017
1068	1.0617e+02	9.3756	9.984781	0.000111	1.105248	0.187234	-0.000011
1069	1.0627e+02	9.3658	9.973782	0.000111	1.105248	0.187234	-0.000011
1070	1.0637e+02	9.3555	9.960747	0.000131	1.309924	0.221907	-0.000013
1071	1.0647e+02	9.3507	9.946083	0.000147	1.473664	0.249645	-0.000015
1072	1.0656e+02	9.3361	9.936307	0.000098	0.982443	0.166430	-0.000010
1073	1.0666e+02	9.3274	9.922457	0.000139	1.391794	0.235776	-0.000014
1074	1.0676e+02	9.3166	9.909015	0.000135	1.350859	0.228842	-0.000014
1075	1.0686e+02	9.3109	9.899239	0.000098	0.982443	0.166430	-0.000010
1076	1.0696e+02	9.2995	9.887018	0.000123	1.228053	0.208038	-0.000012
1077	1.0706e+02	9.2879	9.876835	0.000102	1.023378	0.173365	-0.000010
1078	1.0716e+02	9.2773	9.865022	0.000119	1.187118	0.201103	-0.000012
1079	1.0726e+02	9.2696	9.854838	0.000102	1.023378	0.173365	-0.000010
1080	1.0736e+02	9.2581	9.843025	0.000119	1.187118	0.201103	-0.000012
1081	1.0746e+02	9.2474	9.827546	0.000156	1.555534	0.263515	-0.000016
1082	1.0756e+02	9.2380	9.817363	0.000102	1.023378	0.173365	-0.000010
1083	1.0766e+02	9.2258	9.810031	0.000074	0.736832	0.124823	-0.000007
1084	1.0776e+02	9.2176	9.792515	0.000176	1.760210	0.298188	-0.000018
1085	1.0786e+02	9.2082	9.788442	0.000041	0.409351	0.069346	-0.000004
1086	1.0796e+02	9.1996	9.770111	0.000184	1.842080	0.312057	-0.000018
1087	1.0806e+02	9.1895	9.759520	0.000106	1.064313	0.180300	-0.000011
1088	1.0816e+02	9.1772	9.744041	0.000156	1.555534	0.263515	-0.000016
1089	1.0826e+02	9.1665	9.737116	0.000070	0.695897	0.117888	-0.000007
1090	1.0836e+02	9.1568	9.726525	0.000106	1.064313	0.180300	-0.000011
1091	1.0845e+02	9.1504	9.713083	0.000135	1.350859	0.228842	-0.000014
1092	1.0855e+02	9.1375	9.700048	0.000131	1.309924	0.221907	-0.000013
1093	1.0865e+02	9.1277	9.689865	0.000102	1.023378	0.173365	-0.000010
1094	1.0875e+02	9.1181	9.684162	0.000057	0.573092	0.097084	-0.000006
1095	1.0885e+02	9.1085	9.673571	0.000106	1.064313	0.180300	-0.000011
1096	1.0895e+02	9.0995	9.659721	0.000139	1.391794	0.235776	-0.000014
1097	1.0905e+02	9.0887	9.654018	0.000057	0.573092	0.097084	-0.000006
1098	1.0915e+02	9.0787	9.637725	0.000164	1.637405	0.277384	-0.000016
1099	1.0925e+02	9.0716	9.624282	0.000135	1.350859	0.228842	-0.000014
1100	1.0935e+02	9.0626	9.611655	0.000127	1.268989	0.214972	-0.000013
1101	1.0945e+02	9.0481	9.602693	0.000090	0.900573	0.152561	-0.000009
1102	1.0955e+02	9.0399	9.587622	0.000151	1.514599	0.256580	-0.000015
1103	1.0965e+02	9.0290	9.575809	0.000119	1.187118	0.201103	-0.000012
1104	1.0975e+02	9.0190	9.561959	0.000139	1.391794	0.235776	-0.000014
1105	1.0985e+02	9.0095	9.550553	0.000115	1.146183	0.194169	-0.000011
1106	1.0995e+02	8.9983	9.541592	0.000090	0.900573	0.152561	-0.000009
1107	1.1005e+02	8.9893	9.525298	0.000164	1.637405	0.277384	-0.000016
1108	1.1015e+02	8.9816	9.512671	0.000127	1.268989	0.214972	-0.000013
1109	1.1025e+02	8.9692	9.502487	0.000102	1.023378	0.173365	-0.000010
1110	1.1035e+02	8.9587	9.486193	0.000164	1.637405	0.277384	-0.000016
1111	1.1044e+02	8.9504	9.473158	0.000131	1.309924	0.221907	-0.000013
1112	1.1054e+02	8.9404	9.458494	0.000147	1.473664	0.249645	-0.000015
1113	1.1064e+02	8.9309	9.444644	0.000139	1.391794	0.235776	-0.000014
1114	1.1074e+02	8.9191	9.427943	0.000168	1.678340	0.284318	-0.000017
1115	1.1084e+02	8.9088	9.416538	0.000115	1.146183	0.194169	-0.000011
1116	1.1094e+02	8.8981	9.398615	0.000180	1.801145	0.305122	-0.000018
1117	1.1104e+02	8.8893	9.386394	0.000123	1.228053	0.208038	-0.000012
1118	1.1114e+02	8.8783	9.370508	0.000160	1.596470	0.270449	-0.000016
1119	1.1124e+02	8.8732	9.353807	0.000168	1.678340	0.284318	-0.000017
1120	1.1134e+02	8.8589	9.340365	0.000135	1.350859	0.228842	-0.000014
1121	1.1144e+02	8.8493	9.322849	0.000176	1.760210	0.298188	-0.000018
1122	1.1154e+02	8.8389	9.308592	0.000143	1.432729	0.242711	-0.000014
1123	1.1164e+02	8.8293	9.294335	0.000143	1.432729	0.242711	-0.000014
1124	1.1174e+02	8.8184	9.280893	0.000135	1.350859	0.228842	-0.000014
1125	1.1184e+02	8.8099	9.265414	0.000156	1.555534	0.263515	-0.000016
1126	1.1194e+02	8.8013	9.249935	0.000156	1.555534	0.263515	-0.000016
1127	1.1204e+02	8.7921	9.233234	0.000168	1.678340	0.284318	-0.000017
1128	1.1214e+02	8.7817	9.218977	0.000143	1.432729	0.242711	-0.000014
1129	1.1224e+02	8.7720	9.199017	0.000201	2.005821	0.339795	-0.000020
1130	1.1234e+02	8.7631	9.187204	0.000119	1.187118	0.201103	-0.000012
1131	1.1244e+02	8.7482	9.170503	0.000168	1.678340	0.284318	-0.000017
1132	1.1253e+02	8.7414	9.151358	0.000192	1.923950	0.325926	-0.000019
1133	1.1263e+02	8.7309	9.137101	0.000143	1.432729	0.242711	-0.000014
1134	1.1273e+02	8.7179	9.118770	0.000184	1.842080	0.312057	-0.000018
1135	1.1283e+02	8.7110	9.104106	0.000147	1.473664	0.249645	-0.000015
1136	1.1293e+02	8.6997	9.085776	0.000184	1.842080	0.312057	-0.000018
1137	1.1303e+02	8.6914	9.071519	0.000143	1.432729	0.242711	-0.000014
1138	1.1313e+02	8.6856	9.055225	0.000164	1.637405	0.277384	-0.000016
1139	1.1323e+02	8.6737	9.040153	0.000151	1.514599	0.256580	-0.000015
1140	1.1333e+02	8.6626	9.027526	0.000127	1.268989	0.214972	-0.000013
1141	1.1343e+02	8.6505	9.008788	0.000188	1.883015	0.318991	-0.000019
1142	1.1353e+02	8.6420	8.990050	0.000188	1.883015	0.318991	-0.000019
1143	1.1363e+02	8.6318	8.973756	0.000164	1.637405	0.277384	-0.000016
1144	1.1373e+02	8.6199	8.954204	0.000196	1.964886	0.332861	-0.000020
1145	1.1383e+02	8.6118	8.939540	0.000147	1.473664	0.249645	-0.000015
1146	1.1393e+02	8.6035	8.923246	0.000164	1.637405	0.277384	-0.000016
1147	1.1403e+02	8.5942	8.902879	0.000205	2.046756	0.346730	-0.000020
1148	1.1413e+02	8.5835	8.887400	0.000156	1.555534	0.263515	-0.000016
1149	1.1423e+02	8.5720	8.871106	0.000164	1.637405	0.277384	-0.000016
1150	1.1433e+02	8.5625	8.855220	0.000160	1.596470	0.270449	-0.000016
1151	1.1442e+02	8.5542	8.837297	0.000180	1.801145	0.305122	-0.000018
1152	1.1452e+02	8.5455	8.823040	0.000143	1.432729	0.242711	-0.000014
1153	1.1462e+02	8.5318	8.804709	0.000184	1.842080	0.312057	-0.000018
1154	1.1472e+02	8.5245	8.791674	0.000131	1.309924	0.221907	-0.000013
1155	1.1482e+02	8.5122	8.770085	0.000217	2.169561	0.367534	-0.000022
1156	1.1492e+02	8.5037	8.753384	0.000168	1.678340	0.284318	-0.000017
1157	1.1502e+02	8.4905	8.740756	0.000127	1.268989	0.214972	-0.000013
1158	1.1512e+02	8.4851	8.719167	0.000217	2.169561	0.367534	-0.000022
1159	1.1522e+02	8.4731	8.700430	0.000188	1.883015	0.318991	-0.000019
1160	1.1532e+02	8.4619	8.684136	0.000164	1.637405	0.277384	-0.000016
1161	1.1542e+02	8.4534	8.664583	0.000196	1.964886	0.332861	-0.000020
1162	1.1552e+02	8.4437	8.650326	0.000143	1.432729	0.242711	-0.000014
1163	1.1562e+02	8.4326	8.626701	0.000237	2.374237	0.402207	-0.000024
1164	1.1572e+02	8.4229	8.610407	0.000164	1.637405	0.277384	-0.000016
1165	1.1582e+02	8.4152	8.591262	0.000192	1.923950	0.325926	-0.000019
1166	1.1592e+02	8.4058	8.572524	0.000188	1.883015	0.318991	-0.000019
1167	1.1602e+02	8.3942	8.552157	0.000205	2.046756	0.346730	-0.000020
1168	1.1612e+02	8.3823	8.535863	0.000164	1.637405	0.277384	-0.000016
1169	1.1622e+02	8.3735	8.517125	0.000188	1.883015	0.318991	-0.000019
1170	1.1632e+02	8.3646	8.499610	0.000176	1.760210	0.298188	-0.000018
1171	1.1642e+02	8.3503	8.477206	0.000225	2.251431	0.381403	-0.000023
1172	1.1651e+02	8.3435	8.460097	0.000172	1.719275	0.291253	-0.000017
1173	1.1661e+02	8.3331	8.443396	0.000168	1.678340	0.284318	-0.000017
1174	1.1671e+02	8.3243	8.423844	0.000196	1.964886	0.332861	-0.000020
1175	1.1681e+02	8.3145	8.409180	0.000147	1.473664	0.249645	-0.000015
1176	1.1691e+02	8.3054	8.382702	0.000266	2.660783	0.450749	-0.000027
1177	1.1701e+02	8.2919	8.363150	0.000196	1.964886	0.332861	-0.000020
1178	1.1711e+02	8.2837	8.343597	0.000196	1.964886	0.332861	-0.000020
1179	1.1721e+02	8.2720	8.324045	0.000196	1.964886	0.332861	-0.000020
1180	1.1731e+02	8.2658	8.303271	0.000209	2.087691	0.353664	-0.000021
1181	1.1741e+02	8.2520	8.282089	0.000213	2.128626	0.360599	-0.000021
1182	1.1751e+02	8.2407	8.264166	0.000180	1.801145	0.305122	-0.000018
1183	1.1761e+02	8.2320	8.251131	0.000131	1.309924	0.221907	-0.000013
1184	1.1771e+02	8.2215	8.228727	0.000225	2.251431	0.381403	-0.000023
1185	1.1781e+02	8.2142	8.212026	0.000168	1.678340	0.284318	-0.000017
1186	1.1791e+02	8.2042	8.195732	0.000164	1.637405	0.277384	-0.000016
1187	1.1801e+02	8.1954	8.172514	0.000233	2.333302	0.395272	-0.000023
1188	1.1811e+02	8.1839	8.155405	0.000172	1.719275	0.291253	-0.000017
1189	1.1821e+02	8.1750	8.138704	0.000168	1.678340	0.284318	-0.000017
1190	1.1831e+02	8.1647	8.119152	0.000196	1.964886	0.332861	-0.000020
1191	1.1841e+02	8.1543	8.102858	0.000164	1.637405	0.277384	-0.000016
1192	1.1850e+02	8.1436	8.083306	0.000196	1.964886	0.332861	-0.000020
1193	1.1860e+02	8.1372	8.064160	0.000192	1.923950	0.325926	-0.000019
1194	1.1870e+02	8.1230	8.046237	0.000180	1.801145	0.305122	-0.000018
1195	1.1880e+02	8.1135	8.030758	0.000156	1.555534	0.263515	-0.000016
1196	1.1890e+02	8.1055	8.009577	0.000213	2.128626	0.360599	-0.000021
1197	1.1900e+02	8.0942	7.994505	0.000151	1.514599	0.256580	-0.000015
1198	1.1910e+02	8.0846	7.980248	0.000143	1.432729	0.242711	-0.000014
1199	1.1920e+02	8.0746	7.964769	0.000156	1.555534	0.263515	-0.000016
1200	1.1930e+02	8.0646	7.942772	0.000221	2.210496	0.374468	-0.000022
1201	1.1940e+02	8.0530	7.927701	0.000151	1.514599	0.256580	-0.000015
1202	1.1950e+02	8.0444	7.911000	0.000168	1.678340	0.284318	-0.000017
1203	1.1960e+02	8.0373	7.891855	0.000192	1.923950	0.325926	-0.000019
1204	1.1970e+02	8.0258	7.882078	0.000098	0.982443	0.166430	-0.000010
1205	1.1980e+02	8.0132	7.862526	0.000196	1.964886	0.332861	-0.000020
1206	1.1990e+02	8.0075	7.850306	0.000123	1.228053	0.208038	-0.000012
1207	1.2000e+02	7.9977	7.828309	0.000221	2.210496	0.374468	-0.000022
1208	1.2010e+02	7.9855	7.814052	0.000143	1.432729	0.242711	-0.000014
1209	1.2020e+02	7.9744	7.794907	0.000192	1.923950	0.325926	-0.000019
1210	1.2030e+02	7.9681	7.776577	0.000184	1.842080	0.312057	-0.000018
1211	1.2039e+02	7.9557	7.761912	0.000147	1.473664	0.249645	-0.000015
1212	1.2049e+02	7.9433	7.746433	0.000156	1.555534	0.263515	-0.000016
1213	1.2059e+02	7.9371	7.732991	0.000135	1.350859	0.228842	-0.000014
1214	1.2069e+02	7.9252	7.714253	0.000188	1.883015	0.318991	-0.000019
1215	1.2079e+02	7.9163	7.699182	0.000151	1.514599	0.256580	-0.000015
1216	1.2089e+02	7.9066	7.687776	0.000115	1.146183	0.194169	-0.000011
1217	1.2099e+02	7.8943	7.669038	0.000188	1.883015	0.318991	-0.000019
1218	1.2109e+02	7.8857	7.653967	0.000151	1.514599	0.256580	-0.000015
1219	1.2119e+02	7.8768	7.634821	0.000192	1.923950	0.325926	-0.000019
1220	1.2129e+02	7.8654	7.621786	0.000131	1.309924	0.221907	-0.000013
1221	1.2139e+02	7.8552	7.603456	0.000184	1.842080	0.312057	-0.000018
1222	1.2149e+02	7.8435	7.588384	0.000151	1.514599	0.256580	-0.000015
1223	1.2159e+02	7.8358	7.571683	0.000168	1.678340	0.284318	-0.000017
1224	1.2169e+02	7.8271	7.556612	0.000151	1.514599	0.256580	-0.000015
1225	1.2179e+02	7.8155	7.539503	0.000172	1.719275	0.291253	-0.000017
1226	1.2189e+02	7.8060	7.526468	0.000131	1.309924	0.221907	-0.000013
1227	1.2199e+02	7.7962	7.508138	0.000184	1.842080	0.312057	-0.000018
1228	1.2209e+02	7.7842	7.495510	0.000127	1.268989	0.214972	-0.000013
1229	1.2219e+02	7.7753	7.475551	0.000201	2.005821	0.339795	-0.000020
1230	1.2229e+02	7.7647	7.464960	0.000106	1.064313	0.180300	-0.000011
1231	1.2239e+02	7.7544	7.448259	0.000168	1.678340	0.284318	-0.000017
1232	1.2248e+02	7.7453	7.433187	0.000151	1.514599	0.256580	-0.000015
1233	1.2258e+02	7.7373	7.416893	0.000164	1.637405	0.277384	-0.000016
1234	1.2268e+02	7.7276	7.402229	0.000147	1.473664	0.249645	-0.000015
1235	1.2278e+02	7.7164	7.386750	0.000156	1.555534	0.263515	-0.000016
1236	1.2288e+02	7.7105	7.372493	0.000143	1.432729	0.242711	-0.000014
1237	1.2298e+02	7.6958	7.352533	0.000201	2.005821	0.339795	-0.000020
1238	1.2308e+02	7.6867	7.337869	0.000147	1.473664	0.249645	-0.000015
1239	1.2318e+02	7.6766	7.321575	0.000164	1.637405	0.277384	-0.000016
1240	1.2328e+02	7.6688	7.306503	0.000151	1.514599	0.256580	-0.000015
1241	1.2338e+02	7.6540	7.289802	0.000168	1.678340	0.284318	-0.000017
1242	1.2348e+02	7.6456	7.273916	0.000160	1.596470	0.270449	-0.000016
1243	1.2358e+02	7.6373	7.258844	0.000151	1.514599	0.256580	-0.000015
1244	1.2368e+02	7.6278	7.244180	0.000147	1.473664	0.249645	-0.000015
1245	1.2378e+02	7.6168	7.231552	0.000127	1.268989	0.214972	-0.000013
1246	1.2388e+02	7.6055	7.215666	0.000160	1.596470	0.270449	-0.000016
1247	1.2398e+02	7.5967	7.203446	0.000123	1.228053	0.208038	-0.000012
1248	1.2408e+02	7.5845	7.191225	0.000123	1.228053	0.208038	-0.000012
1249	1.2418e+02	7.5770	7.171673	0.000196	1.964886	0.332861	-0.000020
1250	1.2428e+02	7.5656	7.155379	0.000164	1.637405	0.277384	-0.000016
1251	1.2438e+02	7.5550	7.146010	0.000094	0.941508	0.159496	-0.000009
1252	1.2447e+02	7.5480	7.125236	0.000209	2.087691	0.353664	-0.000021
1253	1.2457e+02	7.5356	7.110572	0.000147	1.473664	0.249645	-0.000015
1254	1.2467e+02	7.5272	7.097537	0.000131	1.309924	0.221907	-0.000013
1255	1.2477e+02	7.5204	7.084502	0.000131	1.309924	0.221907	-0.000013
1256	1.2487e+02	7.5085	7.069023	0.000156	1.555534	0.263515	-0.000016
1257	1.2497e+02	7.4991	7.053136	0.000160	1.596470	0.270449	-0.000016
1258	1.2507e+02	7.4892	7.040916	0.000123	1.228053	0.208038	-0.000012
1259	1.2517e+02	7.4792	7.026659	0.000143	1.432729	0.242711	-0.000014
1260	1.2527e+02	7.4660	7.014846	0.000119	1.187118	0.201103	-0.000012
1261	1.2537e+02	7.4572	7.003440	0.000115	1.146183	0.194169	-0.000011
1262	1.2547e+02	7.4477	6.989998	0.000135	1.350859	0.228842	-0.000014
1263	1.2557e+02	7.4374	6.977371	0.000127	1.268989	0.214972	-0.000013
1264	1.2567e+02	7.4296	6.961892	0.000156	1.555534	0.263515	-0.000016
1265	1.2577e+02	7.4194	6.947227	0.000147	1.473664	0.249645	-0.000015
1266	1.2587e+02	7.4085	6.928082	0.000192	1.923950	0.325926	-0.000019
1267	1.2597e+02	7.3977	6.913825	0.000143	1.432729	0.242711	-0.000014
1268	1.2607e+02	7.3864	6.899568	0.000143	1.432729	0.242711	-0.000014
1269	1.2617e+02	7.3771	6.885718	0.000139	1.391794	0.235776	-0.000014
1270	1.2627e+02	7.3669	6.871054	0.000147	1.473664	0.249645	-0.000015
1271	1.2636e+02	7.3592	6.854760	0.000164	1.637405	0.277384	-0.000016
1272	1.2646e+02	7.3487	6.840096	0.000147	1.473664	0.249645	-0.000015
1273	1.2656e+02	7.3393	6.822173	0.000180	1.801145	0.305122	-0.000018
1274	1.2666e+02	7.3278	6.808731	0.000135	1.350859	0.228842	-0.000014
1275	1.2676e+02	7.3193	6.792844	0.000160	1.596470	0.270449	-0.000016
1276	1.2686e+02	7.3086	6.783476	0.000094	0.941508	0.159496	-0.000009
1277	1.2696e+02	7.2967	6.759850	0.000237	2.374237	0.402207	-0.000024
1278	1.2706e+02	7.2891	6.747222	0.000127	1.268989	0.214972	-0.000013
1279	1.2716e+02	7.2807	6.729706	0.000176	1.760210	0.298188	-0.000018
1280	1.2726e+02	7.2695	6.717079	0.000127	1.268989	0.214972	-0.000013
1281	1.2736e+02	7.2579	6.699156	0.000180	1.801145	0.305122	-0.000018
1282	1.2746e+02	7.2486	6.680011	0.000192	1.923950	0.325926	-0.000019
1283	1.2756e+02	7.2390	6.664531	0.000156	1.555534	0.263515	-0.000016
1284	1.2766e+02	7.2297	6.647423	0.000172	1.719275	0.291253	-0.000017
1285	1.2776e+02	7.2179	6.627871	0.000196	1.964886	0.332861	-0.000020
1286	1.2786e+02	7.2097	6.609948	0.000180	1.801145	0.305122	-0.000018
1287	1.2796e+02	7.1981	6.596098	0.000139	1.391794	0.235776	-0.000014
1288	1.2806e+02	7.1886	6.574101	0.000221	2.210496	0.374468	-0.000022
1289	1.2816e+02	7.1822	6.559437	0.000147	1.473664	0.249645	-0.000015
1290	1.2826e+02	7.1688	6.540699	0.000188	1.883015	0.318991	-0.000019
1291	1.2835e+02	7.1612	6.521554	0.000192	1.923950	0.325926	-0.000019
1292	1.2845e+02	7.1510	6.503631	0.000180	1.801145	0.305122	-0.000018
1293	1.2855e+02	7.1397	6.487337	0.000164	1.637405	0.277384	-0.000016
1294	1.2865e+02	7.1294	6.470229	0.000172	1.719275	0.291253	-0.000017
1295	1.2875e+02	7.1197	6.451899	0.000184	1.842080	0.312057	-0.000018
1296	1.2885e+02	7.1074	6.433568	0.000184	1.842080	0.312057	-0.000018
1297	1.2895e+02	7.0997	6.416460	0.000172	1.719275	0.291253	-0.000017
1298	1.2905e+02	7.0904	6.396907	0.000196	1.964886	0.332861	-0.000020
1299	1.2915e+02	7.0794	6.377762	0.000192	1.923950	0.325926	-0.000019
1300	1.2925e+02	7.0675	6.359432	0.000184	1.842080	0.312057	-0.000018
1301	1.2935e+02	7.0583	6.340287	0.000192	1.923950	0.325926	-0.000019
1302	1.2945e+02	7.0493	6.321549	0.000188	1.883015	0.318991	-0.000019
1303	1.2955e+02	7.0375	6.301997	0.000196	1.964886	0.332861	-0.000020
1304	1.2965e+02	7.0282	6.282852	0.000192	1.923950	0.325926	-0.000019
1305	1.2975e+02	7.0198	6.264928	0.000180	1.801145	0.305122	-0.000018
1306	1.2985e+02	7.0098	6.249449	0.000156	1.555534	0.263515	-0.000016
1307	1.2995e+02	7.0017	6.229082	0.000205	2.046756	0.346730	-0.000020
1308	1.3005e+02	6.9908	6.211974	0.000172	1.719275	0.291253	-0.000017
1309	1.3015e+02	6.9790	6.191607	0.000205	2.046756	0.346730	-0.000020
1310	1.3025e+02	6.9686	6.175720	0.000160	1.596470	0.270449	-0.000016
1311	1.3034e+02	6.9603	6.156168	0.000196	1.964886	0.332861	-0.000020
1312	1.3044e+02	6.9523	6.134171	0.000221	2.210496	0.374468	-0.000022
1313	1.3054e+02	6.9415	6.115434	0.000188	1.883015	0.318991	-0.000019
1314	1.3064e+02	6.9274	6.096289	0.000192	1.923950	0.325926	-0.000019
1315	1.3074e+02	6.9207	6.076329	0.000201	2.005821	0.339795	-0.000020
1316	1.3084e+02	6.9118	6.058406	0.000180	1.801145	0.305122	-0.000018
1317	1.3094e+02	6.8996	6.038039	0.000205	2.046756	0.346730	-0.000020
1318	1.3104e+02	6.8884	6.019708	0.000184	1.842080	0.312057	-0.000018
1319	1.3114e+02	6.8800	5.999341	0.000205	2.046756	0.346730	-0.000020
1320	1.3124e+02	6.8719	5.980603	0.000188	1.883015	0.318991	-0.000019
1321	1.3134e+02	6.8595	5.964717	0.000160	1.596470	0.270449	-0.000016
1322	1.3144e+02	6.8490	5.947609	0.000172	1.719275	0.291253	-0.000017
1323	1.3154e+02	6.8435	5.929686	0.000180	1.801145	0.305122	-0.000018
1324	1.3164e+02	6.8303	5.910540	0.000192	1.923950	0.325926	-0.000019
1325	1.3174e+02	6.8211	5.889359	0.000213	2.128626	0.360599	-0.000021
1326	1.3184e+02	6.8102	5.868584	0.000209	2.087691	0.353664	-0.000021
1327	1.3194e+02	6.8020	5.854734	0.000139	1.391794	0.235776	-0.000014
1328	1.3204e+02	6.7889	5.827443	0.000274	2.742653	0.464618	-0.000027
1329	1.3214e+02	6.7812	5.806668	0.000209	2.087691	0.353664	-0.000021
1330	1.3224e+02	6.7725	5.789560	0.000172	1.719275	0.291253	-0.000017
1331	1.3234e+02	6.7624	5.765526	0.000242	2.415172	0.409141	-0.000024
1332	1.3243e+02	6.7529	5.745567	0.000201	2.005821	0.339795	-0.000020
1333	1.3253e+02	6.7435	5.721941	0.000237	2.374237	0.402207	-0.000024
1334	1.3263e+02	6.7305	5.701574	0.000205	2.046756	0.346730	-0.000020
1335	1.3273e+02	6.7220	5.684465	0.000172	1.719275	0.291253	-0.000017
1336	1.3283e+02	6.7121	5.666135	0.000184	1.842080	0.312057	-0.000018
1337	1.3293e+02	6.6985	5.645360	0.000209	2.087691	0.353664	-0.000021
1338	1.3303e+02	6.6912	5.626623	0.000188	1.883015	0.318991	-0.000019
1339	1.3313e+02	6.6824	5.600553	0.000262	2.619847	0.443814	-0.000026
1340	1.3323e+02	6.6714	5.581815	0.000188	1.883015	0.318991	-0.000019
1341	1.3333e+02	6.6607	5.556967	0.000250	2.497042	0.423010	-0.000025
1342	1.3343e+02	6.6498	5.538637	0.000184	1.842080	0.312057	-0.000018
1343	1.3353e+02	6.6434	5.515825	0.000229	2.292366	0.388337	-0.000023
1344	1.3363e+02	6.6338	5.493422	0.000225	2.251431	0.381403	-0.000023
1345	1.3373e+02	6.6225	5.473055	0.000205	2.046756	0.346730	-0.000020
1346	1.3383e+02	6.6121	5.454317	0.000188	1.883015	0.318991	-0.000019
1347	1.3393e+02	6.6029	5.429876	0.000246	2.456107	0.416076	-0.000025
1348	1.3403e+02	6.5890	5.404214	0.000258	2.578912	0.436880	-0.000026
1349	1.3413e+02	6.5826	5.386698	0.000176	1.760210	0.298188	-0.000018
1350	1.3423e+02	6.5730	5.367553	0.000192	1.923950	0.325926	-0.000019
1351	1.3432e+02	6.5630	5.346371	0.000213	2.128626	0.360599	-0.000021
1352	1.3442e+02	6.5524	5.327633	0.000188	1.883015	0.318991	-0.000019
1353	1.3452e+02	6.5449	5.307266	0.000205	2.046756	0.346730	-0.000020
1354	1.3462e+02	6.5336	5.286899	0.000205	2.046756	0.346730	-0.000020
1355	1.3472e+02	6.5221	5.264088	0.000229	2.292366	0.388337	-0.000023
1356	1.3482e+02	6.5121	5.243721	0.000205	2.046756	0.346730	-0.000020
1357	1.3492e+02	6.5008	5.222946	0.000209	2.087691	0.353664	-0.000021
1358	1.3502e+02	6.4938	5.206245	0.000168	1.678340	0.284318	-0.000017
1359	1.3512e+02	6.4831	5.180990	0.000254	2.537977	0.429945	-0.000025
1360	1.3522e+02	6.4751	5.160215	0.000209	2.087691	0.353664	-0.000021
1361	1.3532e+02	6.4622	5.143107	0.000172	1.719275	0.291253	-0.000017
1362	1.3542e+02	6.4521	5.126406	0.000168	1.678340	0.284318	-0.000017
1363	1.3552e+02	6.4429	5.103595	0.000229	2.292366	0.388337	-0.000023
1364	1.3562e+02	6.4342	5.083635	0.000201	2.005821	0.339795	-0.000020
1365	1.3572e+02	6.4204	5.067749	0.000160	1.596470	0.270449	-0.000016
1366	1.3582e+02	6.4137	5.048196	0.000196	1.964886	0.332861	-0.000020
1367	1.3592e+02	6.4046	5.029866	0.000184	1.842080	0.312057	-0.000018
1368	1.3602e+02	6.3917	5.011535	0.000184	1.842080	0.312057	-0.000018
1369	1.3612e+02	6.3850	4.991576	0.000201	2.005821	0.339795	-0.000020
1370	1.3622e+02	6.3750	4.976097	0.000156	1.555534	0.263515	-0.000016
1371	1.3631e+02	6.3653	4.957359	0.000188	1.883015	0.318991	-0.000019
1372	1.3641e+02	6.3529	4.936584	0.000209	2.087691	0.353664	-0.000021
1373	1.3651e+02	6.3421	4.920698	0.000160	1.596470	0.270449	-0.000016
1374	1.3661e+02	6.3326	4.904812	0.000160	1.596470	0.270449	-0.000016
1375	1.3671e+02	6.3247	4.885667	0.000192	1.923950	0.325926	-0.000019
1376	1.3681e+02	6.3107	4.866521	0.000192	1.923950	0.325926	-0.000019
1377	1.3691e+02	6.3055	4.846969	0.000196	1.964886	0.332861	-0.000020
1378	1.3701e+02	6.2934	4.831490	0.000156	1.555534	0.263515	-0.000016
1379	1.3711e+02	6.2844	4.814382	0.000172	1.719275	0.291253	-0.000017
1380	1.3721e+02	6.2744	4.795644	0.000188	1.883015	0.318991	-0.000019
1381	1.3731e+02	6.2664	4.776906	0.000188	1.883015	0.318991	-0.000019
1382	1.3741e+02	6.2545	4.758168	0.000188	1.883015	0.318991	-0.000019
1383	1.3751e+02	6.2436	4.742689	0.000156	1.555534	0.263515	-0.000016
1384	1.3761e+02	6.2344	4.727210	0.000156	1.555534	0.263515	-0.000016
1385	1.3771e+02	6.2247	4.708473	0.000188	1.883015	0.318991	-0.000019
1386	1.3781e+02	6.2147	4.689735	0.000188	1.883015	0.318991	-0.000019
1387	1.3791e+02	6.2029	4.673034	0.000168	1.678340	0.284318	-0.000017
1388	1.3801e+02	6.1963	4.654296	0.000188	1.883015	0.318991	-0.000019
1389	1.3811e+02	6.1849	4.639224	0.000151	1.514599	0.256580	-0.000015
1390	1.3821e+02	6.1753	4.614784	0.000246	2.456107	0.416076	-0.000025
1391	1.3831e+02	6.1634	4.598083	0.000168	1.678340	0.284318	-0.000017
1392	1.3840e+02	6.1565	4.582604	0.000156	1.555534	0.263515	-0.000016
1393	1.3850e+02	6.1462	4.565903	0.000168	1.678340	0.284318	-0.000017
1394	1.3860e+02	6.1366	4.545943	0.000201	2.005821	0.339795	-0.000020
1395	1.3870e+02	6.1280	4.531279	0.000147	1.473664	0.249645	-0.000015
1396	1.3880e+02	6.1143	4.511319	0.000201	2.005821	0.339795	-0.000020
1397	1.3890e+02	6.1046	4.497062	0.000143	1.432729	0.242711	-0.000014
1398	1.3900e+02	6.0967	4.477509	0.000196	1.964886	0.332861	-0.000020
1399	1.3910e+02	6.0873	4.462030	0.000156	1.555534	0.263515	-0.000016
1400	1.3920e+02	6.0743	4.445737	0.000164	1.637405	0.277384	-0.000016
1401	1.3930e+02	6.0674	4.427814	0.000180	1.801145	0.305122	-0.000018
1402	1.3940e+02	6.0551	4.410705	0.000172	1.719275	0.291253	-0.000017
1403	1.3950e+02	6.0462	4.393597	0.000172	1.719275	0.291253	-0.000017
1404	1.3960e+02	6.0366	4.372822	0.000209	2.087691	0.353664	-0.000021
1405	1.3970e+02	6.0265	4.359380	0.000135	1.350859	0.228842	-0.000014
1406	1.3980e+02	6.0156	4.337383	0.000221	2.210496	0.374468	-0.000022
1407	1.3990e+02	6.0071	4.322312	0.000151	1.514599	0.256580	-0.000015
1408	1.4000e+02	5.9942	4.303167	0.000192	1.923950	0.325926	-0.000019
1409	1.4010e+02	5.9843	4.285651	0.000176	1.760210	0.298188	-0.000018
1410	1.4020e+02	5.9750	4.271394	0.000143	1.432729	0.242711	-0.000014
1411	1.4029e+02	5.9643	4.251842	0.000196	1.964886	0.332861	-0.000020
1412	1.4039e+02	5.9557	4.233918	0.000180	1.801145	0.305122	-0.000018
1413	1.4049e+02	5.9464	4.221291	0.000127	1.268989	0.214972	-0.000013
1414	1.4059e+02	5.9353	4.206219	0.000151	1.514599	0.256580	-0.000015
1415	1.4069e+02	5.9262	4.187074	0.000192	1.923950	0.325926	-0.000019
1416	1.4079e+02	5.9161	4.172002	0.000151	1.514599	0.256580	-0.000015
1417	1.4089e+02	5.9054	4.158560	0.000135	1.350859	0.228842	-0.000014
1418	1.4099e+02	5.8952	4.140637	0.000180	1.801145	0.305122	-0.000018
1419	1.4109e+02	5.8877	4.123121	0.000176	1.760210	0.298188	-0.000018
1420	1.4119e+02	5.8758	4.107642	0.000156	1.555534	0.263515	-0.000016
1421	1.4129e+02	5.8633	4.090941	0.000168	1.678340	0.284318	-0.000017
1422	1.4139e+02	5.8559	4.073833	0.000172	1.719275	0.291253	-0.000017
1423	1.4149e+02	5.8477	4.055502	0.000184	1.842080	0.312057	-0.000018
1424	1.4159e+02	5.8363	4.041245	0.000143	1.432729	0.242711	-0.000014
1425	1.4169e+02	5.8282	4.028210	0.000131	1.309924	0.221907	-0.000013
1426	1.4179e+02	5.8160	4.013139	0.000151	1.514599	0.256580	-0.000015
1427	1.4189e+02	5.8057	3.995216	0.000180	1.801145	0.305122	-0.000018
1428	1.4199e+02	5.7963	3.981773	0.000135	1.350859	0.228842	-0.000014
1429	1.4209e+02	5.7870	3.966294	0.000156	1.555534	0.263515	-0.000016
1430	1.4219e+02	5.7784	3.950001	0.000164	1.637405	0.277384	-0.000016
1431	1.4228e+02	5.7681	3.934114	0.000160	1.596470	0.270449	-0.000016
1432	1.4238e+02	5.7537	3.917006	0.000172	1.719275	0.291253	-0.000017
1433	1.4248e+02	5.7458	3.901934	0.000151	1.514599	0.256580	-0.000015
1434	1.4258e+02	5.7351	3.884011	0.000180	1.801145	0.305122	-0.000018
1435	1.4268e+02	5.7262	3.868940	0.000151	1.514599	0.256580	-0.000015
1436	1.4278e+02	5.7154	3.849794	0.000192	1.923950	0.325926	-0.000019
1437	1.4288e+02	5.7058	3.833908	0.000160	1.596470	0.270449	-0.000016
1438	1.4298e+02	5.6954	3.818022	0.000160	1.596470	0.270449	-0.000016
1439	1.4308e+02	5.6861	3.802950	0.000151	1.514599	0.256580	-0.000015
1440	1.4318e+02	5.6765	3.787064	0.000160	1.596470	0.270449	-0.000016
1441	1.4328e+02	5.6680	3.769955	0.000172	1.719275	0.291253	-0.000017
1442	1.4338e+02	5.6593	3.749181	0.000209	2.087691	0.353664	-0.000021
1443	1.4348e+02	5.6484	3.732887	0.000164	1.637405	0.277384	-0.000016
1444	1.4358e+02	5.6365	3.717408	0.000156	1.555534	0.263515	-0.000016
1445	1.4368e+02	5.6236	3.699485	0.000180	1.801145	0.305122	-0.000018
1446	1.4378e+02	5.6182	3.681969	0.000176	1.760210	0.298188	-0.000018
1447	1.4388e+02	5.6081	3.661602	0.000205	2.046756	0.346730	-0.000020
1448	1.4398e+02	5.5987	3.645308	0.000164	1.637405	0.277384	-0.000016
1449	1.4408e+02	5.5882	3.624534	0.000209	2.087691	0.353664	-0.000021
1450	1.4418e+02	5.5785	3.609870	0.000147	1.473664	0.249645	-0.000015
1451	1.4428e+02	5.5669	3.587873	0.000221	2.210496	0.374468	-0.000022
1452	1.4437e+02	5.5573	3.568728	0.000192	1.923950	0.325926	-0.000019
1453	1.4447e+02	5.5483	3.552027	0.000168	1.678340	0.284318	-0.000017
1454	1.4457e+02	5.5398	3.532475	0.000196	1.964886	0.332861	-0.000020
1455	1.4467e+02	5.5268	3.513330	0.000192	1.923950	0.325926	-0.000019
1456	1.4477e+02	5.5187	3.492962	0.000205	2.046756	0.346730	-0.000020
1457	1.4487e+02	5.5083	3.472188	0.000209	2.087691	0.353664	-0.000021
1458	1.4497e+02	5.4977	3.457931	0.000143	1.432729	0.242711	-0.000014
1459	1.4507e+02	5.4900	3.432676	0.000254	2.537977	0.429945	-0.000025
1460	1.4517e+02	5.4754	3.416382	0.000164	1.637405	0.277384	-0.000016
1461	1.4527e+02	5.4668	3.394793	0.000217	2.169561	0.367534	-0.000022
1462	1.4537e+02	5.4580	3.374018	0.000209	2.087691	0.353664	-0.000021
1463	1.4547e+02	5.4467	3.356910	0.000172	1.719275	0.291253	-0.000017
1464	1.4557e+02	5.4371	3.334913	0.000221	2.210496	0.374468	-0.000022
1465	1.4567e+02	5.4275	3.314139	0.000209	2.087691	0.353664	-0.000021
1466	1.4577e+02	5.4163	3.294179	0.000201	2.005821	0.339795	-0.000020
1467	1.4587e+02	5.4089	3.274219	0.000201	2.005821	0.339795	-0.000020
1468	1.4597e+02	5.3972	3.257518	0.000168	1.678340	0.284318	-0.000017
1469	1.4607e+02	5.3873	3.235929	0.000217	2.169561	0.367534	-0.000022
1470	1.4617e+02	5.3790	3.214340	0.000217	2.169561	0.367534	-0.000022
1471	1.4626e+02	5.3674	3.196010	0.000184	1.842080	0.312057	-0.000018
1472	1.4636e+02	5.3603	3.174013	0.000221	2.210496	0.374468	-0.000022
1473	1.4646e+02	5.3497	3.156905	0.000172	1.719275	0.291253	-0.000017
1474	1.4656e+02	5.3378	3.136538	0.000205	2.046756	0.346730	-0.000020
1475	1.4666e+02	5.3286	3.114541	0.000221	2.210496	0.374468	-0.000022
1476	1.4676e+02	5.3191	3.097433	0.000172	1.719275	0.291253	-0.000017
1477	1.4686e+02	5.3077	3.076251	0.000213	2.128626	0.360599	-0.000021
1478	1.4696e+02	5.2993	3.052625	0.000237	2.374237	0.402207	-0.000024
1479	1.4706e+02	5.2905	3.031443	0.000213	2.128626	0.360599	-0.000021
1480	1.4716e+02	5.2783	3.011891	0.000196	1.964886	0.332861	-0.000020
1481	1.4726e+02	5.2700	2.993153	0.000188	1.883015	0.318991	-0.000019
1482	1.4736e+02	5.2583	2.967898	0.000254	2.537977	0.429945	-0.000025
1483	1.4746e+02	5.2483	2.948753	0.000192	1.923950	0.325926	-0.000019
1484	1.4756e+02	5.2410	2.927164	0.000217	2.169561	0.367534	-0.000022
1485	1.4766e+02	5.2260	2.908833	0.000184	1.842080	0.312057	-0.000018
1486	1.4776e+02	5.2197	2.887651	0.000213	2.128626	0.360599	-0.000021
1487	1.4786e+02	5.2123	2.865248	0.000225	2.251431	0.381403	-0.000023
1488	1.4796e+02	5.1991	2.849768	0.000156	1.555534	0.263515	-0.000016
1489	1.4806e+02	5.1894	2.828587	0.000213	2.128626	0.360599	-0.000021
1490	1.4816e+02	5.1787	2.804146	0.000246	2.456107	0.416076	-0.000025
1491	1.4825e+02	5.1714	2.786223	0.000180	1.801145	0.305122	-0.000018
1492	1.4835e+02	5.1585	2.766263	0.000201	2.005821	0.339795	-0.000020
1493	1.4845e+02	5.1501	2.746303	0.000201	2.005821	0.339795	-0.000020
1494	1.4855e+02	5.1398	2.721456	0.000250	2.497042	0.423010	-0.000025
1495	1.4865e+02	5.1295	2.700681	0.000209	2.087691	0.353664	-0.000021
1496	1.4875e+02	5.1214	2.681536	0.000192	1.923950	0.325926	-0.000019
1497	1.4885e+02	5.1089	2.655873	0.000258	2.578912	0.436880	-0.000026
1498	1.4895e+02	5.1003	2.634284	0.000217	2.169561	0.367534	-0.000022
1499	1.4905e+02	5.0903	2.608622	0.000258	2.578912	0.436880	-0.000026
1500	1.4915e+02	5.0799	2.586625	0.000221	2.210496	0.374468	-0.000022
1501	1.4925e+02	5.0741	2.565036	0.000217	2.169561	0.367534	-0.000022
1502	1.4935e+02	5.0587	2.547113	0.000180	1.801145	0.305122	-0.000018
1503	1.4945e+02	5.0534	2.525931	0.000213	2.128626	0.360599	-0.000021
1504	1.4955e+02	5.0415	2.504342	0.000217	2.169561	0.367534	-0.000022
1505	1.4965e+02	5.0318	2.481938	0.000225	2.251431	0.381403	-0.000023
1506	1.4975e+02	5.0216	2.457498	0.000246	2.456107	0.416076	-0.000025
1507	1.4985e+02	5.0107	2.434686	0.000229	2.292366	0.388337	-0.000023
1508	1.4995e+02	4.9987	2.413912	0.000209	2.087691	0.353664	-0.000021
1509	1.5005e+02	4.9918	2.387027	0.000270	2.701718	0.457683	-0.000027
1510	1.5015e+02	4.9802	2.368290	0.000188	1.883015	0.318991	-0.000019
1511	1.5025e+02	4.9706	2.342627	0.000258	2.578912	0.436880	-0.000026
1512	1.5034e+02	4.9621	2.319816	0.000229	2.292366	0.388337	-0.000023
1513	1.5044e+02	4.9516	2.293339	0.000266	2.660783	0.450749	-0.000027
1514	1.5054e+02	4.9418	2.269305	0.000242	2.415172	0.409141	-0.000024
1515	1.5064e+02	4.9296	2.248531	0.000209	2.087691	0.353664	-0.000021
1516	1.5074e+02	4.9219	2.227349	0.000213	2.128626	0.360599	-0.000021
1517	1.5084e+02	4.9100	2.204945	0.000225	2.251431	0.381403	-0.000023
1518	1.5094e+02	4.8995	2.185393	0.000196	1.964886	0.332861	-0.000020
1519	1.5104e+02	4.8939	2.161767	0.000237	2.374237	0.402207	-0.000024
1520	1.5114e+02	4.8814	2.138548	0.000233	2.333302	0.395272	-0.000023
1521	1.5124e+02	4.8710	2.118589	0.000201	2.005821	0.339795	-0.000020
1522	1.5134e+02	4.8599	2.094555	0.000242	2.415172	0.409141	-0.000024
1523	1.5144e+02	4.8510	2.074596	0.000201	2.005821	0.339795	-0.000020
1524	1.5154e+02	4.8402	2.046896	0.000278	2.783588	0.471553	-0.000028
1525	1.5164e+02	4.8318	2.026529	0.000205	2.046756	0.346730	-0.000020
1526	1.5174e+02	4.8226	2.006977	0.000196	1.964886	0.332861	-0.000020
1527	1.5184e+02	4.8109	1.985388	0.000217	2.169561	0.367534	-0.000022
1528	1.5194e+02	4.8025	1.962984	0.000225	2.251431	0.381403	-0.000023
1529	1.5204e+02	4.7902	1.941395	0.000217	2.169561	0.367534	-0.000022
1530	1.5214e+02	4.7829	1.920620	0.000209	2.087691	0.353664	-0.000021
1531	1.5224e+02	4.7738	1.899438	0.000213	2.128626	0.360599	-0.000021
1532	1.5233e+02	4.7622	1.878664	0.000209	2.087691	0.353664	-0.000021
1533	1.5243e+02	4.7552	1.862777	0.000160	1.596470	0.270449	-0.000016
1534	1.5253e+02	4.7417	1.840374	0.000225	2.251431	0.381403	-0.000023
1535	1.5263e+02	4.7298	1.821229	0.000192	1.923950	0.325926	-0.000019
1536	1.5273e+02	4.7218	1.802083	0.000192	1.923950	0.325926	-0.000019
1537	1.5283e+02	4.7107	1.778865	0.000233	2.333302	0.395272	-0.000023
1538	1.5293e+02	4.7029	1.760127	0.000188	1.883015	0.318991	-0.000019
1539	1.5303e+02	4.6929	1.740982	0.000192	1.923950	0.325926	-0.000019
1540	1.5313e+02	4.6819	1.720615	0.000205	2.046756	0.346730	-0.000020
1541	1.5323e+02	4.6698	1.697804	0.000229	2.292366	0.388337	-0.000023
1542	1.5333e+02	4.6608	1.678659	0.000192	1.923950	0.325926	-0.000019
1543	1.5343e+02	4.6523	1.661550	0.000172	1.719275	0.291253	-0.000017
1544	1.5353e+02	4.6426	1.641590	0.000201	2.005821	0.339795	-0.000020
1545	1.5363e+02	4.6340	1.620816	0.000209	2.087691	0.353664	-0.000021
1546	1.5373e+02	4.6233	1.600449	0.000205	2.046756	0.346730	-0.000020
1547	1.5383e+02	4.6122	1.580489	0.000201	2.005821	0.339795	-0.000020
1548	1.5393e+02	4.6054	1.559307	0.000213	2.128626	0.360599	-0.000021
1549	1.5403e+02	4.5950	1.544643	0.000147	1.473664	0.249645	-0.000015
1550	1.5413e+02	4.5840	1.526313	0.000184	1.842080	0.312057	-0.000018
1551	1.5422e+02	4.5736	1.503501	0.000229	2.292366	0.388337	-0.000023
1552	1.5432e+02	4.5625	1.485171	0.000184	1.842080	0.312057	-0.000018
1553	1.5442e+02	4.5538	1.464804	0.000205	2.046756	0.346730	-0.000020
1554	1.5452e+02	4.5431	1.445251	0.000196	1.964886	0.332861	-0.000020
1555	1.5462e+02	4.5335	1.428143	0.000172	1.719275	0.291253	-0.000017
1556	1.5472e+02	4.5212	1.405739	0.000225	2.251431	0.381403	-0.000023
1557	1.5482e+02	4.5132	1.389853	0.000160	1.596470	0.270449	-0.000016
1558	1.5492e+02	4.5026	1.372337	0.000176	1.760210	0.298188	-0.000018
1559	1.5502e+02	4.4910	1.349119	0.000233	2.333302	0.395272	-0.000023
1560	1.5512e+02	4.4810	1.331603	0.000176	1.760210	0.298188	-0.000018
1561	1.5522e+02	4.4743	1.310828	0.000209	2.087691	0.353664	-0.000021
1562	1.5532e+02	4.4628	1.291683	0.000192	1.923950	0.325926	-0.000019
1563	1.5542e+02	4.4558	1.273760	0.000180	1.801145	0.305122	-0.000018
1564	1.5552e+02	4.4431	1.257874	0.000160	1.596470	0.270449	-0.000016
1565	1.5562e+02	4.4312	1.237099	0.000209	2.087691	0.353664	-0.000021
1566	1.5572e+02	4.4254	1.215918	0.000213	2.128626	0.360599	-0.000021
1567	1.5582e+02	4.4149	1.197587	0.000184	1.842080	0.312057	-0.000018
1568	1.5592e+02	4.4026	1.179664	0.000180	1.801145	0.305122	-0.000018
1569	1.5602e+02	4.3926	1.160519	0.000192	1.923950	0.325926	-0.000019
1570	1.5612e+02	4.3813	1.143411	0.000172	1.719275	0.291253	-0.000017
1571	1.5622e+02	4.3739	1.121414	0.000221	2.210496	0.374468	-0.000022
1572	1.5631e+02	4.3620	1.103084	0.000184	1.842080	0.312057	-0.000018
1573	1.5641e+02	4.3533	1.084753	0.000184	1.842080	0.312057	-0.000018
1574	1.5651e+02	4.3450	1.066423	0.000184	1.842080	0.312057	-0.000018
1575	1.5661e+02	4.3330	1.045648	0.000209	2.087691	0.353664	-0.000021
1576	1.5671e+02	4.3237	1.027725	0.000180	1.801145	0.305122	-0.000018
1577	1.5681e+02	4.3153	1.004914	0.000229	2.292366	0.388337	-0.000023
1578	1.5691e+02	4.3052	0.990250	0.000147	1.473664	0.249645	-0.000015
1579	1.5701e+02	4.2948	0.971512	0.000188	1.883015	0.318991	-0.000019
1580	1.5711e+02	4.2831	0.952367	0.000192	1.923950	0.325926	-0.000019
1581	1.5721e+02	4.2747	0.934036	0.000184	1.842080	0.312057	-0.000018
1582	1.5731e+02	4.2632	0.918150	0.000160	1.596470	0.270449	-0.000016
1583	1.5741e+02	4.2530	0.900227	0.000180	1.801145	0.305122	-0.000018
1584	1.5751e+02	4.2438	0.884341	0.000160	1.596470	0.270449	-0.000016
1585	1.5761e+02	4.2367	0.866010	0.000184	1.842080	0.312057	-0.000018
1586	1.5771e+02	4.2263	0.847273	0.000188	1.883015	0.318991	-0.000019
1587	1.5781e+02	4.2117	0.827313	0.000201	2.005821	0.339795	-0.000020
1588	1.5791e+02	4.2056	0.807760	0.000196	1.964886	0.332861	-0.000020
1589	1.5801e+02	4.1930	0.790652	0.000172	1.719275	0.291253	-0.000017
1590	1.5811e+02	4.1840	0.770692	0.000201	2.005821	0.339795	-0.000020
1591	1.5821e+02	4.1759	0.757657	0.000131	1.309924	0.221907	-0.000013
1592	1.5830e+02	4.1627	0.738512	0.000192	1.923950	0.325926	-0.000019
1593	1.5840e+02	4.1533	0.721404	0.000172	1.719275	0.291253	-0.000017
1594	1.5850e+02	4.1434	0.701037	0.000205	2.046756	0.346730	-0.000020
1595	1.5860e+02	4.1325	0.688816	0.000123	1.228053	0.208038	-0.000012
1596	1.5870e+02	4.1251	0.670486	0.000184	1.842080	0.312057	-0.000018
1597	1.5880e+02	4.1084	0.654192	0.000164	1.637405	0.277384	-0.000016
1598	1.5890e+02	4.1065	0.637084	0.000172	1.719275	0.291253	-0.000017
1599	1.5900e+02	4.1003	0.621197	0.000160	1.596470	0.270449	-0.000016
1600	1.5910e+02	4.0827	0.602460	0.000188	1.883015	0.318991	-0.000019
1601	1.5920e+02	4.0759	0.583315	0.000192	1.923950	0.325926	-0.000019
1602	1.5930e+02	4.0652	0.566613	0.000168	1.678340	0.284318	-0.000017
1603	1.5940e+02	4.0572	0.547876	0.000188	1.883015	0.318991	-0.000019
1604	1.5950e+02	4.0433	0.528323	0.000196	1.964886	0.332861	-0.000020
1605	1.5960e+02	4.0379	0.508364	0.000201	2.005821	0.339795	-0.000020
1606	1.5970e+02	4.0247	0.493292	0.000151	1.514599	0.256580	-0.000015
1607	1.5980e+02	4.0118	0.473739	0.000196	1.964886	0.332861	-0.000020
1608	1.5990e+02	4.0053	0.455409	0.000184	1.842080	0.312057	-0.000018
1609	1.6000e+02	3.9942	0.437079	0.000184	1.842080	0.312057	-0.000018
1610	1.6010e+02	3.9874	0.414675	0.000225	2.251431	0.381403	-0.000023
1611	1.6019e+02	3.9754	0.400825	0.000139	1.391794	0.235776	-0.000014
1612	1.6029e+02	3.9681	0.378421	0.000225	2.251431	0.381403	-0.000023
1613	1.6039e+02	3.9541	0.357647	0.000209	2.087691	0.353664	-0.000021
1614	1.6049e+02	3.9464	0.339724	0.000180	1.801145	0.305122	-0.000018
1615	1.6059e+02	3.9375	0.321801	0.000180	1.801145	0.305122	-0.000018
1616	1.6069e+02	3.9261	0.301841	0.000201	2.005821	0.339795	-0.000020
1617	1.6079e+02	3.9155	0.280659	0.000213	2.128626	0.360599	-0.000021
1618	1.6089e+02	3.9059	0.262736	0.000180	1.801145	0.305122	-0.000018
1619	1.6099e+02	3.8966	0.237481	0.000254	2.537977	0.429945	-0.000025
1620	1.6109e+02	3.8845	0.217521	0.000201	2.005821	0.339795	-0.000020
1621	1.6119e+02	3.8753	0.200005	0.000176	1.760210	0.298188	-0.000018
1622	1.6129e+02	3.8656	0.178416	0.000217	2.169561	0.367534	-0.000022
1623	1.6139e+02	3.8564	0.159271	0.000192	1.923950	0.325926	-0.000019
1624	1.6149e+02	3.8503	0.134016	0.000254	2.537977	0.429945	-0.000025
1625	1.6159e+02	3.8358	0.110797	0.000233	2.333302	0.395272	-0.000023
1626	1.6169e+02	3.8245	0.091245	0.000196	1.964886	0.332861	-0.000020
1627	1.6179e+02	3.8152	0.072914	0.000184	1.842080	0.312057	-0.000018
1628	1.6189e+02	3.8067	0.048474	0.000246	2.456107	0.416076	-0.000025
1629	1.6199e+02	3.7933	0.029329	0.000192	1.923950	0.325926	-0.000019
1630	1.6209e+02	3.7865	0.006517	0.000229	2.292366	0.388337	-0.000023
1631	1.6219e+02	3.7777	-0.014664	0.000213	2.128626	0.360599	-0.000021
1632	1.6228e+02	3.7661	-0.035439	0.000209	2.087691	0.353664	-0.000021
1633	1.6238e+02	3.7579	-0.058657	0.000233	2.333302	0.395272	-0.000023
1634	1.6248e+02	3.7474	-0.076988	0.000184	1.842080	0.312057	-0.000018
1635	1.6258e+02	3.7364	-0.103872	0.000270	2.701718	0.457683	-0.000027
1636	1.6268e+02	3.7295	-0.122203	0.000184	1.842080	0.312057	-0.000018
1637	1.6278e+02	3.7161	-0.144199	0.000221	2.210496	0.374468	-0.000022
1638	1.6288e+02	3.7086	-0.168232	0.000242	2.415172	0.409141	-0.000024
1639	1.6298e+02	3.6951	-0.186970	0.000188	1.883015	0.318991	-0.000019
1640	1.6308e+02	3.6880	-0.208967	0.000221	2.210496	0.374468	-0.000022
1641	1.6318e+02	3.6787	-0.231778	0.000229	2.292366	0.388337	-0.000023
1642	1.6328e+02	3.6655	-0.252145	0.000205	2.046756	0.346730	-0.000020
1643	1.6338e+02	3.6582	-0.272512	0.000205	2.046756	0.346730	-0.000020
1644	1.6348e+02	3.6474	-0.297767	0.000254	2.537977	0.429945	-0.000025
1645	1.6358e+02	3.6366	-0.316913	0.000192	1.923950	0.325926	-0.000019
1646	1.6368e+02	3.6269	-0.342575	0.000258	2.578912	0.436880	-0.000026
1647	1.6378e+02	3.6175	-0.364164	0.000217	2.169561	0.367534	-0.000022
1648	1.6388e+02	3.6067	-0.386975	0.000229	2.292366	0.388337	-0.000023
1649	1.6398e+02	3.5976	-0.409379	0.000225	2.251431	0.381403	-0.000023
1650	1.6408e+02	3.5893	-0.427710	0.000184	1.842080	0.312057	-0.000018
1651	1.6418e+02	3.5767	-0.452558	0.000250	2.497042	0.423010	-0.000025
1652	1.6427e+02	3.5694	-0.479035	0.000266	2.660783	0.450749	-0.000027
1653	1.6437e+02	3.5577	-0.499809	0.000209	2.087691	0.353664	-0.000021
1654	1.6447e+02	3.5501	-0.521398	0.000217	2.169561	0.367534	-0.000022
1655	1.6457e+02	3.5373	-0.539729	0.000184	1.842080	0.312057	-0.000018
1656	1.6467e+02	3.5262	-0.564577	0.000250	2.497042	0.423010	-0.000025
1657	1.6477e+02	3.5180	-0.587795	0.000233	2.333302	0.395272	-0.000023
1658	1.6487e+02	3.5064	-0.609384	0.000217	2.169561	0.367534	-0.000022
1659	1.6497e+02	3.4978	-0.630974	0.000217	2.169561	0.367534	-0.000022
1660	1.6507e+02	3.4869	-0.653377	0.000225	2.251431	0.381403	-0.000023
1661	1.6517e+02	3.4759	-0.679040	0.000258	2.578912	0.436880	-0.000026
1662	1.6527e+02	3.4692	-0.698185	0.000192	1.923950	0.325926	-0.000019
1663	1.6537e+02	3.4570	-0.723848	0.000258	2.578912	0.436880	-0.000026
1664	1.6547e+02	3.4467	-0.745437	0.000217	2.169561	0.367534	-0.000022
1665	1.6557e+02	3.4377	-0.771914	0.000266	2.660783	0.450749	-0.000027
1666	1.6567e+02	3.4279	-0.796355	0.000246	2.456107	0.416076	-0.000025
1667	1.6577e+02	3.4171	-0.821203	0.000250	2.497042	0.423010	-0.000025
1668	1.6587e+02	3.4066	-0.846458	0.000254	2.537977	0.429945	-0.000025
1669	1.6597e+02	3.3981	-0.867640	0.000213	2.128626	0.360599	-0.000021
1670	1.6607e+02	3.3887	-0.890451	0.000229	2.292366	0.388337	-0.000023
1671	1.6616e+02	3.3785	-0.910818	0.000205	2.046756	0.346730	-0.000020
1672	1.6626e+02	3.3691	-0.938110	0.000274	2.742653	0.464618	-0.000027
1673	1.6636e+02	3.3584	-0.960514	0.000225	2.251431	0.381403	-0.000023
1674	1.6646e+02	3.3498	-0.985362	0.000250	2.497042	0.423010	-0.000025
1675	1.6656e+02	3.3391	-1.009395	0.000242	2.415172	0.409141	-0.000024
1676	1.6666e+02	3.3320	-1.033021	0.000237	2.374237	0.402207	-0.000024
1677	1.6676e+02	3.3185	-1.058683	0.000258	2.578912	0.436880	-0.000026
1678	1.6686e+02	3.3094	-1.084346	0.000258	2.578912	0.436880	-0.000026
1679	1.6696e+02	3.2989	-1.113267	0.000291	2.906393	0.492356	-0.000029
1680	1.6706e+02	3.2858	-1.138115	0.000250	2.497042	0.423010	-0.000025
1681	1.6716e+02	3.2781	-1.161334	0.000233	2.333302	0.395272	-0.000023
1682	1.6726e+02	3.2697	-1.184552	0.000233	2.333302	0.395272	-0.000023
1683	1.6736e+02	3.2589	-1.210215	0.000258	2.578912	0.436880	-0.000026
1684	1.6746e+02	3.2508	-1.233433	0.000233	2.333302	0.395272	-0.000023
1685	1.6756e+02	3.2383	-1.257874	0.000246	2.456107	0.416076	-0.000025
1686	1.6766e+02	3.2311	-1.281907	0.000242	2.415172	0.409141	-0.000024
1687	1.6776e+02	3.2183	-1.304311	0.000225	2.251431	0.381403	-0.000023
1688	1.6786e+02	3.2091	-1.327937	0.000237	2.374237	0.402207	-0.000024
1689	1.6796e+02	3.1992	-1.356043	0.000282	2.824523	0.478487	-0.000028
1690	1.6806e+02	3.1898	-1.377225	0.000213	2.128626	0.360599	-0.000021
1691	1.6816e+02	3.1799	-1.400444	0.000233	2.333302	0.395272	-0.000023
1692	1.6825e+02	3.1704	-1.424884	0.000246	2.456107	0.416076	-0.000025
1693	1.6835e+02	3.1609	-1.448917	0.000242	2.415172	0.409141	-0.000024
1694	1.6845e+02	3.1490	-1.473358	0.000246	2.456107	0.416076	-0.000025
1695	1.6855e+02	3.1380	-1.495762	0.000225	2.251431	0.381403	-0.000023
1696	1.6865e+02	3.1312	-1.521424	0.000258	2.578912	0.436880	-0.000026
1697	1.6875e+02	3.1215	-1.542199	0.000209	2.087691	0.353664	-0.000021
1698	1.6885e+02	3.1080	-1.562973	0.000209	2.087691	0.353664	-0.000021
1699	1.6895e+02	3.1039	-1.587414	0.000246	2.456107	0.416076	-0.000025
1700	1.6905e+02	3.0898	-1.607781	0.000205	2.046756	0.346730	-0.000020
1701	1.6915e+02	3.0795	-1.630592	0.000229	2.292366	0.388337	-0.000023
1702	1.6925e+02	3.0735	-1.652181	0.000217	2.169561	0.367534	-0.000022
1703	1.6935e+02	3.0611	-1.676215	0.000242	2.415172	0.409141	-0.000024
1704	1.6945e+02	3.0489	-1.696989	0.000209	2.087691	0.353664	-0.000021
1705	1.6955e+02	3.0389	-1.716949	0.000201	2.005821	0.339795	-0.000020
1706	1.6965e+02	3.0294	-1.740982	0.000242	2.415172	0.409141	-0.000024
1707	1.6975e+02	3.0219	-1.762164	0.000213	2.128626	0.360599	-0.000021
1708	1.6985e+02	3.0118	-1.777643	0.000156	1.555534	0.263515	-0.000016
1709	1.6995e+02	2.9975	-1.800454	0.000229	2.292366	0.388337	-0.000023
1710	1.7005e+02	2.9940	-1.826524	0.000262	2.619847	0.443814	-0.000026
1711	1.7015e+02	2.9792	-1.849743	0.000233	2.333302	0.395272	-0.000023
1712	1.7024e+02	2.9699	-1.870110	0.000205	2.046756	0.346730	-0.000020
1713	1.7034e+02	2.9593	-1.892513	0.000225	2.251431	0.381403	-0.000023
1714	1.7044e+02	2.9514	-1.911251	0.000188	1.883015	0.318991	-0.000019
1715	1.7054e+02	2.9397	-1.935692	0.000246	2.456107	0.416076	-0.000025
1716	1.7064e+02	2.9284	-1.956059	0.000205	2.046756	0.346730	-0.000020
1717	1.7074e+02	2.9200	-1.977241	0.000213	2.128626	0.360599	-0.000021
1718	1.7084e+02	2.9119	-1.993534	0.000164	1.637405	0.277384	-0.000016
1719	1.7094e+02	2.9006	-2.015531	0.000221	2.210496	0.374468	-0.000022
1720	1.7104e+02	2.8913	-2.039157	0.000237	2.374237	0.402207	-0.000024
1721	1.7114e+02	2.8803	-2.057080	0.000180	1.801145	0.305122	-0.000018
1722	1.7124e+02	2.8695	-2.079484	0.000225	2.251431	0.381403	-0.000023
1723	1.7134e+02	2.8622	-2.100666	0.000213	2.128626	0.360599	-0.000021
1724	1.7144e+02	2.8509	-2.123884	0.000233	2.333302	0.395272	-0.000023
1725	1.7154e+02	2.8417	-2.145066	0.000213	2.128626	0.360599	-0.000021
1726	1.7164e+02	2.8283	-2.169914	0.000250	2.497042	0.423010	-0.000025
1727	1.7174e+02	2.8198	-2.188244	0.000184	1.842080	0.312057	-0.000018
1728	1.7184e+02	2.8104	-2.207389	0.000192	1.923950	0.325926	-0.000019
1729	1.7194e+02	2.8000	-2.231015	0.000237	2.374237	0.402207	-0.000024
1730	1.7204e+02	2.7908	-2.252197	0.000213	2.128626	0.360599	-0.000021
1731	1.7213e+02	2.7827	-2.269305	0.000172	1.719275	0.291253	-0.000017
1732	1.7223e+02	2.7733	-2.291302	0.000221	2.210496	0.374468	-0.000022
1733	1.7233e+02	2.7612	-2.310040	0.000188	1.883015	0.318991	-0.000019
1734	1.7243e+02	2.7534	-2.329185	0.000192	1.923950	0.325926	-0.000019
1735	1.7253e+02	2.7421	-2.350774	0.000217	2.169561	0.367534	-0.000022
1736	1.7263e+02	2.7351	-2.371141	0.000205	2.046756	0.346730	-0.000020
1737	1.7273e+02	2.7213	-2.393137	0.000221	2.210496	0.374468	-0.000022
1738	1.7283e+02	2.7102	-2.413505	0.000205	2.046756	0.346730	-0.000020
1739	1.7293e+02	2.7032	-2.438353	0.000250	2.497042	0.423010	-0.000025
1740	1.7303e+02	2.6932	-2.456683	0.000184	1.842080	0.312057	-0.000018
1741	1.7313e+02	2.6820	-2.478272	0.000217	2.169561	0.367534	-0.000022
1742	1.7323e+02	2.6719	-2.499454	0.000213	2.128626	0.360599	-0.000021
1743	1.7333e+02	2.6614	-2.524302	0.000250	2.497042	0.423010	-0.000025
1744	1.7343e+02	2.6512	-2.541003	0.000168	1.678340	0.284318	-0.000017
1745	1.7353e+02	2.6424	-2.563814	0.000229	2.292366	0.388337	-0.000023
1746	1.7363e+02	2.6339	-2.579293	0.000156	1.555534	0.263515	-0.000016
1747	1.7373e+02	2.6214	-2.600882	0.000217	2.169561	0.367534	-0.000022
1748	1.7383e+02	2.6141	-2.623286	0.000225	2.251431	0.381403	-0.000023
1749	1.7393e+02	2.6071	-2.640394	0.000172	1.719275	0.291253	-0.000017
1750	1.7403e+02	2.5918	-2.658317	0.000180	1.801145	0.305122	-0.000018
1751	1.7413e+02	2.5816	-2.677870	0.000196	1.964886	0.332861	-0.000020
1752	1.7422e+02	2.5724	-2.698237	0.000205	2.046756	0.346730	-0.000020
1753	1.7432e+02	2.5625	-2.719419	0.000213	2.128626	0.360599	-0.000021
1754	1.7442e+02	2.5532	-2.740193	0.000209	2.087691	0.353664	-0.000021
1755	1.7452e+02	2.5419	-2.760968	0.000209	2.087691	0.353664	-0.000021
1756	1.7462e+02	2.5346	-2.778891	0.000180	1.801145	0.305122	-0.000018
1757	1.7472e+02	2.5222	-2.800480	0.000217	2.169561	0.367534	-0.000022
1758	1.7482e+02	2.5153	-2.822477	0.000221	2.210496	0.374468	-0.000022
1759	1.7492e+02	2.5045	-2.841214	0.000188	1.883015	0.318991	-0.000019
1760	1.7502e+02	2.4928	-2.859137	0.000180	1.801145	0.305122	-0.000018
1761	1.7512e+02	2.4840	-2.877060	0.000180	1.801145	0.305122	-0.000018
1762	1.7522e+02	2.4734	-2.896206	0.000192	1.923950	0.325926	-0.000019
1763	1.7532e+02	2.4641	-2.911277	0.000151	1.514599	0.256580	-0.000015
1764	1.7542e+02	2.4543	-2.928793	0.000176	1.760210	0.298188	-0.000018
1765	1.7552e+02	2.4427	-2.951197	0.000225	2.251431	0.381403	-0.000023
1766	1.7562e+02	2.4354	-2.969120	0.000180	1.801145	0.305122	-0.000018
1767	1.7572e+02	2.4218	-2.990302	0.000213	2.128626	0.360599	-0.000021
1768	1.7582e+02	2.4120	-3.007003	0.000168	1.678340	0.284318	-0.000017
1769	1.7592e+02	2.4020	-3.027370	0.000205	2.046756	0.346730	-0.000020
1770	1.7602e+02	2.3927	-3.047737	0.000205	2.046756	0.346730	-0.000020
1771	1.7612e+02	2.3866	-3.068919	0.000213	2.128626	0.360599	-0.000021
1772	1.7621e+02	2.3733	-3.090508	0.000217	2.169561	0.367534	-0.000022
1773	1.7631e+02	2.3634	-3.110875	0.000205	2.046756	0.346730	-0.000020
1774	1.7641e+02	2.3532	-3.132872	0.000221	2.210496	0.374468	-0.000022
1775	1.7651e+02	2.3460	-3.151202	0.000184	1.842080	0.312057	-0.000018
1776	1.7661e+02	2.3335	-3.169940	0.000188	1.883015	0.318991	-0.000019
1777	1.7671e+02	2.3230	-3.186641	0.000168	1.678340	0.284318	-0.000017
1778	1.7681e+02	2.3116	-3.212303	0.000258	2.578912	0.436880	-0.000026
1779	1.7691e+02	2.3061	-3.231448	0.000192	1.923950	0.325926	-0.000019
1780	1.7701e+02	2.2933	-3.256704	0.000254	2.537977	0.429945	-0.000025
1781	1.7711e+02	2.2820	-3.276256	0.000196	1.964886	0.332861	-0.000020
1782	1.7721e+02	2.2733	-3.296216	0.000201	2.005821	0.339795	-0.000020
1783	1.7731e+02	2.2645	-3.318212	0.000221	2.210496	0.374468	-0.000022
1784	1.7741e+02	2.2545	-3.339394	0.000213	2.128626	0.360599	-0.000021
1785	1.7751e+02	2.2420	-3.363835	0.000246	2.456107	0.416076	-0.000025
1786	1.7761e+02	2.2352	-3.384202	0.000205	2.046756	0.346730	-0.000020
1787	1.7771e+02	2.2262	-3.411494	0.000274	2.742653	0.464618	-0.000027
1788	1.7781e+02	2.2127	-3.432676	0.000213	2.128626	0.360599	-0.000021
1789	1.7791e+02	2.2023	-3.452635	0.000201	2.005821	0.339795	-0.000020
1790	1.7801e+02	2.1937	-3.477076	0.000246	2.456107	0.416076	-0.000025
1791	1.7810e+02	2.1825	-3.495406	0.000184	1.842080	0.312057	-0.000018
1792	1.7820e+02	2.1764	-3.523106	0.000278	2.783588	0.471553	-0.000028
1793	1.7830e+02	2.1614	-3.546732	0.000237	2.374237	0.402207	-0.000024
1794	1.7840e+02	2.1559	-3.567099	0.000205	2.046756	0.346730	-0.000020
1795	1.7850e+02	2.1419	-3.591539	0.000246	2.456107	0.416076	-0.000025
1796	1.7860e+02	2.1338	-3.611499	0.000201	2.005821	0.339795	-0.000020
1797	1.7870e+02	2.1250	-3.635940	0.000246	2.456107	0.416076	-0.000025
1798	1.7880e+02	2.1164	-3.660380	0.000246	2.456107	0.416076	-0.000025
1799	1.7890e+02	2.1059	-3.684006	0.000237	2.374237	0.402207	-0.000024
1800	1.7900e+02	2.0933	-3.701522	0.000176	1.760210	0.298188	-0.000018
1801	1.7910e+02	2.0863	-3.730036	0.000287	2.865458	0.485422	-0.000029
1802	1.7920e+02	2.0755	-3.756106	0.000262	2.619847	0.443814	-0.000026
1803	1.7930e+02	2.0652	-3.778917	0.000229	2.292366	0.388337	-0.000023
1804	1.7940e+02	2.0567	-3.804579	0.000258	2.578912	0.436880	-0.000026
1805	1.7950e+02	2.0470	-3.830649	0.000262	2.619847	0.443814	-0.000026
1806	1.7960e+02	2.0354	-3.850609	0.000201	2.005821	0.339795	-0.000020
1807	1.7970e+02	2.0281	-3.875864	0.000254	2.537977	0.429945	-0.000025
1808	1.7980e+02	2.0184	-3.898676	0.000229	2.292366	0.388337	-0.000023
1809	1.7990e+02	2.0029	-3.920265	0.000217	2.169561	0.367534	-0.000022
1810	1.8000e+02	1.9958	-3.944298	0.000242	2.415172	0.409141	-0.000024
1811	1.8009e+02	1.9846	-3.966702	0.000225	2.251431	0.381403	-0.000023
1812	1.8019e+02	1.9737	-3.990735	0.000242	2.415172	0.409141	-0.000024
1813	1.8029e+02	1.9676	-4.016805	0.000262	2.619847	0.443814	-0.000026
1814	1.8039e+02	1.9577	-4.042467	0.000258	2.578912	0.436880	-0.000026
1815	1.8049e+02	1.9485	-4.064057	0.000217	2.169561	0.367534	-0.000022
1816	1.8059e+02	1.9334	-4.088905	0.000250	2.497042	0.423010	-0.000025
1817	1.8069e+02	1.9279	-4.112530	0.000237	2.374237	0.402207	-0.000024
1818	1.8079e+02	1.9151	-4.137786	0.000254	2.537977	0.429945	-0.000025
1819	1.8089e+02	1.9065	-4.163041	0.000254	2.537977	0.429945	-0.000025
1820	1.8099e+02	1.8938	-4.187889	0.000250	2.497042	0.423010	-0.000025
1821	1.8109e+02	1.8887	-4.210293	0.000225	2.251431	0.381403	-0.000023
1822	1.8119e+02	1.8758	-4.237177	0.000270	2.701718	0.457683	-0.000027
1823	1.8129e+02	1.8635	-4.262025	0.000250	2.497042	0.423010	-0.000025
1824	1.8139e+02	1.8548	-4.281985	0.000201	2.005821	0.339795	-0.000020
1825	1.8149e+02	1.8468	-4.305203	0.000233	2.333302	0.395272	-0.000023
1826	1.8159e+02	1.8349	-4.331273	0.000262	2.619847	0.443814	-0.000026
1827	1.8169e+02	1.8266	-4.354899	0.000237	2.374237	0.402207	-0.000024
1828	1.8179e+02	1.8138	-4.380969	0.000262	2.619847	0.443814	-0.000026
1829	1.8189e+02	1.8066	-4.406632	0.000258	2.578912	0.436880	-0.000026
1830	1.8199e+02	1.7977	-4.427814	0.000213	2.128626	0.360599	-0.000021
1831	1.8209e+02	1.7850	-4.451847	0.000242	2.415172	0.409141	-0.000024
1832	1.8218e+02	1.7788	-4.481990	0.000303	3.029199	0.513160	-0.000030
1833	1.8228e+02	1.7658	-4.510504	0.000287	2.865458	0.485422	-0.000029
1834	1.8238e+02	1.7549	-4.535352	0.000250	2.497042	0.423010	-0.000025
1835	1.8248e+02	1.7470	-4.561422	0.000262	2.619847	0.443814	-0.000026
1836	1.8258e+02	1.7349	-4.583418	0.000221	2.210496	0.374468	-0.000022
1837	1.8268e+02	1.7279	-4.610303	0.000270	2.701718	0.457683	-0.000027
1838	1.8278e+02	1.7155	-4.638817	0.000287	2.865458	0.485422	-0.000029
1839	1.8288e+02	1.7063	-4.659999	0.000213	2.128626	0.360599	-0.000021
1840	1.8298e+02	1.6969	-4.688513	0.000287	2.865458	0.485422	-0.000029
1841	1.8308e+02	1.6886	-4.713361	0.000250	2.497042	0.423010	-0.000025
1842	1.8318e+02	1.6775	-4.741875	0.000287	2.865458	0.485422	-0.000029
1843	1.8328e+02	1.6665	-4.768352	0.000266	2.660783	0.450749	-0.000027
1844	1.8338e+02	1.6541	-4.795237	0.000270	2.701718	0.457683	-0.000027
1845	1.8348e+02	1.6467	-4.820899	0.000258	2.578912	0.436880	-0.000026
1846	1.8358e+02	1.6367	-4.845747	0.000250	2.497042	0.423010	-0.000025
1847	1.8368e+02	1.6271	-4.877927	0.000323	3.233874	0.547833	-0.000032
1848	1.8378e+02	1.6159	-4.902775	0.000250	2.497042	0.423010	-0.000025
1849	1.8388e+02	1.6073	-4.930882	0.000282	2.824523	0.478487	-0.000028
1850	1.8398e+02	1.5968	-4.958174	0.000274	2.742653	0.464618	-0.000027
1851	1.8407e+02	1.5873	-4.979355	0.000213	2.128626	0.360599	-0.000021
1852	1.8417e+02	1.5768	-5.007462	0.000282	2.824523	0.478487	-0.000028
1853	1.8427e+02	1.5672	-5.032717	0.000254	2.537977	0.429945	-0.000025
1854	1.8437e+02	1.5593	-5.060417	0.000278	2.783588	0.471553	-0.000028
1855	1.8447e+02	1.5461	-5.084450	0.000242	2.415172	0.409141	-0.000024
1856	1.8457e+02	1.5395	-5.110112	0.000258	2.578912	0.436880	-0.000026
1857	1.8467e+02	1.5293	-5.135368	0.000254	2.537977	0.429945	-0.000025
1858	1.8477e+02	1.5206	-5.163474	0.000282	2.824523	0.478487	-0.000028
1859	1.8487e+02	1.5099	-5.186693	0.000233	2.333302	0.395272	-0.000023
1860	1.8497e+02	1.4977	-5.216021	0.000295	2.947328	0.499291	-0.000029
1861	1.8507e+02	1.4880	-5.236388	0.000205	2.046756	0.346730	-0.000020
1862	1.8517e+02	1.4764	-5.265717	0.000295	2.947328	0.499291	-0.000029
1863	1.8527e+02	1.4679	-5.292194	0.000266	2.660783	0.450749	-0.000027
1864	1.8537e+02	1.4607	-5.316228	0.000242	2.415172	0.409141	-0.000024
1865	1.8547e+02	1.4468	-5.342298	0.000262	2.619847	0.443814	-0.000026
1866	1.8557e+02	1.4381	-5.367960	0.000258	2.578912	0.436880	-0.000026
1867	1.8567e+02	1.4297	-5.385069	0.000172	1.719275	0.291253	-0.000017
1868	1.8577e+02	1.4178	-5.411953	0.000270	2.701718	0.457683	-0.000027
1869	1.8587e+02	1.4063	-5.438430	0.000266	2.660783	0.450749	-0.000027
1870	1.8597e+02	1.3986	-5.460427	0.000221	2.210496	0.374468	-0.000022
1871	1.8606e+02	1.3864	-5.484460	0.000242	2.415172	0.409141	-0.000024
1872	1.8616e+02	1.3783	-5.511345	0.000270	2.701718	0.457683	-0.000027
1873	1.8626e+02	1.3683	-5.533749	0.000225	2.251431	0.381403	-0.000023
1874	1.8636e+02	1.3599	-5.552894	0.000192	1.923950	0.325926	-0.000019
1875	1.8646e+02	1.3474	-5.579371	0.000266	2.660783	0.450749	-0.000027
1876	1.8656e+02	1.3364	-5.601775	0.000225	2.251431	0.381403	-0.000023
1877	1.8666e+02	1.3285	-5.627030	0.000254	2.537977	0.429945	-0.000025
1878	1.8676e+02	1.3183	-5.649434	0.000225	2.251431	0.381403	-0.000023
1879	1.8686e+02	1.3076	-5.671838	0.000225	2.251431	0.381403	-0.000023
1880	1.8696e+02	1.2988	-5.697908	0.000262	2.619847	0.443814	-0.000026
1881	1.8706e+02	1.2894	-5.717867	0.000201	2.005821	0.339795	-0.000020
1882	1.8716e+02	1.2789	-5.745159	0.000274	2.742653	0.464618	-0.000027
1883	1.8726e+02	1.2690	-5.766341	0.000213	2.128626	0.360599	-0.000021
1884	1.8736e+02	1.2589	-5.789152	0.000229	2.292366	0.388337	-0.000023
1885	1.8746e+02	1.2518	-5.813186	0.000242	2.415172	0.409141	-0.000024
1886	1.8756e+02	1.2412	-5.834775	0.000217	2.169561	0.367534	-0.000022
1887	1.8766e+02	1.2302	-5.856771	0.000221	2.210496	0.374468	-0.000022
1888	1.8776e+02	1.2185	-5.879175	0.000225	2.251431	0.381403	-0.000023
1889	1.8786e+02	1.2101	-5.905245	0.000262	2.619847	0.443814	-0.000026
1890	1.8796e+02	1.2002	-5.925612	0.000205	2.046756	0.346730	-0.000020
1891	1.8806e+02	1.1924	-5.948831	0.000233	2.333302	0.395272	-0.000023
1892	1.8815e+02	1.1783	-5.968790	0.000201	2.005821	0.339795	-0.000020
1893	1.8825e+02	1.1710	-5.996490	0.000278	2.783588	0.471553	-0.000028
1894	1.8835e+02	1.1610	-6.016857	0.000205	2.046756	0.346730	-0.000020
1895	1.8845e+02	1.1521	-6.042112	0.000254	2.537977	0.429945	-0.000025
1896	1.8855e+02	1.1405	-6.066553	0.000246	2.456107	0.416076	-0.000025
1897	1.8865e+02	1.1294	-6.087734	0.000213	2.128626	0.360599	-0.000021
1898	1.8875e+02	1.1193	-6.110546	0.000229	2.292366	0.388337	-0.000023
1899	1.8885e+02	1.1105	-6.133764	0.000233	2.333302	0.395272	-0.000023
1900	1.8895e+02	1.1008	-6.156168	0.000225	2.251431	0.381403	-0.000023
1901	1.8905e+02	1.0915	-6.174091	0.000180	1.801145	0.305122	-0.000018
1902	1.8915e+02	1.0805	-6.200161	0.000262	2.619847	0.443814	-0.000026
1903	1.8925e+02	1.0693	-6.221343	0.000213	2.128626	0.360599	-0.000021
1904	1.8935e+02	1.0597	-6.246191	0.000250	2.497042	0.423010	-0.000025
1905	1.8945e+02	1.0525	-6.265743	0.000196	1.964886	0.332861	-0.000020
1906	1.8955e+02	1.0397	-6.291406	0.000258	2.578912	0.436880	-0.000026
1907	1.8965e+02	1.0293	-6.314624	0.000233	2.333302	0.395272	-0.000023
1908	1.8975e+02	1.0214	-6.334991	0.000205	2.046756	0.346730	-0.000020
1909	1.8985e+02	1.0114	-6.361469	0.000266	2.660783	0.450749	-0.000027
1910	1.8995e+02	0.9975	-6.387131	0.000258	2.578912	0.436880	-0.000026
1911	1.9004e+02	0.9892	-6.407498	0.000205	2.046756	0.346730	-0.000020
1912	1.9014e+02	0.9814	-6.428273	0.000209	2.087691	0.353664	-0.000021
1913	1.9024e+02	0.9724	-6.450677	0.000225	2.251431	0.381403	-0.000023
1914	1.9034e+02	0.9619	-6.474710	0.000242	2.415172	0.409141	-0.000024
1915	1.9044e+02	0.9544	-6.493855	0.000192	1.923950	0.325926	-0.000019
1916	1.9054e+02	0.9389	-6.514222	0.000205	2.046756	0.346730	-0.000020
1917	1.9064e+02	0.9299	-6.538255	0.000242	2.415172	0.409141	-0.000024
1918	1.9074e+02	0.9227	-6.558622	0.000205	2.046756	0.346730	-0.000020
1919	1.9084e+02	0.9138	-6.582248	0.000237	2.374237	0.402207	-0.000024
1920	1.9094e+02	0.8990	-6.603430	0.000213	2.128626	0.360599	-0.000021
1921	1.9104e+02	0.8895	-6.623797	0.000205	2.046756	0.346730	-0.000020
1922	1.9114e+02	0.8840	-6.647016	0.000233	2.333302	0.395272	-0.000023
1923	1.9124e+02	0.8721	-6.671456	0.000246	2.456107	0.416076	-0.000025
1924	1.9134e+02	0.8603	-6.693045	0.000217	2.169561	0.367534	-0.000022
1925	1.9144e+02	0.8523	-6.716264	0.000233	2.333302	0.395272	-0.000023
1926	1.9154e+02	0.8408	-6.737038	0.000209	2.087691	0.353664	-0.000021
1927	1.9164e+02	0.8298	-6.756998	0.000201	2.005821	0.339795	-0.000020
1928	1.9174e+02	0.8202	-6.780217	0.000233	2.333302	0.395272	-0.000023
1929	1.9184e+02	0.8105	-6.797732	0.000176	1.760210	0.298188	-0.000018
1930	1.9194e+02	0.8030	-6.816063	0.000184	1.842080	0.312057	-0.000018
1931	1.9203e+02	0.7923	-6.837652	0.000217	2.169561	0.367534	-0.000022
1932	1.9213e+02	0.7800	-6.859649	0.000221	2.210496	0.374468	-0.000022
1933	1.9223e+02	0.7676	-6.877979	0.000184	1.842080	0.312057	-0.000018
1934	1.9233e+02	0.7605	-6.896309	0.000184	1.842080	0.312057	-0.000018
1935	1.9243e+02	0.7547	-6.923194	0.000270	2.701718	0.457683	-0.000027
1936	1.9253e+02	0.7430	-6.945598	0.000225	2.251431	0.381403	-0.000023
1937	1.9263e+02	0.7304	-6.968002	0.000225	2.251431	0.381403	-0.000023
1938	1.9273e+02	0.7215	-6.988369	0.000205	2.046756	0.346730	-0.000020
1939	1.9283e+02	0.7128	-7.011995	0.000237	2.374237	0.402207	-0.000024
1940	1.9293e+02	0.7011	-7.036843	0.000250	2.497042	0.423010	-0.000025
1941	1.9303e+02	0.6921	-7.055988	0.000192	1.923950	0.325926	-0.000019
1942	1.9313e+02	0.6823	-7.079206	0.000233	2.333302	0.395272	-0.000023
1943	1.9323e+02	0.6739	-7.102017	0.000229	2.292366	0.388337	-0.000023
1944	1.9333e+02	0.6627	-7.124014	0.000221	2.210496	0.374468	-0.000022
1945	1.9343e+02	0.6530	-7.142344	0.000184	1.842080	0.312057	-0.000018
1946	1.9353e+02	0.6414	-7.166378	0.000242	2.415172	0.409141	-0.000024
1947	1.9363e+02	0.6339	-7.193262	0.000270	2.701718	0.457683	-0.000027
1948	1.9373e+02	0.6223	-7.213222	0.000201	2.005821	0.339795	-0.000020
1949	1.9383e+02	0.6113	-7.236848	0.000237	2.374237	0.402207	-0.000024
1950	1.9393e+02	0.6008	-7.260066	0.000233	2.333302	0.395272	-0.000023
1951	1.9403e+02	0.5919	-7.282877	0.000229	2.292366	0.388337	-0.000023
1952	1.9412e+02	0.5858	-7.308133	0.000254	2.537977	0.429945	-0.000025
1953	1.9422e+02	0.5729	-7.335017	0.000270	2.701718	0.457683	-0.000027
1954	1.9432e+02	0.5637	-7.360273	0.000254	2.537977	0.429945	-0.000025
1955	1.9442e+02	0.5521	-7.382269	0.000221	2.210496	0.374468	-0.000022
1956	1.9452e+02	0.5438	-7.406302	0.000242	2.415172	0.409141	-0.000024
1957	1.9462e+02	0.5338	-7.427891	0.000217	2.169561	0.367534	-0.000022
1958	1.9472e+02	0.5215	-7.452739	0.000250	2.497042	0.423010	-0.000025
1959	1.9482e+02	0.5127	-7.480846	0.000282	2.824523	0.478487	-0.000028
1960	1.9492e+02	0.5050	-7.506916	0.000262	2.619847	0.443814	-0.000026
1961	1.9502e+02	0.4943	-7.528505	0.000217	2.169561	0.367534	-0.000022
1962	1.9512e+02	0.4837	-7.556612	0.000282	2.824523	0.478487	-0.000028
1963	1.9522e+02	0.4742	-7.580645	0.000242	2.415172	0.409141	-0.000024
1964	1.9532e+02	0.4649	-7.604678	0.000242	2.415172	0.409141	-0.000024
1965	1.9542e+02	0.4524	-7.629119	0.000246	2.456107	0.416076	-0.000025
1966	1.9552e+02	0.4448	-7.657225	0.000282	2.824523	0.478487	-0.000028
1967	1.9562e+02	0.4368	-7.677185	0.000201	2.005821	0.339795	-0.000020
1968	1.9572e+02	0.4252	-7.704477	0.000274	2.742653	0.464618	-0.000027
1969	1.9582e+02	0.4125	-7.732584	0.000282	2.824523	0.478487	-0.000028
1970	1.9592e+02	0.4034	-7.756210	0.000237	2.374237	0.402207	-0.000024
1971	1.9601e+02	0.3944	-7.783501	0.000274	2.742653	0.464618	-0.000027
1972	1.9611e+02	0.3823	-7.813237	0.000299	2.988263	0.506226	-0.000030
1973	1.9621e+02	0.3729	-7.836049	0.000229	2.292366	0.388337	-0.000023
1974	1.9631e+02	0.3668	-7.860489	0.000246	2.456107	0.416076	-0.000025
1975	1.9641e+02	0.3552	-7.882486	0.000221	2.210496	0.374468	-0.000022
1976	1.9651e+02	0.3442	-7.911407	0.000291	2.906393	0.492356	-0.000029
1977	1.9661e+02	0.3345	-7.937477	0.000262	2.619847	0.443814	-0.000026
1978	1.9671e+02	0.3231	-7.962732	0.000254	2.537977	0.429945	-0.000025
1979	1.9681e+02	0.3146	-7.985136	0.000225	2.251431	0.381403	-0.000023
1980	1.9691e+02	0.3056	-8.012428	0.000274	2.742653	0.464618	-0.000027
1981	1.9701e+02	0.2944	-8.037276	0.000250	2.497042	0.423010	-0.000025
1982	1.9711e+02	0.2827	-8.066605	0.000295	2.947328	0.499291	-0.000029
1983	1.9721e+02	0.2727	-8.093896	0.000274	2.742653	0.464618	-0.000027
1984	1.9731e+02	0.2647	-8.119152	0.000254	2.537977	0.429945	-0.000025
1985	1.9741e+02	0.2547	-8.144407	0.000254	2.537977	0.429945	-0.000025
1986	1.9751e+02	0.2443	-8.171699	0.000274	2.742653	0.464618	-0.000027
1987	1.9761e+02	0.2357	-8.195732	0.000242	2.415172	0.409141	-0.000024
1988	1.9771e+02	0.2232	-8.224653	0.000291	2.906393	0.492356	-0.000029
1989	1.9781e+02	0.2132	-8.249094	0.000246	2.456107	0.416076	-0.000025
1990	1.9791e+02	0.2047	-8.278423	0.000295	2.947328	0.499291	-0.000029
1991	1.9800e+02	0.1954	-8.303678	0.000254	2.537977	0.429945	-0.000025
1992	1.9810e+02	0.1872	-8.324860	0.000213	2.128626	0.360599	-0.000021
1993	1.9820e+02	0.1746	-8.356225	0.000315	3.152004	0.533964	-0.000032
1994	1.9830e+02	0.1655	-8.376185	0.000201	2.005821	0.339795	-0.000020
1995	1.9840e+02	0.1570	-8.406328	0.000303	3.029199	0.513160	-0.000030
1996	1.9850e+02	0.1451	-8.432398	0.000262	2.619847	0.443814	-0.000026
1997	1.9860e+02	0.1331	-8.460097	0.000278	2.783588	0.471553	-0.000028
1998	1.9870e+02	0.1270	-8.482094	0.000221	2.210496	0.374468	-0.000022
1999	1.9880e+02	0.1141	-8.513459	0.000315	3.152004	0.533964	-0.000032
2000	1.9890e+02	0.1046	-8.543603	0.000303	3.029199	0.513160	-0.000030
2001	1.9900e+02	0.0973	-8.568858	0.000254	2.537977	0.429945	-0.000025
2002	1.9910e+02	0.0855	-8.599409	0.000307	3.070134	0.520095	-0.000031
2003	1.9920e+02	0.0760	-8.623442	0.000242	2.415172	0.409141	-0.000024
2004	1.9930e+02	0.0641	-8.655622	0.000323	3.233874	0.547833	-0.000032
2005	1.9940e+02	0.0576	-8.681284	0.000258	2.578912	0.436880	-0.000026
2006	1.9950e+02	0.0464	-8.709798	0.000287	2.865458	0.485422	-0.000029
2007	1.9960e+02	0.0357	-8.733017	0.000233	2.333302	0.395272	-0.000023
2008	1.9970e+02	0.0257	-8.763160	0.000303	3.029199	0.513160	-0.000030
2009	1.9980e+02	0.0121	-8.788008	0.000250	2.497042	0.423010	-0.000025
2010	1.9990e+02	0.0041	-8.816930	0.000291	2.906393	0.492356	-0.000029
2011	2.0000e+02	-0.0052	-8.847480	0.000291	2.906393	0.492356	-0.000031

PMax (uC/cm2):	2.14e+01
Pr (uC/cm2):	1.85e+00
-Pr (uC/cm2):	0.00e+00
PLoss (uC/cm2):	0.00e+00
C (Max-Eff) (nF):	2.14e-01
K (Eff):	3.63e+02
Vert. (+/-Pr) Shift (uC/cm2):	9.25e-01
Offset (uC/cm2):	1.07e+01

A (Loop Area - uC/cm2·Volts):	-1.83e-02



Hysteresis Version: 5.48.1 - Radiant Technologies, Inc., 1999 - 9/12/24

