»»»»»»»»»»»»»»»»»»»»»»»»»»»»»»»»»»»» Hysteresis ««««««««««««««««««««««««««««««««««««
»»»  Executed Version:	5.48.1
»»»  Vision Version:	5.48.4 (R)
»»»  Vision Compiled:	9/18/24
»»»  Driver Version:	5.47.0
»»»  Windows Version:	Windows 8 or 8.1
»»»  Processor Information:	x86 (AMD or Intel) - 32 Processors
»»»  Tester Name:	PMF21124-494 (100V)
»»»  Tester S/N:	PMF21124-494
»»»  Internal Amp Type:	100V RevK 270k
»»»  Internal Amp S/N:	iAB2-596/K     
»»»  Execution Count:	1
»»»»»»»»»»»»»»»»»»»»»»»»»»»»»»»»»»»»»»»»»»««««««««««««««««««««««««««««««««««««««««««

Stored:	6/26/2025 - 15:5:36
Configured:	06/26/25 10:24:47 AM
Executed:	06/26/25 03:04:28 PM

»»»»»»»»»»»»»»»»»»»»»»»»»»»»»»»»»»» Sample Info ««««««««««««««««««««««««««««««««««««
Sample Name:	
Lot Name:	
Wafer Name:	
Die Row/Column:	0/0
Capacitor Number:	0
Sample Area (cm2):	1.00e-04
Sample Thickness (microns):	1.50e-01

Amplifier:	Internal

»»»»»»»»»»»»»»»»»»»»»»»»»»»»»»»»»»» Tester Info «««««««««««««««««««««««««««««««««««
Tester Name:	PMF21124-494 (100V)
Tester Serial Number:	PMF21124-494
Return Signal Amp. Level:	0.2 [Index: 1]

»»»»»»»»»»»»»»»»»»»»»»»»»»»»»»»» Hysteresis Info ««««««««««««««««««««««««««««««««««
Task Name:	Hyst-562
Volts:	10.00
Field:	666.67 (kV/cm)
DCBias:	0.00
DCField:	0.00 (kV/cm)
Hysteresis Period (ms):	1.00e-02
Preset:	Enabled
Preset Delay (ms):	1.00e+03
Profile:	Standard Monopolar

»»»»»»»»»»»»»»»»»»»»»»»»»»»»»»»»»»»»»» Data «««««««««««««««««««««««««««««««««««««««
Points:	101

Valid Data

Point	Time (ms)	Drive Voltage	Measured Polarization (uC/cm2)	Capacitance (uF)	Normalized Capacitance (uF/cm2)	Dielectric Constant	Instantaneous Current (mA)
   1	0.0000e+00	0.1521	-9.040250	0.000254	2.543728	0.430919	0.502438
   2	1.0000e-04	0.3656	-8.537811	0.000254	2.543728	0.430919	0.502438
   3	2.0000e-04	0.5492	-8.028091	0.000258	2.580594	0.437164	0.509720
   4	3.0000e-04	0.7615	-7.685851	0.000173	1.732685	0.293525	0.342241
   5	4.0000e-04	0.9545	-7.227103	0.000232	2.322535	0.393448	0.458748
   6	5.0000e-04	1.1560	-6.826608	0.000203	2.027610	0.343486	0.400494
   7	6.0000e-04	1.3633	-6.404269	0.000214	2.138206	0.362222	0.422339
   8	7.0000e-04	1.5527	-5.960084	0.000225	2.248803	0.380958	0.444185
   9	8.0000e-04	1.7552	-5.617843	0.000173	1.732685	0.293525	0.342241
  10	9.0000e-04	1.9562	-5.206427	0.000208	2.082908	0.352854	0.411417
  11	1.0000e-03	2.1544	-4.802291	0.000205	2.046042	0.346609	0.404135
  12	1.1000e-03	2.3572	-4.405438	0.000201	2.009177	0.340364	0.396853
  13	1.2000e-03	2.5607	-3.990380	0.000210	2.101341	0.355977	0.415058
  14	1.3000e-03	2.7505	-3.629935	0.000182	1.824849	0.309138	0.360445
  15	1.4000e-03	2.9562	-3.203955	0.000216	2.156639	0.365345	0.425980
  16	1.5000e-03	3.1555	-2.821665	0.000194	1.935445	0.327873	0.382290
  17	1.6000e-03	3.3539	-2.435734	0.000195	1.953878	0.330996	0.385931
  18	1.7000e-03	3.5580	-2.046162	0.000197	1.972311	0.334119	0.389572
  19	1.8000e-03	3.7589	-1.674795	0.000188	1.880147	0.318506	0.371367
  20	1.9000e-03	3.9511	-1.281582	0.000199	1.990744	0.337241	0.393213
  21	2.0000e-03	4.1556	-0.953905	0.000166	1.658953	0.281034	0.327677
  22	2.1000e-03	4.3515	-0.582537	0.000188	1.880147	0.318506	0.371367
  23	2.2000e-03	4.5566	-0.207529	0.000190	1.898580	0.321628	0.375008
  24	2.3000e-03	4.7543	0.163839	0.000188	1.880147	0.318506	0.371367
  25	2.4000e-03	4.9564	0.527924	0.000184	1.843281	0.312260	0.364086
  26	2.5000e-03	5.1627	0.892010	0.000184	1.843281	0.312260	0.364086
  27	2.6000e-03	5.3549	1.259737	0.000186	1.861714	0.315383	0.367727
  28	2.7000e-03	5.5557	1.583773	0.000164	1.640520	0.277912	0.324036
  29	2.8000e-03	5.7584	1.944218	0.000182	1.824849	0.309138	0.360445
  30	2.9000e-03	5.9537	2.297381	0.000179	1.787983	0.302893	0.353163
  31	3.0000e-03	6.1557	2.654185	0.000181	1.806416	0.306015	0.356804
  32	3.1000e-03	6.3623	2.989144	0.000170	1.695819	0.287279	0.334959
  33	3.2000e-03	6.5500	3.335026	0.000175	1.751117	0.296647	0.345881
  34	3.3000e-03	6.7563	3.666344	0.000168	1.677386	0.284157	0.331318
  35	3.4000e-03	6.9565	4.015866	0.000177	1.769550	0.299770	0.349522
  36	3.5000e-03	7.1542	4.321698	0.000155	1.548356	0.262299	0.305832
  37	3.6000e-03	7.3550	4.682143	0.000182	1.824849	0.309138	0.360445
  38	3.7000e-03	7.5595	5.017102	0.000170	1.695819	0.287279	0.334959
  39	3.8000e-03	7.7512	5.315652	0.000151	1.511491	0.256053	0.298550
  40	3.9000e-03	7.9578	5.628766	0.000159	1.585222	0.268544	0.313114
  41	4.0000e-03	8.1601	5.989211	0.000182	1.824849	0.309138	0.360445
  42	4.1000e-03	8.3475	6.291402	0.000153	1.529924	0.259176	0.302191
  43	4.2000e-03	8.5562	6.611798	0.000162	1.622088	0.274789	0.320395
  44	4.3000e-03	8.7534	6.924911	0.000159	1.585222	0.268544	0.313114
  45	4.4000e-03	8.9615	7.252589	0.000166	1.658953	0.281034	0.327677
  46	4.5000e-03	9.1483	7.562061	0.000157	1.566789	0.265421	0.309473
  47	4.6000e-03	9.3515	7.875175	0.000159	1.585222	0.268544	0.313114
  48	4.7000e-03	9.5547	8.170085	0.000149	1.493058	0.252931	0.294909
  49	4.8000e-03	9.7513	8.479558	0.000157	1.566789	0.265421	0.309473
  50	4.9000e-03	9.9484	8.763544	0.000144	1.437760	0.243563	0.283987
  51	5.0000e-03	9.8428	9.040250	-0.000140	-1.400894	-0.237318	0.276705
  52	5.1000e-03	9.6243	8.523248	0.000262	2.617460	0.443410	-0.517002
  53	5.2000e-03	9.4394	8.202852	0.000162	1.622088	0.274789	-0.320395
  54	5.3000e-03	9.2404	7.977119	0.000114	1.142834	0.193601	-0.225733
  55	5.4000e-03	9.0335	7.653083	0.000164	1.640520	0.277912	-0.324036
  56	5.5000e-03	8.8339	7.339969	0.000159	1.585222	0.268544	-0.313114
  57	5.6000e-03	8.6411	7.077827	0.000133	1.327163	0.224827	-0.262142
  58	5.7000e-03	8.4384	6.764714	0.000159	1.585222	0.268544	-0.313114
  59	5.8000e-03	8.2382	6.440677	0.000164	1.640520	0.277912	-0.324036
  60	5.9000e-03	8.0350	6.105718	0.000170	1.695819	0.287279	-0.334959
  61	6.0000e-03	7.8372	5.810809	0.000149	1.493058	0.252931	-0.294909
  62	6.1000e-03	7.6407	5.530463	0.000142	1.419327	0.240440	-0.280346
  63	6.2000e-03	7.4319	5.166377	0.000184	1.843281	0.312260	-0.364086
  64	6.3000e-03	7.2433	4.849622	0.000160	1.603655	0.271666	-0.316755
  65	6.4000e-03	7.0352	4.543790	0.000155	1.548356	0.262299	-0.305832
  66	6.5000e-03	6.8393	4.190627	0.000179	1.787983	0.302893	-0.353163
  67	6.6000e-03	6.6373	3.866591	0.000164	1.640520	0.277912	-0.324036
  68	6.7000e-03	6.4371	3.589886	0.000140	1.400894	0.237318	-0.276705
  69	6.8000e-03	6.2326	3.207596	0.000194	1.935445	0.327873	-0.382290
  70	6.9000e-03	6.0422	2.858073	0.000177	1.769550	0.299770	-0.349522
  71	7.0000e-03	5.8353	2.555882	0.000153	1.529924	0.259176	-0.302191
  72	7.1000e-03	5.6384	2.180874	0.000190	1.898580	0.321628	-0.375008
  73	7.2000e-03	5.4391	1.838633	0.000173	1.732685	0.293525	-0.342241
  74	7.3000e-03	5.2396	1.514597	0.000164	1.640520	0.277912	-0.324036
  75	7.4000e-03	5.0284	1.128666	0.000195	1.953878	0.330996	-0.385931
  76	7.5000e-03	4.8404	0.775503	0.000179	1.787983	0.302893	-0.353163
  77	7.6000e-03	4.6396	0.451466	0.000164	1.640520	0.277912	-0.324036
  78	7.7000e-03	4.4363	0.076458	0.000190	1.898580	0.321628	-0.375008
  79	7.8000e-03	4.2374	-0.273064	0.000177	1.769550	0.299770	-0.349522
  80	7.9000e-03	4.0384	-0.669918	0.000201	2.009177	0.340364	-0.396853
  81	8.0000e-03	3.8383	-1.034004	0.000184	1.843281	0.312260	-0.364086
  82	8.1000e-03	3.6307	-1.409012	0.000190	1.898580	0.321628	-0.375008
  83	8.2000e-03	3.4396	-1.762175	0.000179	1.787983	0.302893	-0.353163
  84	8.3000e-03	3.2361	-2.140824	0.000192	1.917013	0.324751	-0.378649
  85	8.4000e-03	3.0344	-2.534037	0.000199	1.990744	0.337241	-0.393213
  86	8.5000e-03	2.8384	-2.905404	0.000188	1.880147	0.318506	-0.371367
  87	8.6000e-03	2.6352	-3.313181	0.000206	2.064475	0.349732	-0.407776
  88	8.7000e-03	2.4298	-3.702752	0.000197	1.972311	0.334119	-0.389572
  89	8.8000e-03	2.2397	-4.103247	0.000203	2.027610	0.343486	-0.400494
  90	8.9000e-03	2.0380	-4.470973	0.000186	1.861714	0.315383	-0.367727
  91	9.0000e-03	1.8326	-4.878749	0.000206	2.064475	0.349732	-0.407776
  92	9.1000e-03	1.6400	-5.282885	0.000205	2.046042	0.346609	-0.404135
  93	9.2000e-03	1.4378	-5.694301	0.000208	2.082908	0.352854	-0.411417
  94	9.3000e-03	1.2326	-6.102077	0.000206	2.064475	0.349732	-0.407776
  95	9.4000e-03	1.0416	-6.524417	0.000214	2.138206	0.362222	-0.422339
  96	9.5000e-03	0.8374	-6.910348	0.000195	1.953878	0.330996	-0.385931
  97	9.6000e-03	0.6332	-7.361814	0.000229	2.285669	0.387203	-0.451466
  98	9.7000e-03	0.4400	-7.751386	0.000197	1.972311	0.334119	-0.389572
  99	9.8000e-03	0.2375	-8.210134	0.000232	2.322535	0.393448	-0.458748
 100	9.9000e-03	0.0449	-8.632474	0.000214	2.138206	0.362222	-0.422339
 101	1.0000e-02	-0.0073	-8.989278	0.000214	2.138206	0.362222	-0.356804

PMax (uC/cm2):	1.78e+01
Pr (uC/cm2):	8.37e-02
-Pr (uC/cm2):	0.00e+00
PLoss (uC/cm2):	0.00e+00
C (Max-Eff) (nF):	1.79e-01
K (Eff):	3.04e+02
Vert. (+/-Pr) Shift (uC/cm2):	4.19e-02
Offset (uC/cm2):	9.07e+00

A (Loop Area - uC/cm2·Volts):	2.73e-02



Hysteresis Version: 5.48.1 - Radiant Technologies, Inc., 1999 - 9/12/24

»»»»»»»»»»»»»»»»»»»»»»»»»»»»»»»»»»»» Hysteresis ««««««««««««««««««««««««««««««««««««
»»»  Executed Version:	5.48.1
»»»  Vision Version:	5.48.4 (R)
»»»  Vision Compiled:	9/18/24
»»»  Driver Version:	5.47.0
»»»  Windows Version:	Windows 8 or 8.1
»»»  Processor Information:	x86 (AMD or Intel) - 32 Processors
»»»  Tester Name:	PMF21124-494 (100V)
»»»  Tester S/N:	PMF21124-494
»»»  Internal Amp Type:	100V RevK 270k
»»»  Internal Amp S/N:	iAB2-596/K     
»»»  Execution Count:	1
»»»»»»»»»»»»»»»»»»»»»»»»»»»»»»»»»»»»»»»»»»««««««««««««««««««««««««««««««««««««««««««

Stored:	6/26/2025 - 15:6:36
Configured:	06/26/25 10:24:47 AM
Executed:	06/26/25 03:05:46 PM

»»»»»»»»»»»»»»»»»»»»»»»»»»»»»»»»»»» Sample Info ««««««««««««««««««««««««««««««««««««
Sample Name:	
Lot Name:	
Wafer Name:	
Die Row/Column:	0/0
Capacitor Number:	0
Sample Area (cm2):	1.00e-04
Sample Thickness (microns):	1.50e-01

Amplifier:	Internal

»»»»»»»»»»»»»»»»»»»»»»»»»»»»»»»»»»» Tester Info «««««««««««««««««««««««««««««««««««
Tester Name:	PMF21124-494 (100V)
Tester Serial Number:	PMF21124-494
Return Signal Amp. Level:	1.9 [Index: 2]

»»»»»»»»»»»»»»»»»»»»»»»»»»»»»»»» Hysteresis Info ««««««««««««««««««««««««««««««««««
Task Name:	Hyst-562
Volts:	10.00
Field:	666.67 (kV/cm)
DCBias:	0.00
DCField:	0.00 (kV/cm)
Hysteresis Period (ms):	2.00e+02
Preset:	Enabled
Preset Delay (ms):	1.00e+03
Profile:	Standard Monopolar

»»»»»»»»»»»»»»»»»»»»»»»»»»»»»»»»»»»»»» Data «««««««««««««««««««««««««««««««««««««««
Points:	2011

Valid Data

Point	Time (ms)	Drive Voltage	Measured Polarization (uC/cm2)	Capacitance (uF)	Normalized Capacitance (uF/cm2)	Dielectric Constant	Instantaneous Current (mA)
   1	0.0000e+00	-0.0023	-17.985599	0.000205	2.047435	0.346845	0.000020
   2	9.9500e-02	0.0046	-17.965232	0.000205	2.047435	0.346845	0.000020
   3	1.9900e-01	0.0147	-17.945272	0.000201	2.006487	0.339908	0.000020
   4	2.9850e-01	0.0249	-17.928979	0.000164	1.637948	0.277476	0.000016
   5	3.9800e-01	0.0363	-17.908612	0.000205	2.047435	0.346845	0.000020
   6	4.9750e-01	0.0437	-17.887837	0.000209	2.088384	0.353782	0.000021
   7	5.9700e-01	0.0546	-17.867063	0.000209	2.088384	0.353782	0.000021
   8	6.9650e-01	0.0641	-17.847103	0.000201	2.006487	0.339908	0.000020
   9	7.9600e-01	0.0739	-17.826736	0.000205	2.047435	0.346845	0.000020
  10	8.9550e-01	0.0838	-17.804739	0.000221	2.211230	0.374593	0.000022
  11	9.9500e-01	0.0965	-17.783557	0.000213	2.129333	0.360719	0.000021
  12	1.0945e+00	0.1041	-17.764820	0.000188	1.883640	0.319097	0.000019
  13	1.1940e+00	0.1140	-17.737935	0.000270	2.702615	0.457835	0.000027
  14	1.2935e+00	0.1253	-17.720419	0.000176	1.760794	0.298287	0.000018
  15	1.3930e+00	0.1330	-17.697608	0.000229	2.293127	0.388466	0.000023
  16	1.4925e+00	0.1459	-17.676834	0.000209	2.088384	0.353782	0.000021
  17	1.5920e+00	0.1528	-17.653208	0.000238	2.375025	0.402340	0.000024
  18	1.6915e+00	0.1646	-17.632433	0.000209	2.088384	0.353782	0.000021
  19	1.7910e+00	0.1727	-17.614918	0.000176	1.760794	0.298287	0.000018
  20	1.8905e+00	0.1834	-17.590070	0.000250	2.497871	0.423151	0.000025
  21	1.9900e+00	0.1968	-17.573776	0.000164	1.637948	0.277476	0.000016
  22	2.0895e+00	0.2050	-17.549335	0.000246	2.456922	0.416214	0.000025
  23	2.1890e+00	0.2148	-17.527339	0.000221	2.211230	0.374593	0.000022
  24	2.2885e+00	0.2238	-17.504528	0.000229	2.293127	0.388466	0.000023
  25	2.3880e+00	0.2348	-17.487419	0.000172	1.719846	0.291350	0.000017
  26	2.4875e+00	0.2454	-17.462979	0.000246	2.456922	0.416214	0.000025
  27	2.5870e+00	0.2540	-17.443834	0.000192	1.924589	0.326034	0.000019
  28	2.6865e+00	0.2642	-17.419393	0.000246	2.456922	0.416214	0.000025
  29	2.7860e+00	0.2729	-17.399026	0.000205	2.047435	0.346845	0.000020
  30	2.8855e+00	0.2835	-17.374993	0.000242	2.415974	0.409277	0.000024
  31	2.9850e+00	0.2919	-17.355033	0.000201	2.006487	0.339908	0.000020
  32	3.0845e+00	0.3046	-17.333851	0.000213	2.129333	0.360719	0.000021
  33	3.1840e+00	0.3142	-17.313891	0.000201	2.006487	0.339908	0.000020
  34	3.2835e+00	0.3248	-17.291488	0.000225	2.252179	0.381529	0.000023
  35	3.3830e+00	0.3339	-17.269491	0.000221	2.211230	0.374593	0.000022
  36	3.4825e+00	0.3440	-17.250753	0.000188	1.883640	0.319097	0.000019
  37	3.5820e+00	0.3529	-17.227128	0.000238	2.375025	0.402340	0.000024
  38	3.6815e+00	0.3646	-17.205538	0.000217	2.170281	0.367656	0.000022
  39	3.7810e+00	0.3728	-17.185986	0.000197	1.965538	0.332971	0.000020
  40	3.8805e+00	0.3834	-17.166026	0.000201	2.006487	0.339908	0.000020
  41	3.9800e+00	0.3935	-17.141178	0.000250	2.497871	0.423151	0.000025
  42	4.0795e+00	0.4044	-17.120404	0.000209	2.088384	0.353782	0.000021
  43	4.1790e+00	0.4098	-17.097593	0.000229	2.293127	0.388466	0.000023
  44	4.2785e+00	0.4251	-17.072745	0.000250	2.497871	0.423151	0.000025
  45	4.3780e+00	0.4343	-17.055229	0.000176	1.760794	0.298287	0.000018
  46	4.4775e+00	0.4409	-17.035269	0.000201	2.006487	0.339908	0.000020
  47	4.5770e+00	0.4557	-17.010829	0.000246	2.456922	0.416214	0.000025
  48	4.6765e+00	0.4632	-16.986795	0.000242	2.415974	0.409277	0.000024
  49	4.7760e+00	0.4755	-16.965206	0.000217	2.170281	0.367656	0.000022
  50	4.8755e+00	0.4819	-16.948913	0.000164	1.637948	0.277476	0.000016
  51	4.9750e+00	0.4927	-16.926916	0.000221	2.211230	0.374593	0.000022
  52	5.0745e+00	0.5011	-16.905734	0.000213	2.129333	0.360719	0.000021
  53	5.1740e+00	0.5179	-16.891070	0.000147	1.474153	0.249728	0.000015
  54	5.2735e+00	0.5237	-16.869481	0.000217	2.170281	0.367656	0.000022
  55	5.3730e+00	0.5324	-16.848299	0.000213	2.129333	0.360719	0.000021
  56	5.4725e+00	0.5437	-16.821822	0.000266	2.661666	0.450898	0.000027
  57	5.5720e+00	0.5544	-16.801455	0.000205	2.047435	0.346845	0.000020
  58	5.6715e+00	0.5640	-16.779458	0.000221	2.211230	0.374593	0.000022
  59	5.7710e+00	0.5714	-16.762757	0.000168	1.678897	0.284413	0.000017
  60	5.8705e+00	0.5820	-16.746871	0.000160	1.596999	0.270539	0.000016
  61	5.9700e+00	0.5946	-16.722023	0.000250	2.497871	0.423151	0.000025
  62	6.0695e+00	0.5999	-16.703692	0.000184	1.842692	0.312160	0.000018
  63	6.1690e+00	0.6123	-16.683733	0.000201	2.006487	0.339908	0.000020
  64	6.2685e+00	0.6230	-16.666217	0.000176	1.760794	0.298287	0.000018
  65	6.3680e+00	0.6351	-16.641776	0.000246	2.456922	0.416214	0.000025
  66	6.4675e+00	0.6423	-16.621816	0.000201	2.006487	0.339908	0.000020
  67	6.5670e+00	0.6532	-16.598191	0.000238	2.375025	0.402340	0.000024
  68	6.6665e+00	0.6616	-16.578231	0.000201	2.006487	0.339908	0.000020
  69	6.7660e+00	0.6712	-16.558678	0.000197	1.965538	0.332971	0.000020
  70	6.8655e+00	0.6808	-16.532608	0.000262	2.620717	0.443961	0.000026
  71	6.9650e+00	0.6924	-16.511427	0.000213	2.129333	0.360719	0.000021
  72	7.0645e+00	0.7014	-16.487393	0.000242	2.415974	0.409277	0.000024
  73	7.1640e+00	0.7084	-16.461731	0.000258	2.579768	0.437025	0.000026
  74	7.2635e+00	0.7207	-16.440956	0.000209	2.088384	0.353782	0.000021
  75	7.3630e+00	0.7339	-16.416923	0.000242	2.415974	0.409277	0.000024
  76	7.4625e+00	0.7401	-16.393705	0.000233	2.334076	0.395403	0.000023
  77	7.5620e+00	0.7511	-16.367227	0.000266	2.661666	0.450898	0.000027
  78	7.6615e+00	0.7595	-16.345638	0.000217	2.170281	0.367656	0.000022
  79	7.7610e+00	0.7696	-16.325271	0.000205	2.047435	0.346845	0.000020
  80	7.8605e+00	0.7806	-16.299609	0.000258	2.579768	0.437025	0.000026
  81	7.9600e+00	0.7891	-16.278427	0.000213	2.129333	0.360719	0.000021
  82	8.0595e+00	0.8001	-16.253986	0.000246	2.456922	0.416214	0.000025
  83	8.1590e+00	0.8077	-16.228324	0.000258	2.579768	0.437025	0.000026
  84	8.2585e+00	0.8194	-16.205105	0.000233	2.334076	0.395403	0.000023
  85	8.3580e+00	0.8308	-16.180257	0.000250	2.497871	0.423151	0.000025
  86	8.4575e+00	0.8440	-16.156224	0.000242	2.415974	0.409277	0.000024
  87	8.5570e+00	0.8505	-16.133005	0.000233	2.334076	0.395403	0.000023
  88	8.6565e+00	0.8620	-16.110194	0.000229	2.293127	0.388466	0.000023
  89	8.7560e+00	0.8730	-16.086161	0.000242	2.415974	0.409277	0.000024
  90	8.8555e+00	0.8807	-16.063757	0.000225	2.252179	0.381529	0.000023
  91	8.9550e+00	0.8916	-16.039724	0.000242	2.415974	0.409277	0.000024
  92	9.0545e+00	0.9026	-16.020986	0.000188	1.883640	0.319097	0.000019
  93	9.1540e+00	0.9084	-15.994916	0.000262	2.620717	0.443961	0.000026
  94	9.2535e+00	0.9205	-15.975364	0.000197	1.965538	0.332971	0.000020
  95	9.3530e+00	0.9317	-15.952960	0.000225	2.252179	0.381529	0.000023
  96	9.4525e+00	0.9422	-15.928519	0.000246	2.456922	0.416214	0.000025
  97	9.5520e+00	0.9488	-15.908560	0.000201	2.006487	0.339908	0.000020
  98	9.6515e+00	0.9583	-15.884934	0.000238	2.375025	0.402340	0.000024
  99	9.7510e+00	0.9712	-15.862530	0.000225	2.252179	0.381529	0.000023
 100	9.8505e+00	0.9808	-15.835238	0.000274	2.743563	0.464772	0.000027
 101	9.9500e+00	0.9919	-15.818944	0.000164	1.637948	0.277476	0.000016
 102	1.0050e+01	1.0011	-15.796540	0.000225	2.252179	0.381529	0.000023
 103	1.0149e+01	1.0098	-15.772915	0.000238	2.375025	0.402340	0.000024
 104	1.0248e+01	1.0212	-15.750918	0.000221	2.211230	0.374593	0.000022
 105	1.0348e+01	1.0299	-15.727292	0.000238	2.375025	0.402340	0.000024
 106	1.0447e+01	1.0405	-15.704888	0.000225	2.252179	0.381529	0.000023
 107	1.0547e+01	1.0516	-15.684929	0.000201	2.006487	0.339908	0.000020
 108	1.0646e+01	1.0616	-15.660895	0.000242	2.415974	0.409277	0.000024
 109	1.0746e+01	1.0721	-15.640936	0.000201	2.006487	0.339908	0.000020
 110	1.0845e+01	1.0827	-15.620976	0.000201	2.006487	0.339908	0.000020
 111	1.0945e+01	1.0899	-15.592055	0.000291	2.907358	0.492520	0.000029
 112	1.1044e+01	1.0998	-15.575353	0.000168	1.678897	0.284413	0.000017
 113	1.1144e+01	1.1106	-15.549691	0.000258	2.579768	0.437025	0.000026
 114	1.1243e+01	1.1221	-15.531768	0.000180	1.801743	0.305224	0.000018
 115	1.1343e+01	1.1292	-15.507735	0.000242	2.415974	0.409277	0.000024
 116	1.1443e+01	1.1418	-15.487775	0.000201	2.006487	0.339908	0.000020
 117	1.1542e+01	1.1514	-15.464964	0.000229	2.293127	0.388466	0.000023
 118	1.1642e+01	1.1625	-15.440523	0.000246	2.456922	0.416214	0.000025
 119	1.1741e+01	1.1699	-15.418527	0.000221	2.211230	0.374593	0.000022
 120	1.1841e+01	1.1802	-15.396123	0.000225	2.252179	0.381529	0.000023
 121	1.1940e+01	1.1909	-15.376570	0.000197	1.965538	0.332971	0.000020
 122	1.2040e+01	1.2001	-15.357425	0.000192	1.924589	0.326034	0.000019
 123	1.2139e+01	1.2096	-15.333392	0.000242	2.415974	0.409277	0.000024
 124	1.2239e+01	1.2200	-15.312618	0.000209	2.088384	0.353782	0.000021
 125	1.2338e+01	1.2280	-15.294694	0.000180	1.801743	0.305224	0.000018
 126	1.2438e+01	1.2377	-15.272698	0.000221	2.211230	0.374593	0.000022
 127	1.2537e+01	1.2472	-15.249072	0.000238	2.375025	0.402340	0.000024
 128	1.2636e+01	1.2617	-15.231149	0.000180	1.801743	0.305224	0.000018
 129	1.2736e+01	1.2666	-15.209560	0.000217	2.170281	0.367656	0.000022
 130	1.2835e+01	1.2819	-15.185527	0.000242	2.415974	0.409277	0.000024
 131	1.2935e+01	1.2888	-15.166789	0.000188	1.883640	0.319097	0.000019
 132	1.3034e+01	1.2990	-15.142756	0.000242	2.415974	0.409277	0.000024
 133	1.3134e+01	1.3093	-15.120759	0.000221	2.211230	0.374593	0.000022
 134	1.3233e+01	1.3165	-15.093060	0.000278	2.784512	0.471709	0.000028
 135	1.3333e+01	1.3267	-15.072285	0.000209	2.088384	0.353782	0.000021
 136	1.3432e+01	1.3383	-15.052733	0.000197	1.965538	0.332971	0.000020
 137	1.3532e+01	1.3482	-15.027070	0.000258	2.579768	0.437025	0.000026
 138	1.3632e+01	1.3591	-15.001408	0.000258	2.579768	0.437025	0.000026
 139	1.3731e+01	1.3692	-14.980226	0.000213	2.129333	0.360719	0.000021
 140	1.3831e+01	1.3789	-14.956600	0.000238	2.375025	0.402340	0.000024
 141	1.3930e+01	1.3888	-14.937048	0.000197	1.965538	0.332971	0.000020
 142	1.4030e+01	1.3966	-14.916273	0.000209	2.088384	0.353782	0.000021
 143	1.4129e+01	1.4085	-14.892240	0.000242	2.415974	0.409277	0.000024
 144	1.4229e+01	1.4205	-14.869836	0.000225	2.252179	0.381529	0.000023
 145	1.4328e+01	1.4277	-14.844581	0.000254	2.538820	0.430088	0.000025
 146	1.4428e+01	1.4378	-14.822584	0.000221	2.211230	0.374593	0.000022
 147	1.4527e+01	1.4486	-14.795292	0.000274	2.743563	0.464772	0.000027
 148	1.4627e+01	1.4572	-14.776555	0.000188	1.883640	0.319097	0.000019
 149	1.4726e+01	1.4676	-14.751707	0.000250	2.497871	0.423151	0.000025
 150	1.4825e+01	1.4800	-14.732562	0.000192	1.924589	0.326034	0.000019
 151	1.4925e+01	1.4902	-14.709751	0.000229	2.293127	0.388466	0.000023
 152	1.5024e+01	1.4965	-14.688569	0.000213	2.129333	0.360719	0.000021
 153	1.5124e+01	1.5088	-14.663313	0.000254	2.538820	0.430088	0.000025
 154	1.5223e+01	1.5167	-14.649464	0.000139	1.392256	0.235855	0.000014
 155	1.5323e+01	1.5311	-14.622579	0.000270	2.702615	0.457835	0.000027
 156	1.5422e+01	1.5385	-14.606286	0.000164	1.637948	0.277476	0.000016
 157	1.5522e+01	1.5465	-14.589584	0.000168	1.678897	0.284413	0.000017
 158	1.5621e+01	1.5601	-14.568403	0.000213	2.129333	0.360719	0.000021
 159	1.5721e+01	1.5662	-14.546406	0.000221	2.211230	0.374593	0.000022
 160	1.5820e+01	1.5748	-14.529298	0.000172	1.719846	0.291350	0.000017
 161	1.5920e+01	1.5873	-14.512597	0.000168	1.678897	0.284413	0.000017
 162	1.6020e+01	1.6000	-14.491008	0.000217	2.170281	0.367656	0.000022
 163	1.6119e+01	1.6082	-14.467382	0.000238	2.375025	0.402340	0.000024
 164	1.6218e+01	1.6166	-14.451903	0.000156	1.556051	0.263602	0.000016
 165	1.6318e+01	1.6280	-14.432758	0.000192	1.924589	0.326034	0.000019
 166	1.6418e+01	1.6395	-14.413205	0.000197	1.965538	0.332971	0.000020
 167	1.6517e+01	1.6455	-14.397319	0.000160	1.596999	0.270539	0.000016
 168	1.6616e+01	1.6561	-14.373286	0.000242	2.415974	0.409277	0.000024
 169	1.6716e+01	1.6669	-14.356585	0.000168	1.678897	0.284413	0.000017
 170	1.6816e+01	1.6771	-14.338661	0.000180	1.801743	0.305224	0.000018
 171	1.6915e+01	1.6877	-14.316258	0.000225	2.252179	0.381529	0.000023
 172	1.7015e+01	1.6972	-14.300779	0.000156	1.556051	0.263602	0.000016
 173	1.7114e+01	1.7059	-14.274301	0.000266	2.661666	0.450898	0.000027
 174	1.7213e+01	1.7142	-14.260044	0.000143	1.433205	0.242791	0.000014
 175	1.7313e+01	1.7271	-14.238455	0.000217	2.170281	0.367656	0.000022
 176	1.7413e+01	1.7372	-14.214829	0.000238	2.375025	0.402340	0.000024
 177	1.7512e+01	1.7472	-14.198943	0.000160	1.596999	0.270539	0.000016
 178	1.7611e+01	1.7570	-14.176946	0.000221	2.211230	0.374593	0.000022
 179	1.7711e+01	1.7670	-14.159023	0.000180	1.801743	0.305224	0.000018
 180	1.7811e+01	1.7772	-14.136212	0.000229	2.293127	0.388466	0.000023
 181	1.7910e+01	1.7856	-14.115030	0.000213	2.129333	0.360719	0.000021
 182	1.8009e+01	1.7949	-14.097515	0.000176	1.760794	0.298287	0.000018
 183	1.8109e+01	1.8069	-14.073889	0.000238	2.375025	0.402340	0.000024
 184	1.8209e+01	1.8201	-14.049448	0.000246	2.456922	0.416214	0.000025
 185	1.8308e+01	1.8283	-14.032747	0.000168	1.678897	0.284413	0.000017
 186	1.8407e+01	1.8388	-14.007085	0.000258	2.579768	0.437025	0.000026
 187	1.8507e+01	1.8460	-13.991606	0.000156	1.556051	0.263602	0.000016
 188	1.8607e+01	1.8573	-13.973683	0.000180	1.801743	0.305224	0.000018
 189	1.8706e+01	1.8653	-13.950464	0.000233	2.334076	0.395403	0.000023
 190	1.8805e+01	1.8769	-13.929690	0.000209	2.088384	0.353782	0.000021
 191	1.8905e+01	1.8857	-13.907693	0.000221	2.211230	0.374593	0.000022
 192	1.9005e+01	1.8950	-13.891399	0.000164	1.637948	0.277476	0.000016
 193	1.9104e+01	1.9044	-13.867773	0.000238	2.375025	0.402340	0.000024
 194	1.9203e+01	1.9156	-13.850258	0.000176	1.760794	0.298287	0.000018
 195	1.9303e+01	1.9279	-13.828261	0.000221	2.211230	0.374593	0.000022
 196	1.9402e+01	1.9361	-13.807894	0.000205	2.047435	0.346845	0.000020
 197	1.9502e+01	1.9448	-13.785490	0.000225	2.252179	0.381529	0.000023
 198	1.9602e+01	1.9553	-13.765531	0.000201	2.006487	0.339908	0.000020
 199	1.9701e+01	1.9655	-13.743127	0.000225	2.252179	0.381529	0.000023
 200	1.9800e+01	1.9778	-13.722352	0.000209	2.088384	0.353782	0.000021
 201	1.9900e+01	1.9870	-13.702800	0.000197	1.965538	0.332971	0.000020
 202	2.0000e+01	1.9933	-13.679581	0.000233	2.334076	0.395403	0.000023
 203	2.0099e+01	2.0047	-13.659214	0.000205	2.047435	0.346845	0.000020
 204	2.0198e+01	2.0146	-13.642513	0.000168	1.678897	0.284413	0.000017
 205	2.0298e+01	2.0251	-13.621331	0.000213	2.129333	0.360719	0.000021
 206	2.0398e+01	2.0383	-13.599335	0.000221	2.211230	0.374593	0.000022
 207	2.0497e+01	2.0440	-13.581819	0.000176	1.760794	0.298287	0.000018
 208	2.0596e+01	2.0571	-13.563896	0.000180	1.801743	0.305224	0.000018
 209	2.0696e+01	2.0638	-13.536197	0.000278	2.784512	0.471709	0.000028
 210	2.0796e+01	2.0753	-13.512978	0.000233	2.334076	0.395403	0.000023
 211	2.0895e+01	2.0856	-13.497906	0.000152	1.515102	0.256665	0.000015
 212	2.0994e+01	2.0931	-13.472651	0.000254	2.538820	0.430088	0.000025
 213	2.1094e+01	2.1046	-13.451877	0.000209	2.088384	0.353782	0.000021
 214	2.1194e+01	2.1146	-13.433954	0.000180	1.801743	0.305224	0.000018
 215	2.1293e+01	2.1236	-13.411550	0.000225	2.252179	0.381529	0.000023
 216	2.1392e+01	2.1346	-13.393627	0.000180	1.801743	0.305224	0.000018
 217	2.1492e+01	2.1465	-13.369594	0.000242	2.415974	0.409277	0.000024
 218	2.1591e+01	2.1549	-13.350448	0.000192	1.924589	0.326034	0.000019
 219	2.1691e+01	2.1635	-13.335377	0.000152	1.515102	0.256665	0.000015
 220	2.1791e+01	2.1756	-13.317046	0.000184	1.842692	0.312160	0.000018
 221	2.1890e+01	2.1856	-13.294643	0.000225	2.252179	0.381529	0.000023
 222	2.1989e+01	2.1940	-13.272646	0.000221	2.211230	0.374593	0.000022
 223	2.2089e+01	2.2053	-13.253501	0.000192	1.924589	0.326034	0.000019
 224	2.2189e+01	2.2127	-13.232319	0.000213	2.129333	0.360719	0.000021
 225	2.2288e+01	2.2257	-13.212767	0.000197	1.965538	0.332971	0.000020
 226	2.2387e+01	2.2350	-13.191178	0.000217	2.170281	0.367656	0.000022
 227	2.2487e+01	2.2436	-13.178550	0.000127	1.269410	0.215044	0.000013
 228	2.2587e+01	2.2541	-13.152887	0.000258	2.579768	0.437025	0.000026
 229	2.2686e+01	2.2654	-13.138223	0.000147	1.474153	0.249728	0.000015
 230	2.2785e+01	2.2781	-13.118671	0.000197	1.965538	0.332971	0.000020
 231	2.2885e+01	2.2839	-13.099118	0.000197	1.965538	0.332971	0.000020
 232	2.2985e+01	2.2929	-13.078751	0.000205	2.047435	0.346845	0.000020
 233	2.3084e+01	2.3048	-13.058384	0.000205	2.047435	0.346845	0.000020
 234	2.3183e+01	2.3119	-13.037609	0.000209	2.088384	0.353782	0.000021
 235	2.3283e+01	2.3240	-13.020094	0.000176	1.760794	0.298287	0.000018
 236	2.3383e+01	2.3335	-12.998504	0.000217	2.170281	0.367656	0.000022
 237	2.3482e+01	2.3418	-12.974471	0.000242	2.415974	0.409277	0.000024
 238	2.3581e+01	2.3526	-12.952067	0.000225	2.252179	0.381529	0.000023
 239	2.3681e+01	2.3649	-12.930886	0.000213	2.129333	0.360719	0.000021
 240	2.3780e+01	2.3740	-12.907667	0.000233	2.334076	0.395403	0.000023
 241	2.3880e+01	2.3852	-12.880782	0.000270	2.702615	0.457835	0.000027
 242	2.3980e+01	2.3953	-12.864081	0.000168	1.678897	0.284413	0.000017
 243	2.4079e+01	2.4019	-12.840048	0.000242	2.415974	0.409277	0.000024
 244	2.4178e+01	2.4129	-12.813978	0.000262	2.620717	0.443961	0.000026
 245	2.4278e+01	2.4241	-12.795648	0.000184	1.842692	0.312160	0.000018
 246	2.4378e+01	2.4323	-12.774059	0.000217	2.170281	0.367656	0.000022
 247	2.4477e+01	2.4440	-12.745952	0.000283	2.825461	0.478646	0.000028
 248	2.4576e+01	2.4541	-12.726400	0.000197	1.965538	0.332971	0.000020
 249	2.4676e+01	2.4633	-12.703181	0.000233	2.334076	0.395403	0.000023
 250	2.4776e+01	2.4730	-12.682407	0.000209	2.088384	0.353782	0.000021
 251	2.4875e+01	2.4812	-12.656744	0.000258	2.579768	0.437025	0.000026
 252	2.4974e+01	2.4944	-12.635562	0.000213	2.129333	0.360719	0.000021
 253	2.5074e+01	2.5021	-12.612751	0.000229	2.293127	0.388466	0.000023
 254	2.5174e+01	2.5130	-12.591569	0.000213	2.129333	0.360719	0.000021
 255	2.5273e+01	2.5251	-12.563463	0.000283	2.825461	0.478646	0.000028
 256	2.5372e+01	2.5320	-12.547984	0.000156	1.556051	0.263602	0.000016
 257	2.5472e+01	2.5445	-12.523136	0.000250	2.497871	0.423151	0.000025
 258	2.5572e+01	2.5523	-12.503583	0.000197	1.965538	0.332971	0.000020
 259	2.5671e+01	2.5627	-12.484438	0.000192	1.924589	0.326034	0.000019
 260	2.5770e+01	2.5741	-12.459590	0.000250	2.497871	0.423151	0.000025
 261	2.5870e+01	2.5836	-12.437186	0.000225	2.252179	0.381529	0.000023
 262	2.5970e+01	2.5894	-12.420078	0.000172	1.719846	0.291350	0.000017
 263	2.6069e+01	2.6019	-12.397674	0.000225	2.252179	0.381529	0.000023
 264	2.6169e+01	2.6121	-12.375270	0.000225	2.252179	0.381529	0.000023
 265	2.6268e+01	2.6212	-12.353681	0.000217	2.170281	0.367656	0.000022
 266	2.6367e+01	2.6311	-12.329241	0.000246	2.456922	0.416214	0.000025
 267	2.6467e+01	2.6416	-12.314576	0.000147	1.474153	0.249728	0.000015
 268	2.6567e+01	2.6517	-12.293395	0.000213	2.129333	0.360719	0.000021
 269	2.6666e+01	2.6602	-12.266103	0.000274	2.743563	0.464772	0.000027
 270	2.6765e+01	2.6728	-12.245328	0.000209	2.088384	0.353782	0.000021
 271	2.6865e+01	2.6826	-12.222924	0.000225	2.252179	0.381529	0.000023
 272	2.6965e+01	2.6927	-12.201742	0.000213	2.129333	0.360719	0.000021
 273	2.7064e+01	2.7016	-12.180561	0.000213	2.129333	0.360719	0.000021
 274	2.7163e+01	2.7152	-12.158971	0.000217	2.170281	0.367656	0.000022
 275	2.7263e+01	2.7210	-12.140641	0.000184	1.842692	0.312160	0.000018
 276	2.7363e+01	2.7332	-12.117423	0.000233	2.334076	0.395403	0.000023
 277	2.7462e+01	2.7418	-12.098685	0.000188	1.883640	0.319097	0.000019
 278	2.7561e+01	2.7518	-12.075874	0.000229	2.293127	0.388466	0.000023
 279	2.7661e+01	2.7634	-12.055099	0.000209	2.088384	0.353782	0.000021
 280	2.7761e+01	2.7712	-12.038398	0.000168	1.678897	0.284413	0.000017
 281	2.7860e+01	2.7813	-12.013550	0.000250	2.497871	0.423151	0.000025
 282	2.7959e+01	2.7932	-11.992368	0.000213	2.129333	0.360719	0.000021
 283	2.8059e+01	2.8006	-11.969965	0.000225	2.252179	0.381529	0.000023
 284	2.8159e+01	2.8109	-11.950412	0.000197	1.965538	0.332971	0.000020
 285	2.8258e+01	2.8240	-11.928008	0.000225	2.252179	0.381529	0.000023
 286	2.8358e+01	2.8327	-11.910493	0.000176	1.760794	0.298287	0.000018
 287	2.8457e+01	2.8419	-11.889718	0.000209	2.088384	0.353782	0.000021
 288	2.8556e+01	2.8525	-11.866907	0.000229	2.293127	0.388466	0.000023
 289	2.8656e+01	2.8603	-11.842874	0.000242	2.415974	0.409277	0.000024
 290	2.8756e+01	2.8703	-11.824136	0.000188	1.883640	0.319097	0.000019
 291	2.8855e+01	2.8802	-11.804176	0.000201	2.006487	0.339908	0.000020
 292	2.8954e+01	2.8884	-11.787475	0.000168	1.678897	0.284413	0.000017
 293	2.9054e+01	2.8997	-11.763849	0.000238	2.375025	0.402340	0.000024
 294	2.9154e+01	2.9096	-11.746741	0.000172	1.719846	0.291350	0.000017
 295	2.9253e+01	2.9208	-11.724744	0.000221	2.211230	0.374593	0.000022
 296	2.9352e+01	2.9328	-11.703155	0.000217	2.170281	0.367656	0.000022
 297	2.9452e+01	2.9404	-11.684825	0.000184	1.842692	0.312160	0.000018
 298	2.9552e+01	2.9500	-11.659977	0.000250	2.497871	0.423151	0.000025
 299	2.9651e+01	2.9604	-11.640832	0.000192	1.924589	0.326034	0.000019
 300	2.9750e+01	2.9697	-11.618021	0.000229	2.293127	0.388466	0.000023
 301	2.9850e+01	2.9806	-11.595209	0.000229	2.293127	0.388466	0.000023
 302	2.9950e+01	2.9893	-11.574435	0.000209	2.088384	0.353782	0.000021
 303	3.0049e+01	3.0029	-11.549587	0.000250	2.497871	0.423151	0.000025
 304	3.0148e+01	3.0097	-11.524332	0.000254	2.538820	0.430088	0.000025
 305	3.0248e+01	3.0209	-11.511297	0.000131	1.310359	0.221981	0.000013
 306	3.0348e+01	3.0316	-11.486042	0.000254	2.538820	0.430088	0.000025
 307	3.0447e+01	3.0420	-11.466489	0.000197	1.965538	0.332971	0.000020
 308	3.0547e+01	3.0474	-11.446529	0.000201	2.006487	0.339908	0.000020
 309	3.0646e+01	3.0640	-11.424940	0.000217	2.170281	0.367656	0.000022
 310	3.0745e+01	3.0729	-11.402129	0.000229	2.293127	0.388466	0.000023
 311	3.0845e+01	3.0802	-11.377281	0.000250	2.497871	0.423151	0.000025
 312	3.0945e+01	3.0891	-11.356099	0.000213	2.129333	0.360719	0.000021
 313	3.1044e+01	3.1013	-11.334103	0.000221	2.211230	0.374593	0.000022
 314	3.1143e+01	3.1100	-11.312514	0.000217	2.170281	0.367656	0.000022
 315	3.1243e+01	3.1180	-11.290517	0.000221	2.211230	0.374593	0.000022
 316	3.1343e+01	3.1300	-11.267299	0.000233	2.334076	0.395403	0.000023
 317	3.1442e+01	3.1400	-11.247746	0.000197	1.965538	0.332971	0.000020
 318	3.1541e+01	3.1484	-11.228601	0.000192	1.924589	0.326034	0.000019
 319	3.1641e+01	3.1593	-11.204568	0.000242	2.415974	0.409277	0.000024
 320	3.1741e+01	3.1689	-11.187460	0.000172	1.719846	0.291350	0.000017
 321	3.1840e+01	3.1805	-11.167500	0.000201	2.006487	0.339908	0.000020
 322	3.1939e+01	3.1895	-11.149984	0.000176	1.760794	0.298287	0.000018
 323	3.2039e+01	3.2002	-11.128395	0.000217	2.170281	0.367656	0.000022
 324	3.2139e+01	3.2085	-11.106806	0.000217	2.170281	0.367656	0.000022
 325	3.2238e+01	3.2182	-11.092956	0.000139	1.392256	0.235855	0.000014
 326	3.2337e+01	3.2314	-11.072996	0.000201	2.006487	0.339908	0.000020
 327	3.2437e+01	3.2412	-11.052629	0.000205	2.047435	0.346845	0.000020
 328	3.2536e+01	3.2500	-11.037557	0.000152	1.515102	0.256665	0.000015
 329	3.2636e+01	3.2580	-11.017190	0.000205	2.047435	0.346845	0.000020
 330	3.2736e+01	3.2682	-11.001304	0.000160	1.596999	0.270539	0.000016
 331	3.2835e+01	3.2777	-10.979307	0.000221	2.211230	0.374593	0.000022
 332	3.2934e+01	3.2859	-10.965458	0.000139	1.392256	0.235855	0.000014
 333	3.3034e+01	3.2976	-10.945091	0.000205	2.047435	0.346845	0.000020
 334	3.3133e+01	3.3092	-10.927168	0.000180	1.801743	0.305224	0.000018
 335	3.3233e+01	3.3194	-10.908837	0.000184	1.842692	0.312160	0.000018
 336	3.3333e+01	3.3274	-10.892136	0.000168	1.678897	0.284413	0.000017
 337	3.3432e+01	3.3374	-10.871769	0.000205	2.047435	0.346845	0.000020
 338	3.3532e+01	3.3468	-10.855883	0.000160	1.596999	0.270539	0.000016
 339	3.3631e+01	3.3573	-10.833886	0.000221	2.211230	0.374593	0.000022
 340	3.3730e+01	3.3675	-10.820037	0.000139	1.392256	0.235855	0.000014
 341	3.3830e+01	3.3800	-10.798447	0.000217	2.170281	0.367656	0.000022
 342	3.3929e+01	3.3897	-10.776451	0.000221	2.211230	0.374593	0.000022
 343	3.4029e+01	3.3987	-10.758120	0.000184	1.842692	0.312160	0.000018
 344	3.4129e+01	3.4100	-10.740197	0.000180	1.801743	0.305224	0.000018
 345	3.4228e+01	3.4187	-10.721460	0.000188	1.883640	0.319097	0.000019
 346	3.4328e+01	3.4270	-10.702722	0.000188	1.883640	0.319097	0.000019
 347	3.4427e+01	3.4398	-10.682762	0.000201	2.006487	0.339908	0.000020
 348	3.4526e+01	3.4483	-10.661580	0.000213	2.129333	0.360719	0.000021
 349	3.4626e+01	3.4597	-10.642843	0.000188	1.883640	0.319097	0.000019
 350	3.4725e+01	3.4679	-10.620439	0.000225	2.252179	0.381529	0.000023
 351	3.4825e+01	3.4777	-10.602516	0.000180	1.801743	0.305224	0.000018
 352	3.4925e+01	3.4905	-10.578890	0.000238	2.375025	0.402340	0.000024
 353	3.5024e+01	3.4969	-10.562596	0.000164	1.637948	0.277476	0.000016
 354	3.5123e+01	3.5112	-10.538563	0.000242	2.415974	0.409277	0.000024
 355	3.5223e+01	3.5191	-10.525935	0.000127	1.269410	0.215044	0.000013
 356	3.5322e+01	3.5303	-10.503939	0.000221	2.211230	0.374593	0.000022
 357	3.5422e+01	3.5378	-10.482757	0.000213	2.129333	0.360719	0.000021
 358	3.5522e+01	3.5490	-10.465649	0.000172	1.719846	0.291350	0.000017
 359	3.5621e+01	3.5574	-10.446096	0.000197	1.965538	0.332971	0.000020
 360	3.5721e+01	3.5684	-10.426136	0.000201	2.006487	0.339908	0.000020
 361	3.5820e+01	3.5792	-10.409028	0.000172	1.719846	0.291350	0.000017
 362	3.5919e+01	3.5878	-10.388253	0.000209	2.088384	0.353782	0.000021
 363	3.6019e+01	3.5991	-10.367886	0.000205	2.047435	0.346845	0.000020
 364	3.6118e+01	3.6076	-10.345482	0.000225	2.252179	0.381529	0.000023
 365	3.6218e+01	3.6178	-10.327559	0.000180	1.801743	0.305224	0.000018
 366	3.6318e+01	3.6292	-10.312488	0.000152	1.515102	0.256665	0.000015
 367	3.6417e+01	3.6387	-10.289677	0.000229	2.293127	0.388466	0.000023
 368	3.6517e+01	3.6471	-10.270124	0.000197	1.965538	0.332971	0.000020
 369	3.6616e+01	3.6577	-10.250979	0.000192	1.924589	0.326034	0.000019
 370	3.6715e+01	3.6684	-10.229797	0.000213	2.129333	0.360719	0.000021
 371	3.6815e+01	3.6788	-10.213096	0.000168	1.678897	0.284413	0.000017
 372	3.6914e+01	3.6875	-10.189878	0.000233	2.334076	0.395403	0.000023
 373	3.7014e+01	3.6974	-10.171955	0.000180	1.801743	0.305224	0.000018
 374	3.7114e+01	3.7077	-10.149143	0.000229	2.293127	0.388466	0.000023
 375	3.7213e+01	3.7158	-10.132442	0.000168	1.678897	0.284413	0.000017
 376	3.7313e+01	3.7254	-10.108002	0.000246	2.456922	0.416214	0.000025
 377	3.7412e+01	3.7380	-10.090486	0.000176	1.760794	0.298287	0.000018
 378	3.7511e+01	3.7481	-10.071748	0.000188	1.883640	0.319097	0.000019
 379	3.7611e+01	3.7589	-10.049752	0.000221	2.211230	0.374593	0.000022
 380	3.7711e+01	3.7688	-10.030199	0.000197	1.965538	0.332971	0.000020
 381	3.7810e+01	3.7744	-10.011054	0.000192	1.924589	0.326034	0.000019
 382	3.7910e+01	3.7843	-9.993131	0.000180	1.801743	0.305224	0.000018
 383	3.8009e+01	3.7981	-9.970320	0.000229	2.293127	0.388466	0.000023
 384	3.8108e+01	3.8037	-9.958100	0.000123	1.228461	0.208107	0.000012
 385	3.8208e+01	3.8152	-9.937325	0.000209	2.088384	0.353782	0.000021
 386	3.8307e+01	3.8253	-9.918587	0.000188	1.883640	0.319097	0.000019
 387	3.8407e+01	3.8360	-9.900664	0.000180	1.801743	0.305224	0.000018
 388	3.8507e+01	3.8491	-9.881519	0.000192	1.924589	0.326034	0.000019
 389	3.8606e+01	3.8604	-9.861967	0.000197	1.965538	0.332971	0.000020
 390	3.8706e+01	3.8676	-9.840785	0.000213	2.129333	0.360719	0.000021
 391	3.8805e+01	3.8770	-9.825306	0.000156	1.556051	0.263602	0.000016
 392	3.8904e+01	3.8840	-9.803717	0.000217	2.170281	0.367656	0.000022
 393	3.9004e+01	3.8946	-9.787423	0.000164	1.637948	0.277476	0.000016
 394	3.9103e+01	3.9063	-9.767463	0.000201	2.006487	0.339908	0.000020
 395	3.9203e+01	3.9183	-9.748726	0.000188	1.883640	0.319097	0.000019
 396	3.9303e+01	3.9288	-9.731210	0.000176	1.760794	0.298287	0.000018
 397	3.9402e+01	3.9384	-9.711657	0.000197	1.965538	0.332971	0.000020
 398	3.9502e+01	3.9485	-9.693734	0.000180	1.801743	0.305224	0.000018
 399	3.9601e+01	3.9538	-9.676219	0.000176	1.760794	0.298287	0.000018
 400	3.9700e+01	3.9648	-9.656259	0.000201	2.006487	0.339908	0.000020
 401	3.9800e+01	3.9762	-9.638336	0.000180	1.801743	0.305224	0.000018
 402	3.9900e+01	3.9833	-9.621635	0.000168	1.678897	0.284413	0.000017
 403	3.9999e+01	3.9974	-9.600046	0.000217	2.170281	0.367656	0.000022
 404	4.0099e+01	4.0073	-9.578864	0.000213	2.129333	0.360719	0.000021
 405	4.0198e+01	4.0150	-9.558497	0.000205	2.047435	0.346845	0.000020
 406	4.0297e+01	4.0278	-9.536093	0.000225	2.252179	0.381529	0.000023
 407	4.0397e+01	4.0356	-9.518984	0.000172	1.719846	0.291350	0.000017
 408	4.0496e+01	4.0485	-9.492507	0.000266	2.661666	0.450898	0.000027
 409	4.0596e+01	4.0557	-9.470511	0.000221	2.211230	0.374593	0.000022
 410	4.0696e+01	4.0643	-9.450144	0.000205	2.047435	0.346845	0.000020
 411	4.0795e+01	4.0739	-9.428147	0.000221	2.211230	0.374593	0.000022
 412	4.0895e+01	4.0861	-9.402484	0.000258	2.579768	0.437025	0.000026
 413	4.0994e+01	4.0948	-9.382932	0.000197	1.965538	0.332971	0.000020
 414	4.1093e+01	4.1035	-9.365416	0.000176	1.760794	0.298287	0.000018
 415	4.1193e+01	4.1145	-9.343420	0.000221	2.211230	0.374593	0.000022
 416	4.1292e+01	4.1268	-9.322645	0.000209	2.088384	0.353782	0.000021
 417	4.1392e+01	4.1357	-9.301871	0.000209	2.088384	0.353782	0.000021
 418	4.1492e+01	4.1471	-9.274579	0.000274	2.743563	0.464772	0.000027
 419	4.1591e+01	4.1573	-9.256656	0.000180	1.801743	0.305224	0.000018
 420	4.1691e+01	4.1640	-9.230993	0.000258	2.579768	0.437025	0.000026
 421	4.1790e+01	4.1756	-9.207775	0.000233	2.334076	0.395403	0.000023
 422	4.1889e+01	4.1846	-9.191481	0.000164	1.637948	0.277476	0.000016
 423	4.1989e+01	4.1956	-9.170299	0.000213	2.129333	0.360719	0.000021
 424	4.2089e+01	4.2047	-9.144637	0.000258	2.579768	0.437025	0.000026
 425	4.2188e+01	4.2136	-9.127528	0.000172	1.719846	0.291350	0.000017
 426	4.2288e+01	4.2258	-9.104717	0.000229	2.293127	0.388466	0.000023
 427	4.2387e+01	4.2361	-9.085572	0.000192	1.924589	0.326034	0.000019
 428	4.2486e+01	4.2429	-9.067649	0.000180	1.801743	0.305224	0.000018
 429	4.2586e+01	4.2559	-9.044430	0.000233	2.334076	0.395403	0.000023
 430	4.2685e+01	4.2641	-9.025693	0.000188	1.883640	0.319097	0.000019
 431	4.2785e+01	4.2735	-9.003696	0.000221	2.211230	0.374593	0.000022
 432	4.2885e+01	4.2832	-8.986588	0.000172	1.719846	0.291350	0.000017
 433	4.2984e+01	4.2984	-8.960518	0.000262	2.620717	0.443961	0.000026
 434	4.3084e+01	4.3049	-8.943002	0.000176	1.760794	0.298287	0.000018
 435	4.3183e+01	4.3169	-8.926301	0.000168	1.678897	0.284413	0.000017
 436	4.3282e+01	4.3232	-8.901860	0.000246	2.456922	0.416214	0.000025
 437	4.3382e+01	4.3318	-8.881901	0.000201	2.006487	0.339908	0.000020
 438	4.3481e+01	4.3436	-8.862756	0.000192	1.924589	0.326034	0.000019
 439	4.3581e+01	4.3522	-8.837500	0.000254	2.538820	0.430088	0.000025
 440	4.3681e+01	4.3629	-8.817133	0.000205	2.047435	0.346845	0.000020
 441	4.3780e+01	4.3722	-8.797988	0.000192	1.924589	0.326034	0.000019
 442	4.3880e+01	4.3847	-8.781694	0.000164	1.637948	0.277476	0.000016
 443	4.3979e+01	4.3922	-8.758883	0.000229	2.293127	0.388466	0.000023
 444	4.4078e+01	4.4048	-8.737294	0.000217	2.170281	0.367656	0.000022
 445	4.4178e+01	4.4160	-8.720186	0.000172	1.719846	0.291350	0.000017
 446	4.4278e+01	4.4228	-8.698597	0.000217	2.170281	0.367656	0.000022
 447	4.4377e+01	4.4334	-8.680673	0.000180	1.801743	0.305224	0.000018
 448	4.4477e+01	4.4439	-8.662750	0.000180	1.801743	0.305224	0.000018
 449	4.4576e+01	4.4527	-8.642791	0.000201	2.006487	0.339908	0.000020
 450	4.4675e+01	4.4633	-8.619572	0.000233	2.334076	0.395403	0.000023
 451	4.4775e+01	4.4750	-8.599205	0.000205	2.047435	0.346845	0.000020
 452	4.4874e+01	4.4830	-8.578023	0.000213	2.129333	0.360719	0.000021
 453	4.4974e+01	4.4933	-8.563359	0.000147	1.474153	0.249728	0.000015
 454	4.5074e+01	4.5028	-8.538511	0.000250	2.497871	0.423151	0.000025
 455	4.5173e+01	4.5147	-8.518144	0.000205	2.047435	0.346845	0.000020
 456	4.5273e+01	4.5237	-8.498999	0.000192	1.924589	0.326034	0.000019
 457	4.5372e+01	4.5348	-8.479446	0.000197	1.965538	0.332971	0.000020
 458	4.5471e+01	4.5442	-8.457857	0.000217	2.170281	0.367656	0.000022
 459	4.5571e+01	4.5535	-8.444007	0.000139	1.392256	0.235855	0.000014
 460	4.5670e+01	4.5627	-8.422011	0.000221	2.211230	0.374593	0.000022
 461	4.5770e+01	4.5720	-8.400014	0.000221	2.211230	0.374593	0.000022
 462	4.5870e+01	4.5837	-8.382499	0.000176	1.760794	0.298287	0.000018
 463	4.5969e+01	4.5927	-8.364576	0.000180	1.801743	0.305224	0.000018
 464	4.6069e+01	4.6012	-8.345838	0.000188	1.883640	0.319097	0.000019
 465	4.6168e+01	4.6124	-8.325878	0.000201	2.006487	0.339908	0.000020
 466	4.6267e+01	4.6253	-8.303882	0.000221	2.211230	0.374593	0.000022
 467	4.6367e+01	4.6331	-8.284329	0.000197	1.965538	0.332971	0.000020
 468	4.6467e+01	4.6424	-8.263555	0.000209	2.088384	0.353782	0.000021
 469	4.6566e+01	4.6540	-8.241966	0.000217	2.170281	0.367656	0.000022
 470	4.6666e+01	4.6623	-8.222006	0.000201	2.006487	0.339908	0.000020
 471	4.6765e+01	4.6719	-8.200009	0.000221	2.211230	0.374593	0.000022
 472	4.6864e+01	4.6805	-8.179642	0.000205	2.047435	0.346845	0.000020
 473	4.6964e+01	4.6944	-8.155202	0.000246	2.456922	0.416214	0.000025
 474	4.7063e+01	4.7010	-8.137278	0.000180	1.801743	0.305224	0.000018
 475	4.7163e+01	4.7124	-8.116911	0.000205	2.047435	0.346845	0.000020
 476	4.7263e+01	4.7234	-8.097359	0.000197	1.965538	0.332971	0.000020
 477	4.7362e+01	4.7337	-8.076584	0.000209	2.088384	0.353782	0.000021
 478	4.7462e+01	4.7402	-8.056217	0.000205	2.047435	0.346845	0.000020
 479	4.7561e+01	4.7546	-8.033813	0.000225	2.252179	0.381529	0.000023
 480	4.7660e+01	4.7616	-8.011002	0.000229	2.293127	0.388466	0.000023
 481	4.7760e+01	4.7754	-7.989413	0.000217	2.170281	0.367656	0.000022
 482	4.7859e+01	4.7827	-7.971490	0.000180	1.801743	0.305224	0.000018
 483	4.7959e+01	4.7903	-7.947050	0.000246	2.456922	0.416214	0.000025
 484	4.8059e+01	4.8027	-7.928312	0.000188	1.883640	0.319097	0.000019
 485	4.8158e+01	4.8122	-7.907945	0.000205	2.047435	0.346845	0.000020
 486	4.8258e+01	4.8193	-7.885541	0.000225	2.252179	0.381529	0.000023
 487	4.8357e+01	4.8305	-7.870469	0.000152	1.515102	0.256665	0.000015
 488	4.8456e+01	4.8423	-7.849287	0.000213	2.129333	0.360719	0.000021
 489	4.8556e+01	4.8522	-7.832586	0.000168	1.678897	0.284413	0.000017
 490	4.8656e+01	4.8611	-7.812626	0.000201	2.006487	0.339908	0.000020
 491	4.8755e+01	4.8736	-7.797962	0.000147	1.474153	0.249728	0.000015
 492	4.8855e+01	4.8815	-7.779224	0.000188	1.883640	0.319097	0.000019
 493	4.8954e+01	4.8902	-7.761709	0.000176	1.760794	0.298287	0.000018
 494	4.9053e+01	4.9008	-7.743378	0.000184	1.842692	0.312160	0.000018
 495	4.9153e+01	4.9119	-7.725048	0.000184	1.842692	0.312160	0.000018
 496	4.9252e+01	4.9203	-7.709161	0.000160	1.596999	0.270539	0.000016
 497	4.9352e+01	4.9310	-7.692460	0.000168	1.678897	0.284413	0.000017
 498	4.9452e+01	4.9428	-7.672501	0.000201	2.006487	0.339908	0.000020
 499	4.9551e+01	4.9514	-7.654578	0.000180	1.801743	0.305224	0.000018
 500	4.9651e+01	4.9625	-7.637877	0.000168	1.678897	0.284413	0.000017
 501	4.9750e+01	4.9705	-7.620768	0.000172	1.719846	0.291350	0.000017
 502	4.9849e+01	4.9810	-7.602438	0.000184	1.842692	0.312160	0.000018
 503	4.9949e+01	4.9902	-7.588588	0.000139	1.392256	0.235855	0.000014
 504	5.0048e+01	4.9987	-7.571480	0.000172	1.719846	0.291350	0.000017
 505	5.0148e+01	5.0130	-7.558445	0.000131	1.310359	0.221981	0.000013
 506	5.0248e+01	5.0198	-7.533189	0.000254	2.538820	0.430088	0.000025
 507	5.0347e+01	5.0307	-7.514044	0.000192	1.924589	0.326034	0.000019
 508	5.0447e+01	5.0422	-7.499787	0.000143	1.433205	0.242791	0.000014
 509	5.0546e+01	5.0501	-7.480235	0.000197	1.965538	0.332971	0.000020
 510	5.0645e+01	5.0604	-7.465571	0.000147	1.474153	0.249728	0.000015
 511	5.0745e+01	5.0723	-7.446426	0.000192	1.924589	0.326034	0.000019
 512	5.0844e+01	5.0797	-7.428095	0.000184	1.842692	0.312160	0.000018
 513	5.0944e+01	5.0909	-7.409765	0.000184	1.842692	0.312160	0.000018
 514	5.1044e+01	5.0978	-7.384509	0.000254	2.538820	0.430088	0.000025
 515	5.1143e+01	5.1125	-7.371067	0.000135	1.351307	0.228918	0.000014
 516	5.1242e+01	5.1208	-7.354773	0.000164	1.637948	0.277476	0.000016
 517	5.1342e+01	5.1299	-7.331555	0.000233	2.334076	0.395403	0.000023
 518	5.1441e+01	5.1396	-7.318113	0.000135	1.351307	0.228918	0.000014
 519	5.1541e+01	5.1507	-7.296523	0.000217	2.170281	0.367656	0.000022
 520	5.1641e+01	5.1578	-7.276564	0.000201	2.006487	0.339908	0.000020
 521	5.1740e+01	5.1709	-7.258641	0.000180	1.801743	0.305224	0.000018
 522	5.1840e+01	5.1817	-7.241532	0.000172	1.719846	0.291350	0.000017
 523	5.1939e+01	5.1899	-7.217499	0.000242	2.415974	0.409277	0.000024
 524	5.2038e+01	5.2010	-7.201205	0.000164	1.637948	0.277476	0.000016
 525	5.2138e+01	5.2074	-7.183282	0.000180	1.801743	0.305224	0.000018
 526	5.2237e+01	5.2192	-7.166581	0.000168	1.678897	0.284413	0.000017
 527	5.2337e+01	5.2293	-7.147843	0.000188	1.883640	0.319097	0.000019
 528	5.2437e+01	5.2399	-7.128698	0.000192	1.924589	0.326034	0.000019
 529	5.2536e+01	5.2516	-7.108739	0.000201	2.006487	0.339908	0.000020
 530	5.2636e+01	5.2605	-7.092852	0.000160	1.596999	0.270539	0.000016
 531	5.2735e+01	5.2683	-7.068819	0.000242	2.415974	0.409277	0.000024
 532	5.2834e+01	5.2799	-7.048044	0.000209	2.088384	0.353782	0.000021
 533	5.2934e+01	5.2905	-7.032158	0.000160	1.596999	0.270539	0.000016
 534	5.3033e+01	5.2987	-7.013828	0.000184	1.842692	0.312160	0.000018
 535	5.3133e+01	5.3085	-6.993053	0.000209	2.088384	0.353782	0.000021
 536	5.3233e+01	5.3184	-6.975130	0.000180	1.801743	0.305224	0.000018
 537	5.3332e+01	5.3281	-6.958836	0.000164	1.637948	0.277476	0.000016
 538	5.3431e+01	5.3390	-6.939691	0.000192	1.924589	0.326034	0.000019
 539	5.3531e+01	5.3497	-6.921768	0.000180	1.801743	0.305224	0.000018
 540	5.3630e+01	5.3571	-6.900994	0.000209	2.088384	0.353782	0.000021
 541	5.3730e+01	5.3706	-6.883071	0.000180	1.801743	0.305224	0.000018
 542	5.3830e+01	5.3796	-6.864333	0.000188	1.883640	0.319097	0.000019
 543	5.3929e+01	5.3875	-6.844373	0.000201	2.006487	0.339908	0.000020
 544	5.4029e+01	5.3996	-6.823191	0.000213	2.129333	0.360719	0.000021
 545	5.4128e+01	5.4104	-6.806490	0.000168	1.678897	0.284413	0.000017
 546	5.4227e+01	5.4176	-6.785716	0.000209	2.088384	0.353782	0.000021
 547	5.4327e+01	5.4285	-6.767385	0.000184	1.842692	0.312160	0.000018
 548	5.4426e+01	5.4374	-6.747426	0.000201	2.006487	0.339908	0.000020
 549	5.4526e+01	5.4467	-6.732761	0.000147	1.474153	0.249728	0.000015
 550	5.4626e+01	5.4582	-6.713616	0.000192	1.924589	0.326034	0.000019
 551	5.4725e+01	5.4662	-6.691620	0.000221	2.211230	0.374593	0.000022
 552	5.4825e+01	5.4784	-6.674919	0.000168	1.678897	0.284413	0.000017
 553	5.4924e+01	5.4885	-6.657403	0.000176	1.760794	0.298287	0.000018
 554	5.5023e+01	5.4954	-6.645997	0.000115	1.146564	0.194233	0.000011
 555	5.5123e+01	5.5105	-6.626038	0.000201	2.006487	0.339908	0.000020
 556	5.5222e+01	5.5178	-6.607300	0.000188	1.883640	0.319097	0.000019
 557	5.5322e+01	5.5280	-6.588969	0.000184	1.842692	0.312160	0.000018
 558	5.5422e+01	5.5376	-6.574305	0.000147	1.474153	0.249728	0.000015
 559	5.5521e+01	5.5470	-6.552716	0.000217	2.170281	0.367656	0.000022
 560	5.5620e+01	5.5576	-6.532756	0.000201	2.006487	0.339908	0.000020
 561	5.5720e+01	5.5651	-6.516055	0.000168	1.678897	0.284413	0.000017
 562	5.5819e+01	5.5767	-6.495281	0.000209	2.088384	0.353782	0.000021
 563	5.5919e+01	5.5884	-6.478580	0.000168	1.678897	0.284413	0.000017
 564	5.6019e+01	5.5968	-6.463508	0.000152	1.515102	0.256665	0.000015
 565	5.6118e+01	5.6067	-6.445178	0.000184	1.842692	0.312160	0.000018
 566	5.6218e+01	5.6185	-6.428884	0.000164	1.637948	0.277476	0.000016
 567	5.6317e+01	5.6286	-6.410961	0.000180	1.801743	0.305224	0.000018
 568	5.6416e+01	5.6361	-6.391816	0.000192	1.924589	0.326034	0.000019
 569	5.6516e+01	5.6469	-6.373893	0.000180	1.801743	0.305224	0.000018
 570	5.6615e+01	5.6572	-6.354340	0.000197	1.965538	0.332971	0.000020
 571	5.6715e+01	5.6698	-6.336010	0.000184	1.842692	0.312160	0.000018
 572	5.6815e+01	5.6762	-6.314421	0.000217	2.170281	0.367656	0.000022
 573	5.6914e+01	5.6886	-6.292424	0.000221	2.211230	0.374593	0.000022
 574	5.7014e+01	5.6966	-6.276130	0.000164	1.637948	0.277476	0.000016
 575	5.7113e+01	5.7093	-6.250875	0.000254	2.538820	0.430088	0.000025
 576	5.7212e+01	5.7168	-6.230101	0.000209	2.088384	0.353782	0.000021
 577	5.7312e+01	5.7267	-6.212178	0.000180	1.801743	0.305224	0.000018
 578	5.7411e+01	5.7383	-6.191403	0.000209	2.088384	0.353782	0.000021
 579	5.7511e+01	5.7492	-6.169407	0.000221	2.211230	0.374593	0.000022
 580	5.7611e+01	5.7561	-6.150669	0.000188	1.883640	0.319097	0.000019
 581	5.7710e+01	5.7668	-6.128265	0.000225	2.252179	0.381529	0.000023
 582	5.7809e+01	5.7766	-6.109527	0.000188	1.883640	0.319097	0.000019
 583	5.7909e+01	5.7861	-6.087938	0.000217	2.170281	0.367656	0.000022
 584	5.8008e+01	5.7959	-6.066756	0.000213	2.129333	0.360719	0.000021
 585	5.8108e+01	5.8051	-6.047611	0.000192	1.924589	0.326034	0.000019
 586	5.8208e+01	5.8155	-6.025207	0.000225	2.252179	0.381529	0.000023
 587	5.8307e+01	5.8258	-5.999952	0.000254	2.538820	0.430088	0.000025
 588	5.8407e+01	5.8376	-5.982436	0.000176	1.760794	0.298287	0.000018
 589	5.8506e+01	5.8451	-5.962069	0.000205	2.047435	0.346845	0.000020
 590	5.8605e+01	5.8559	-5.938851	0.000233	2.334076	0.395403	0.000023
 591	5.8705e+01	5.8675	-5.918076	0.000209	2.088384	0.353782	0.000021
 592	5.8804e+01	5.8782	-5.899339	0.000188	1.883640	0.319097	0.000019
 593	5.8904e+01	5.8857	-5.877749	0.000217	2.170281	0.367656	0.000022
 594	5.9004e+01	5.8970	-5.857790	0.000201	2.006487	0.339908	0.000020
 595	5.9103e+01	5.9055	-5.840274	0.000176	1.760794	0.298287	0.000018
 596	5.9203e+01	5.9161	-5.819092	0.000213	2.129333	0.360719	0.000021
 597	5.9302e+01	5.9237	-5.797503	0.000217	2.170281	0.367656	0.000022
 598	5.9401e+01	5.9370	-5.777543	0.000201	2.006487	0.339908	0.000020
 599	5.9501e+01	5.9465	-5.760027	0.000176	1.760794	0.298287	0.000018
 600	5.9600e+01	5.9576	-5.743326	0.000168	1.678897	0.284413	0.000017
 601	5.9700e+01	5.9658	-5.724996	0.000184	1.842692	0.312160	0.000018
 602	5.9800e+01	5.9731	-5.700963	0.000242	2.415974	0.409277	0.000024
 603	5.9899e+01	5.9838	-5.684669	0.000164	1.637948	0.277476	0.000016
 604	5.9998e+01	5.9948	-5.664709	0.000201	2.006487	0.339908	0.000020
 605	6.0098e+01	6.0055	-5.643935	0.000209	2.088384	0.353782	0.000021
 606	6.0197e+01	6.0163	-5.621531	0.000225	2.252179	0.381529	0.000023
 607	6.0297e+01	6.0272	-5.601978	0.000197	1.965538	0.332971	0.000020
 608	6.0397e+01	6.0377	-5.582426	0.000197	1.965538	0.332971	0.000020
 609	6.0496e+01	6.0467	-5.562466	0.000201	2.006487	0.339908	0.000020
 610	6.0596e+01	6.0549	-5.546173	0.000164	1.637948	0.277476	0.000016
 611	6.0695e+01	6.0645	-5.527842	0.000184	1.842692	0.312160	0.000018
 612	6.0794e+01	6.0769	-5.507068	0.000209	2.088384	0.353782	0.000021
 613	6.0894e+01	6.0867	-5.485478	0.000217	2.170281	0.367656	0.000022
 614	6.0993e+01	6.0971	-5.466741	0.000188	1.883640	0.319097	0.000019
 615	6.1093e+01	6.1060	-5.450447	0.000164	1.637948	0.277476	0.000016
 616	6.1193e+01	6.1143	-5.427228	0.000233	2.334076	0.395403	0.000023
 617	6.1292e+01	6.1242	-5.407676	0.000197	1.965538	0.332971	0.000020
 618	6.1392e+01	6.1355	-5.390568	0.000172	1.719846	0.291350	0.000017
 619	6.1491e+01	6.1468	-5.370608	0.000201	2.006487	0.339908	0.000020
 620	6.1590e+01	6.1517	-5.355129	0.000156	1.556051	0.263602	0.000016
 621	6.1690e+01	6.1663	-5.332725	0.000225	2.252179	0.381529	0.000023
 622	6.1789e+01	6.1749	-5.309914	0.000229	2.293127	0.388466	0.000023
 623	6.1889e+01	6.1858	-5.291991	0.000180	1.801743	0.305224	0.000018
 624	6.1989e+01	6.1959	-5.271624	0.000205	2.047435	0.346845	0.000020
 625	6.2088e+01	6.2057	-5.256959	0.000147	1.474153	0.249728	0.000015
 626	6.2188e+01	6.2148	-5.238629	0.000184	1.842692	0.312160	0.000018
 627	6.2287e+01	6.2251	-5.216632	0.000221	2.211230	0.374593	0.000022
 628	6.2386e+01	6.2341	-5.202783	0.000139	1.392256	0.235855	0.000014
 629	6.2486e+01	6.2431	-5.180786	0.000221	2.211230	0.374593	0.000022
 630	6.2586e+01	6.2521	-5.164493	0.000164	1.637948	0.277476	0.000016
 631	6.2685e+01	6.2635	-5.143311	0.000213	2.129333	0.360719	0.000021
 632	6.2785e+01	6.2739	-5.125795	0.000176	1.760794	0.298287	0.000018
 633	6.2884e+01	6.2843	-5.106243	0.000197	1.965538	0.332971	0.000020
 634	6.2983e+01	6.2952	-5.083431	0.000229	2.293127	0.388466	0.000023
 635	6.3083e+01	6.3018	-5.066730	0.000168	1.678897	0.284413	0.000017
 636	6.3182e+01	6.3149	-5.044326	0.000225	2.252179	0.381529	0.000023
 637	6.3282e+01	6.3206	-5.023959	0.000205	2.047435	0.346845	0.000020
 638	6.3382e+01	6.3323	-5.004407	0.000197	1.965538	0.332971	0.000020
 639	6.3481e+01	6.3439	-4.985669	0.000188	1.883640	0.319097	0.000019
 640	6.3581e+01	6.3515	-4.961229	0.000246	2.456922	0.416214	0.000025
 641	6.3680e+01	6.3650	-4.942898	0.000184	1.842692	0.312160	0.000018
 642	6.3779e+01	6.3737	-4.924975	0.000180	1.801743	0.305224	0.000018
 643	6.3879e+01	6.3839	-4.902979	0.000221	2.211230	0.374593	0.000022
 644	6.3978e+01	6.3930	-4.885870	0.000172	1.719846	0.291350	0.000017
 645	6.4078e+01	6.4021	-4.862244	0.000238	2.375025	0.402340	0.000024
 646	6.4177e+01	6.4140	-4.847173	0.000152	1.515102	0.256665	0.000015
 647	6.4277e+01	6.4236	-4.821917	0.000254	2.538820	0.430088	0.000025
 648	6.4376e+01	6.4346	-4.799106	0.000229	2.293127	0.388466	0.000023
 649	6.4476e+01	6.4484	-4.779961	0.000192	1.924589	0.326034	0.000019
 650	6.4576e+01	6.4513	-4.760409	0.000197	1.965538	0.332971	0.000020
 651	6.4675e+01	6.4622	-4.740856	0.000197	1.965538	0.332971	0.000020
 652	6.4775e+01	6.4727	-4.720082	0.000209	2.088384	0.353782	0.000021
 653	6.4874e+01	6.4836	-4.700529	0.000197	1.965538	0.332971	0.000020
 654	6.4974e+01	6.4933	-4.683421	0.000172	1.719846	0.291350	0.000017
 655	6.5073e+01	6.5051	-4.663461	0.000201	2.006487	0.339908	0.000020
 656	6.5172e+01	6.5135	-4.644723	0.000188	1.883640	0.319097	0.000019
 657	6.5272e+01	6.5221	-4.625986	0.000188	1.883640	0.319097	0.000019
 658	6.5371e+01	6.5316	-4.608877	0.000172	1.719846	0.291350	0.000017
 659	6.5471e+01	6.5431	-4.593398	0.000156	1.556051	0.263602	0.000016
 660	6.5570e+01	6.5534	-4.577105	0.000164	1.637948	0.277476	0.000016
 661	6.5670e+01	6.5627	-4.561218	0.000160	1.596999	0.270539	0.000016
 662	6.5769e+01	6.5720	-4.544110	0.000172	1.719846	0.291350	0.000017
 663	6.5869e+01	6.5838	-4.529038	0.000152	1.515102	0.256665	0.000015
 664	6.5969e+01	6.5913	-4.509893	0.000192	1.924589	0.326034	0.000019
 665	6.6068e+01	6.6002	-4.491563	0.000184	1.842692	0.312160	0.000018
 666	6.6168e+01	6.6131	-4.475269	0.000164	1.637948	0.277476	0.000016
 667	6.6267e+01	6.6241	-4.454087	0.000213	2.129333	0.360719	0.000021
 668	6.6367e+01	6.6323	-4.440645	0.000135	1.351307	0.228918	0.000014
 669	6.6466e+01	6.6439	-4.423536	0.000172	1.719846	0.291350	0.000017
 670	6.6566e+01	6.6515	-4.407243	0.000164	1.637948	0.277476	0.000016
 671	6.6665e+01	6.6610	-4.389320	0.000180	1.801743	0.305224	0.000018
 672	6.6764e+01	6.6711	-4.373433	0.000160	1.596999	0.270539	0.000016
 673	6.6864e+01	6.6813	-4.359584	0.000139	1.392256	0.235855	0.000014
 674	6.6963e+01	6.6907	-4.340439	0.000192	1.924589	0.326034	0.000019
 675	6.7063e+01	6.7040	-4.321293	0.000192	1.924589	0.326034	0.000019
 676	6.7162e+01	6.7123	-4.307036	0.000143	1.433205	0.242791	0.000014
 677	6.7262e+01	6.7233	-4.287077	0.000201	2.006487	0.339908	0.000020
 678	6.7362e+01	6.7306	-4.268746	0.000184	1.842692	0.312160	0.000018
 679	6.7461e+01	6.7403	-4.249601	0.000192	1.924589	0.326034	0.000019
 680	6.7561e+01	6.7513	-4.233307	0.000164	1.637948	0.277476	0.000016
 681	6.7660e+01	6.7605	-4.211311	0.000221	2.211230	0.374593	0.000022
 682	6.7760e+01	6.7719	-4.195832	0.000156	1.556051	0.263602	0.000016
 683	6.7859e+01	6.7817	-4.177909	0.000180	1.801743	0.305224	0.000018
 684	6.7959e+01	6.7921	-4.158356	0.000197	1.965538	0.332971	0.000020
 685	6.8058e+01	6.8008	-4.140026	0.000184	1.842692	0.312160	0.000018
 686	6.8157e+01	6.8130	-4.122918	0.000172	1.719846	0.291350	0.000017
 687	6.8257e+01	6.8217	-4.104587	0.000184	1.842692	0.312160	0.000018
 688	6.8356e+01	6.8328	-4.085849	0.000188	1.883640	0.319097	0.000019
 689	6.8456e+01	6.8418	-4.065890	0.000201	2.006487	0.339908	0.000020
 690	6.8555e+01	6.8494	-4.048374	0.000176	1.760794	0.298287	0.000018
 691	6.8655e+01	6.8597	-4.031266	0.000172	1.719846	0.291350	0.000017
 692	6.8754e+01	6.8725	-4.011713	0.000197	1.965538	0.332971	0.000020
 693	6.8854e+01	6.8813	-3.994605	0.000172	1.719846	0.291350	0.000017
 694	6.8954e+01	6.8916	-3.975052	0.000197	1.965538	0.332971	0.000020
 695	6.9053e+01	6.8987	-3.958351	0.000168	1.678897	0.284413	0.000017
 696	6.9153e+01	6.9106	-3.941243	0.000172	1.719846	0.291350	0.000017
 697	6.9252e+01	6.9192	-3.922912	0.000184	1.842692	0.312160	0.000018
 698	6.9352e+01	6.9291	-3.902953	0.000201	2.006487	0.339908	0.000020
 699	6.9451e+01	6.9392	-3.882586	0.000205	2.047435	0.346845	0.000020
 700	6.9550e+01	6.9521	-3.866699	0.000160	1.596999	0.270539	0.000016
 701	6.9650e+01	6.9582	-3.844703	0.000221	2.211230	0.374593	0.000022
 702	6.9749e+01	6.9706	-3.826372	0.000184	1.842692	0.312160	0.000018
 703	6.9849e+01	6.9787	-3.809671	0.000168	1.678897	0.284413	0.000017
 704	6.9948e+01	6.9911	-3.790933	0.000188	1.883640	0.319097	0.000019
 705	7.0048e+01	7.0006	-3.770159	0.000209	2.088384	0.353782	0.000021
 706	7.0147e+01	7.0105	-3.753458	0.000168	1.678897	0.284413	0.000017
 707	7.0247e+01	7.0208	-3.733905	0.000197	1.965538	0.332971	0.000020
 708	7.0347e+01	7.0293	-3.716797	0.000172	1.719846	0.291350	0.000017
 709	7.0446e+01	7.0374	-3.700096	0.000168	1.678897	0.284413	0.000017
 710	7.0546e+01	7.0504	-3.679322	0.000209	2.088384	0.353782	0.000021
 711	7.0645e+01	7.0627	-3.659362	0.000201	2.006487	0.339908	0.000020
 712	7.0745e+01	7.0700	-3.638587	0.000209	2.088384	0.353782	0.000021
 713	7.0844e+01	7.0783	-3.620664	0.000180	1.801743	0.305224	0.000018
 714	7.0944e+01	7.0892	-3.603149	0.000176	1.760794	0.298287	0.000018
 715	7.1043e+01	7.1004	-3.585225	0.000180	1.801743	0.305224	0.000018
 716	7.1142e+01	7.1084	-3.566488	0.000188	1.883640	0.319097	0.000019
 717	7.1242e+01	7.1194	-3.548157	0.000184	1.842692	0.312160	0.000018
 718	7.1341e+01	7.1294	-3.532271	0.000160	1.596999	0.270539	0.000016
 719	7.1441e+01	7.1393	-3.512311	0.000201	2.006487	0.339908	0.000020
 720	7.1540e+01	7.1494	-3.495203	0.000172	1.719846	0.291350	0.000017
 721	7.1640e+01	7.1593	-3.480131	0.000152	1.515102	0.256665	0.000015
 722	7.1740e+01	7.1682	-3.460171	0.000201	2.006487	0.339908	0.000020
 723	7.1839e+01	7.1789	-3.441434	0.000188	1.883640	0.319097	0.000019
 724	7.1939e+01	7.1907	-3.427991	0.000135	1.351307	0.228918	0.000014
 725	7.2038e+01	7.1973	-3.408439	0.000197	1.965538	0.332971	0.000020
 726	7.2138e+01	7.2071	-3.387257	0.000213	2.129333	0.360719	0.000021
 727	7.2237e+01	7.2211	-3.366483	0.000209	2.088384	0.353782	0.000021
 728	7.2337e+01	7.2303	-3.350596	0.000160	1.596999	0.270539	0.000016
 729	7.2436e+01	7.2370	-3.333488	0.000172	1.719846	0.291350	0.000017
 730	7.2535e+01	7.2510	-3.320045	0.000135	1.351307	0.228918	0.000014
 731	7.2635e+01	7.2622	-3.300900	0.000192	1.924589	0.326034	0.000019
 732	7.2734e+01	7.2695	-3.285421	0.000156	1.556051	0.263602	0.000016
 733	7.2834e+01	7.2789	-3.268313	0.000172	1.719846	0.291350	0.000017
 734	7.2933e+01	7.2893	-3.249983	0.000184	1.842692	0.312160	0.000018
 735	7.3033e+01	7.3009	-3.228801	0.000213	2.129333	0.360719	0.000021
 736	7.3132e+01	7.3078	-3.212100	0.000168	1.678897	0.284413	0.000017
 737	7.3232e+01	7.3183	-3.192547	0.000197	1.965538	0.332971	0.000020
 738	7.3332e+01	7.3287	-3.170551	0.000221	2.211230	0.374593	0.000022
 739	7.3431e+01	7.3418	-3.153035	0.000176	1.760794	0.298287	0.000018
 740	7.3531e+01	7.3504	-3.134705	0.000184	1.842692	0.312160	0.000018
 741	7.3630e+01	7.3583	-3.115152	0.000197	1.965538	0.332971	0.000020
 742	7.3730e+01	7.3683	-3.089082	0.000262	2.620717	0.443961	0.000026
 743	7.3829e+01	7.3782	-3.071974	0.000172	1.719846	0.291350	0.000017
 744	7.3928e+01	7.3912	-3.051607	0.000205	2.047435	0.346845	0.000020
 745	7.4028e+01	7.3965	-3.030832	0.000209	2.088384	0.353782	0.000021
 746	7.4127e+01	7.4082	-3.009650	0.000213	2.129333	0.360719	0.000021
 747	7.4227e+01	7.4200	-2.986432	0.000233	2.334076	0.395403	0.000023
 748	7.4326e+01	7.4280	-2.968102	0.000184	1.842692	0.312160	0.000018
 749	7.4426e+01	7.4377	-2.948549	0.000197	1.965538	0.332971	0.000020
 750	7.4525e+01	7.4489	-2.928589	0.000201	2.006487	0.339908	0.000020
 751	7.4625e+01	7.4584	-2.905371	0.000233	2.334076	0.395403	0.000023
 752	7.4725e+01	7.4654	-2.886226	0.000192	1.924589	0.326034	0.000019
 753	7.4824e+01	7.4781	-2.863414	0.000229	2.293127	0.388466	0.000023
 754	7.4924e+01	7.4878	-2.837752	0.000258	2.579768	0.437025	0.000026
 755	7.5023e+01	7.5001	-2.819829	0.000180	1.801743	0.305224	0.000018
 756	7.5123e+01	7.5079	-2.800684	0.000192	1.924589	0.326034	0.000019
 757	7.5222e+01	7.5188	-2.776243	0.000246	2.456922	0.416214	0.000025
 758	7.5322e+01	7.5269	-2.757505	0.000188	1.883640	0.319097	0.000019
 759	7.5421e+01	7.5372	-2.734287	0.000233	2.334076	0.395403	0.000023
 760	7.5520e+01	7.5481	-2.714734	0.000197	1.965538	0.332971	0.000020
 761	7.5620e+01	7.5563	-2.697626	0.000172	1.719846	0.291350	0.000017
 762	7.5719e+01	7.5649	-2.671556	0.000262	2.620717	0.443961	0.000026
 763	7.5819e+01	7.5786	-2.654448	0.000172	1.719846	0.291350	0.000017
 764	7.5918e+01	7.5874	-2.636117	0.000184	1.842692	0.312160	0.000018
 765	7.6018e+01	7.5942	-2.614936	0.000213	2.129333	0.360719	0.000021
 766	7.6118e+01	7.6117	-2.596605	0.000184	1.842692	0.312160	0.000018
 767	7.6217e+01	7.6173	-2.576645	0.000201	2.006487	0.339908	0.000020
 768	7.6317e+01	7.6273	-2.556686	0.000201	2.006487	0.339908	0.000020
 769	7.6416e+01	7.6354	-2.538355	0.000184	1.842692	0.312160	0.000018
 770	7.6516e+01	7.6465	-2.518395	0.000201	2.006487	0.339908	0.000020
 771	7.6615e+01	7.6584	-2.495991	0.000225	2.252179	0.381529	0.000023
 772	7.6715e+01	7.6662	-2.477254	0.000188	1.883640	0.319097	0.000019
 773	7.6814e+01	7.6783	-2.455665	0.000217	2.170281	0.367656	0.000022
 774	7.6913e+01	7.6857	-2.434075	0.000217	2.170281	0.367656	0.000022
 775	7.7013e+01	7.7006	-2.413301	0.000209	2.088384	0.353782	0.000021
 776	7.7112e+01	7.7056	-2.393749	0.000197	1.965538	0.332971	0.000020
 777	7.7212e+01	7.7178	-2.372974	0.000209	2.088384	0.353782	0.000021
 778	7.7311e+01	7.7248	-2.354236	0.000188	1.883640	0.319097	0.000019
 779	7.7411e+01	7.7368	-2.336721	0.000176	1.760794	0.298287	0.000018
 780	7.7510e+01	7.7436	-2.316761	0.000201	2.006487	0.339908	0.000020
 781	7.7610e+01	7.7568	-2.299652	0.000172	1.719846	0.291350	0.000017
 782	7.7710e+01	7.7670	-2.274804	0.000250	2.497871	0.423151	0.000025
 783	7.7809e+01	7.7760	-2.258103	0.000168	1.678897	0.284413	0.000017
 784	7.7909e+01	7.7841	-2.237329	0.000209	2.088384	0.353782	0.000021
 785	7.8008e+01	7.7968	-2.215332	0.000221	2.211230	0.374593	0.000022
 786	7.8108e+01	7.8056	-2.196187	0.000192	1.924589	0.326034	0.000019
 787	7.8207e+01	7.8176	-2.175413	0.000209	2.088384	0.353782	0.000021
 788	7.8306e+01	7.8268	-2.156268	0.000192	1.924589	0.326034	0.000019
 789	7.8406e+01	7.8378	-2.133457	0.000229	2.293127	0.388466	0.000023
 790	7.8505e+01	7.8457	-2.120422	0.000131	1.310359	0.221981	0.000013
 791	7.8605e+01	7.8545	-2.099240	0.000213	2.129333	0.360719	0.000021
 792	7.8704e+01	7.8667	-2.078465	0.000209	2.088384	0.353782	0.000021
 793	7.8804e+01	7.8747	-2.058098	0.000205	2.047435	0.346845	0.000020
 794	7.8903e+01	7.8846	-2.038138	0.000201	2.006487	0.339908	0.000020
 795	7.9003e+01	7.8955	-2.020215	0.000180	1.801743	0.305224	0.000018
 796	7.9103e+01	7.9102	-1.999034	0.000213	2.129333	0.360719	0.000021
 797	7.9202e+01	7.9121	-1.981925	0.000172	1.719846	0.291350	0.000017
 798	7.9302e+01	7.9234	-1.962780	0.000192	1.924589	0.326034	0.000019
 799	7.9401e+01	7.9322	-1.940784	0.000221	2.211230	0.374593	0.000022
 800	7.9501e+01	7.9427	-1.922046	0.000188	1.883640	0.319097	0.000019
 801	7.9600e+01	7.9557	-1.904123	0.000180	1.801743	0.305224	0.000018
 802	7.9700e+01	7.9668	-1.880090	0.000242	2.415974	0.409277	0.000024
 803	7.9799e+01	7.9753	-1.859722	0.000205	2.047435	0.346845	0.000020
 804	7.9898e+01	7.9839	-1.839355	0.000205	2.047435	0.346845	0.000020
 805	7.9998e+01	7.9941	-1.816951	0.000225	2.252179	0.381529	0.000023
 806	8.0097e+01	8.0052	-1.794955	0.000221	2.211230	0.374593	0.000022
 807	8.0197e+01	8.0170	-1.772551	0.000225	2.252179	0.381529	0.000023
 808	8.0296e+01	8.0257	-1.752184	0.000205	2.047435	0.346845	0.000020
 809	8.0396e+01	8.0347	-1.729780	0.000225	2.252179	0.381529	0.000023
 810	8.0496e+01	8.0456	-1.711857	0.000180	1.801743	0.305224	0.000018
 811	8.0595e+01	8.0545	-1.690268	0.000217	2.170281	0.367656	0.000022
 812	8.0695e+01	8.0677	-1.669086	0.000213	2.129333	0.360719	0.000021
 813	8.0794e+01	8.0766	-1.646275	0.000229	2.293127	0.388466	0.000023
 814	8.0894e+01	8.0848	-1.627945	0.000184	1.842692	0.312160	0.000018
 815	8.0993e+01	8.0940	-1.605133	0.000229	2.293127	0.388466	0.000023
 816	8.1093e+01	8.1040	-1.581507	0.000238	2.375025	0.402340	0.000024
 817	8.1192e+01	8.1133	-1.559918	0.000217	2.170281	0.367656	0.000022
 818	8.1291e+01	8.1277	-1.540773	0.000192	1.924589	0.326034	0.000019
 819	8.1391e+01	8.1348	-1.520406	0.000205	2.047435	0.346845	0.000020
 820	8.1490e+01	8.1448	-1.497595	0.000229	2.293127	0.388466	0.000023
 821	8.1590e+01	8.1559	-1.480079	0.000176	1.760794	0.298287	0.000018
 822	8.1689e+01	8.1622	-1.455639	0.000246	2.456922	0.416214	0.000025
 823	8.1789e+01	8.1745	-1.439345	0.000164	1.637948	0.277476	0.000016
 824	8.1888e+01	8.1846	-1.415312	0.000242	2.415974	0.409277	0.000024
 825	8.1988e+01	8.1929	-1.399018	0.000164	1.637948	0.277476	0.000016
 826	8.2088e+01	8.2021	-1.381910	0.000172	1.719846	0.291350	0.000017
 827	8.2187e+01	8.2138	-1.362765	0.000192	1.924589	0.326034	0.000019
 828	8.2287e+01	8.2231	-1.345249	0.000176	1.760794	0.298287	0.000018
 829	8.2386e+01	8.2336	-1.324474	0.000209	2.088384	0.353782	0.000021
 830	8.2486e+01	8.2434	-1.311032	0.000135	1.351307	0.228918	0.000014
 831	8.2585e+01	8.2554	-1.290665	0.000205	2.047435	0.346845	0.000020
 832	8.2684e+01	8.2631	-1.273556	0.000172	1.719846	0.291350	0.000017
 833	8.2784e+01	8.2726	-1.252375	0.000213	2.129333	0.360719	0.000021
 834	8.2883e+01	8.2850	-1.233230	0.000192	1.924589	0.326034	0.000019
 835	8.2983e+01	8.2938	-1.215307	0.000180	1.801743	0.305224	0.000018
 836	8.3082e+01	8.3021	-1.198198	0.000172	1.719846	0.291350	0.000017
 837	8.3182e+01	8.3121	-1.180275	0.000180	1.801743	0.305224	0.000018
 838	8.3281e+01	8.3237	-1.165611	0.000147	1.474153	0.249728	0.000015
 839	8.3381e+01	8.3327	-1.147280	0.000184	1.842692	0.312160	0.000018
 840	8.3481e+01	8.3438	-1.125691	0.000217	2.170281	0.367656	0.000022
 841	8.3580e+01	8.3546	-1.105324	0.000205	2.047435	0.346845	0.000020
 842	8.3680e+01	8.3661	-1.087808	0.000176	1.760794	0.298287	0.000018
 843	8.3779e+01	8.3741	-1.067034	0.000209	2.088384	0.353782	0.000021
 844	8.3879e+01	8.3843	-1.047481	0.000197	1.965538	0.332971	0.000020
 845	8.3978e+01	8.3945	-1.028336	0.000192	1.924589	0.326034	0.000019
 846	8.4078e+01	8.4033	-1.008784	0.000197	1.965538	0.332971	0.000020
 847	8.4177e+01	8.4106	-0.986787	0.000221	2.211230	0.374593	0.000022
 848	8.4276e+01	8.4229	-0.969272	0.000176	1.760794	0.298287	0.000018
 849	8.4376e+01	8.4341	-0.947275	0.000221	2.211230	0.374593	0.000022
 850	8.4475e+01	8.4447	-0.929759	0.000176	1.760794	0.298287	0.000018
 851	8.4575e+01	8.4558	-0.908170	0.000217	2.170281	0.367656	0.000022
 852	8.4674e+01	8.4634	-0.884952	0.000233	2.334076	0.395403	0.000023
 853	8.4774e+01	8.4758	-0.867436	0.000176	1.760794	0.298287	0.000018
 854	8.4874e+01	8.4824	-0.843810	0.000238	2.375025	0.402340	0.000024
 855	8.4973e+01	8.4923	-0.820999	0.000229	2.293127	0.388466	0.000023
 856	8.5073e+01	8.4999	-0.803076	0.000180	1.801743	0.305224	0.000018
 857	8.5172e+01	8.5117	-0.784745	0.000184	1.842692	0.312160	0.000018
 858	8.5272e+01	8.5219	-0.760712	0.000242	2.415974	0.409277	0.000024
 859	8.5371e+01	8.5327	-0.740752	0.000201	2.006487	0.339908	0.000020
 860	8.5471e+01	8.5435	-0.718349	0.000225	2.252179	0.381529	0.000023
 861	8.5570e+01	8.5549	-0.701240	0.000172	1.719846	0.291350	0.000017
 862	8.5669e+01	8.5641	-0.682910	0.000184	1.842692	0.312160	0.000018
 863	8.5769e+01	8.5744	-0.661321	0.000217	2.170281	0.367656	0.000022
 864	8.5868e+01	8.5825	-0.636473	0.000250	2.497871	0.423151	0.000025
 865	8.5968e+01	8.5934	-0.615291	0.000213	2.129333	0.360719	0.000021
 866	8.6067e+01	8.6008	-0.595738	0.000197	1.965538	0.332971	0.000020
 867	8.6167e+01	8.6114	-0.572520	0.000233	2.334076	0.395403	0.000023
 868	8.6266e+01	8.6223	-0.552153	0.000205	2.047435	0.346845	0.000020
 869	8.6366e+01	8.6304	-0.529342	0.000229	2.293127	0.388466	0.000023
 870	8.6466e+01	8.6403	-0.506123	0.000233	2.334076	0.395403	0.000023
 871	8.6565e+01	8.6530	-0.486978	0.000192	1.924589	0.326034	0.000019
 872	8.6665e+01	8.6604	-0.464167	0.000229	2.293127	0.388466	0.000023
 873	8.6764e+01	8.6726	-0.443392	0.000209	2.088384	0.353782	0.000021
 874	8.6864e+01	8.6804	-0.415286	0.000283	2.825461	0.478646	0.000028
 875	8.6963e+01	8.6890	-0.396141	0.000192	1.924589	0.326034	0.000019
 876	8.7063e+01	8.7017	-0.374144	0.000221	2.211230	0.374593	0.000022
 877	8.7162e+01	8.7144	-0.349296	0.000250	2.497871	0.423151	0.000025
 878	8.7261e+01	8.7225	-0.325263	0.000242	2.415974	0.409277	0.000024
 879	8.7361e+01	8.7333	-0.301637	0.000238	2.375025	0.402340	0.000024
 880	8.7460e+01	8.7429	-0.275160	0.000266	2.661666	0.450898	0.000027
 881	8.7560e+01	8.7509	-0.250719	0.000246	2.456922	0.416214	0.000025
 882	8.7659e+01	8.7623	-0.226686	0.000242	2.415974	0.409277	0.000024
 883	8.7759e+01	8.7716	-0.194506	0.000323	3.234948	0.548015	0.000032
 884	8.7859e+01	8.7823	-0.168843	0.000258	2.579768	0.437025	0.000026
 885	8.7958e+01	8.7907	-0.143588	0.000254	2.538820	0.430088	0.000025
 886	8.8058e+01	8.8030	-0.116296	0.000274	2.743563	0.464772	0.000027
 887	8.8157e+01	8.8104	-0.089412	0.000270	2.702615	0.457835	0.000027
 888	8.8257e+01	8.8205	-0.062527	0.000270	2.702615	0.457835	0.000027
 889	8.8356e+01	8.8306	-0.036050	0.000266	2.661666	0.450898	0.000027
 890	8.8456e+01	8.8396	-0.007536	0.000287	2.866409	0.485583	0.000029
 891	8.8555e+01	8.8506	0.018941	0.000266	2.661666	0.450898	0.000027
 892	8.8654e+01	8.8602	0.047863	0.000291	2.907358	0.492520	0.000029
 893	8.8754e+01	8.8696	0.082080	0.000344	3.439691	0.582699	0.000034
 894	8.8853e+01	8.8801	0.108149	0.000262	2.620717	0.443961	0.000026
 895	8.8953e+01	8.8927	0.136256	0.000283	2.825461	0.478646	0.000028
 896	8.9052e+01	8.8976	0.171695	0.000356	3.562537	0.603510	0.000036
 897	8.9152e+01	8.9095	0.201838	0.000303	3.030204	0.513330	0.000030
 898	8.9251e+01	8.9196	0.228723	0.000270	2.702615	0.457835	0.000027
 899	8.9351e+01	8.9319	0.264569	0.000360	3.603486	0.610447	0.000036
 900	8.9451e+01	8.9381	0.291861	0.000274	2.743563	0.464772	0.000027
 901	8.9550e+01	8.9508	0.327300	0.000356	3.562537	0.603510	0.000036
 902	8.9650e+01	8.9609	0.362331	0.000352	3.521589	0.596573	0.000035
 903	8.9749e+01	8.9701	0.395326	0.000332	3.316845	0.561889	0.000033
 904	8.9849e+01	8.9783	0.430765	0.000356	3.562537	0.603510	0.000036
 905	8.9948e+01	8.9911	0.467426	0.000369	3.685383	0.624321	0.000037
 906	9.0047e+01	8.9979	0.508975	0.000418	4.176768	0.707564	0.000042
 907	9.0147e+01	9.0132	0.544821	0.000360	3.603486	0.610447	0.000036
 908	9.0246e+01	9.0182	0.585148	0.000405	4.053922	0.686753	0.000041
 909	9.0346e+01	9.0296	0.627919	0.000430	4.299614	0.728374	0.000043
 910	9.0445e+01	9.0390	0.677614	0.000500	4.995742	0.846302	0.000050
 911	9.0545e+01	9.0503	0.722829	0.000455	4.545306	0.769996	0.000045
 912	9.0644e+01	9.0578	0.774562	0.000520	5.200485	0.880986	0.000052
 913	9.0744e+01	9.0686	0.821406	0.000471	4.709101	0.797743	0.000047
 914	9.0844e+01	9.0785	0.870695	0.000495	4.954793	0.839365	0.000050
 915	9.0943e+01	9.0903	0.920390	0.000500	4.995742	0.846302	0.000050
 916	9.1043e+01	9.0991	0.963569	0.000434	4.340563	0.735311	0.000043
 917	9.1142e+01	9.1089	1.017338	0.000541	5.405229	0.915671	0.000054
 918	9.1242e+01	9.1187	1.071107	0.000541	5.405229	0.915671	0.000054
 919	9.1341e+01	9.1319	1.120396	0.000495	4.954793	0.839365	0.000050
 920	9.1441e+01	9.1385	1.180682	0.000606	6.060408	1.026661	0.000061
 921	9.1540e+01	9.1486	1.230378	0.000500	4.995742	0.846302	0.000050
 922	9.1639e+01	9.1596	1.285369	0.000553	5.528075	0.936481	0.000055
 923	9.1739e+01	9.1695	1.343212	0.000581	5.814716	0.985040	0.000058
 924	9.1838e+01	9.1824	1.400240	0.000573	5.732819	0.971166	0.000057
 925	9.1938e+01	9.1895	1.458083	0.000581	5.814716	0.985040	0.000058
 926	9.2037e+01	9.1982	1.513074	0.000553	5.528075	0.936481	0.000055
 927	9.2137e+01	9.2068	1.564806	0.000520	5.200485	0.880986	0.000052
 928	9.2237e+01	9.2149	1.620612	0.000561	5.609973	0.950355	0.000056
 929	9.2336e+01	9.2294	1.673567	0.000532	5.323332	0.901797	0.000053
 930	9.2436e+01	9.2408	1.728151	0.000549	5.487126	0.929544	0.000055
 931	9.2535e+01	9.2460	1.779069	0.000512	5.118588	0.867112	0.000051
 932	9.2635e+01	9.2585	1.834467	0.000557	5.569024	0.943418	0.000056
 933	9.2734e+01	9.2709	1.889458	0.000553	5.528075	0.936481	0.000055
 934	9.2834e+01	9.2782	1.948116	0.000590	5.896613	0.998913	0.000059
 935	9.2933e+01	9.2887	2.006773	0.000590	5.896613	0.998913	0.000059
 936	9.3032e+01	9.2972	2.069504	0.000631	6.306101	1.068282	0.000063
 937	9.3132e+01	9.3085	2.133457	0.000643	6.428947	1.089093	0.000064
 938	9.3231e+01	9.3164	2.193336	0.000602	6.019460	1.019724	0.000060
 939	9.3331e+01	9.3281	2.252808	0.000598	5.978511	1.012787	0.000060
 940	9.3430e+01	9.3385	2.315131	0.000627	6.265152	1.061345	0.000063
 941	9.3530e+01	9.3463	2.372567	0.000577	5.773767	0.978103	0.000058
 942	9.3629e+01	9.3582	2.436112	0.000639	6.387998	1.082156	0.000064
 943	9.3729e+01	9.3679	2.498843	0.000631	6.306101	1.068282	0.000063
 944	9.3829e+01	9.3778	2.569313	0.000708	7.084126	1.200083	0.000071
 945	9.3928e+01	9.3884	2.632859	0.000639	6.387998	1.082156	0.000064
 946	9.4028e+01	9.3979	2.695589	0.000631	6.306101	1.068282	0.000063
 947	9.4127e+01	9.4098	2.762801	0.000676	6.756536	1.144588	0.000068
 948	9.4227e+01	9.4197	2.818199	0.000557	5.569024	0.943418	0.000056
 949	9.4326e+01	9.4277	2.882152	0.000643	6.428947	1.089093	0.000064
 950	9.4425e+01	9.4372	2.949771	0.000680	6.797485	1.151525	0.000068
 951	9.4525e+01	9.4447	3.014131	0.000647	6.469895	1.096030	0.000065
 952	9.4624e+01	9.4566	3.082565	0.000688	6.879382	1.165399	0.000069
 953	9.4724e+01	9.4678	3.147740	0.000655	6.551793	1.109904	0.000066
 954	9.4823e+01	9.4785	3.214544	0.000672	6.715588	1.137651	0.000067
 955	9.4923e+01	9.4873	3.284199	0.000700	7.002229	1.186210	0.000070
 956	9.5022e+01	9.4952	3.354670	0.000708	7.084126	1.200083	0.000071
 957	9.5122e+01	9.5068	3.423510	0.000692	6.920331	1.172336	0.000069
 958	9.5222e+01	9.5170	3.502128	0.000790	7.903100	1.338821	0.000079
 959	9.5321e+01	9.5258	3.578708	0.000770	7.698356	1.304137	0.000077
 960	9.5421e+01	9.5361	3.657325	0.000790	7.903100	1.338821	0.000079
 961	9.5520e+01	9.5447	3.739201	0.000823	8.230690	1.394317	0.000082
 962	9.5620e+01	9.5559	3.818633	0.000798	7.984997	1.352695	0.000080
 963	9.5719e+01	9.5680	3.902953	0.000848	8.476382	1.435938	0.000085
 964	9.5819e+01	9.5791	3.986865	0.000844	8.435433	1.429001	0.000084
 965	9.5918e+01	9.5871	4.068334	0.000819	8.189741	1.387380	0.000082
 966	9.6017e+01	9.5972	4.149395	0.000815	8.148792	1.380443	0.000081
 967	9.6117e+01	9.6064	4.223531	0.000745	7.452664	1.262516	0.000075
 968	9.6216e+01	9.6194	4.304592	0.000815	8.148792	1.380443	0.000081
 969	9.6316e+01	9.6250	4.387283	0.000831	8.312587	1.408190	0.000083
 970	9.6415e+01	9.6355	4.473232	0.000864	8.640177	1.463686	0.000086
 971	9.6515e+01	9.6484	4.553071	0.000803	8.025946	1.359632	0.000080
 972	9.6615e+01	9.6572	4.641872	0.000893	8.926818	1.512244	0.000089
 973	9.6714e+01	9.6661	4.727414	0.000860	8.599228	1.456749	0.000086
 974	9.6814e+01	9.6781	4.815400	0.000884	8.844920	1.498370	0.000088
 975	9.6913e+01	9.6854	4.900127	0.000852	8.517331	1.442875	0.000085
 976	9.7013e+01	9.6955	4.990965	0.000913	9.131561	1.546928	0.000091
 977	9.7112e+01	9.7055	5.083431	0.000930	9.295356	1.574676	0.000093
 978	9.7212e+01	9.7144	5.169381	0.000864	8.640177	1.463686	0.000086
 979	9.7311e+01	9.7266	5.265106	0.000962	9.622946	1.630171	0.000096
 980	9.7410e+01	9.7352	5.360832	0.000962	9.622946	1.630171	0.000096
 981	9.7510e+01	9.7469	5.465926	0.001056	10.564766	1.789720	0.000106
 982	9.7609e+01	9.7583	5.568984	0.001036	10.360022	1.755035	0.000104
 983	9.7709e+01	9.7620	5.670412	0.001020	10.196227	1.727288	0.000102
 984	9.7808e+01	9.7745	5.780802	0.001110	11.097099	1.879899	0.000111
 985	9.7908e+01	9.7868	5.883045	0.001028	10.278125	1.741161	0.000103
 986	9.8007e+01	9.7938	5.988139	0.001056	10.564766	1.789720	0.000106
 987	9.8107e+01	9.8047	6.088345	0.001007	10.073381	1.706477	0.000101
 988	9.8207e+01	9.8160	6.192218	0.001044	10.441920	1.768909	0.000104
 989	9.8306e+01	9.8269	6.295275	0.001036	10.360022	1.755035	0.000104
 990	9.8406e+01	9.8348	6.400370	0.001056	10.564766	1.789720	0.000106
 991	9.8505e+01	9.8476	6.498947	0.000991	9.909587	1.678729	0.000099
 992	9.8605e+01	9.8560	6.596709	0.000983	9.827689	1.664856	0.000098
 993	9.8704e+01	9.8650	6.689583	0.000934	9.336305	1.581613	0.000093
 994	9.8803e+01	9.8780	6.792641	0.001036	10.360022	1.755035	0.000104
 995	9.8903e+01	9.8889	6.889996	0.000979	9.786740	1.657919	0.000098
 996	9.9002e+01	9.8936	6.990609	0.001011	10.114330	1.713414	0.000101
 997	9.9102e+01	9.9048	7.082261	0.000921	9.213459	1.560802	0.000092
 998	9.9201e+01	9.9139	7.186541	0.001048	10.482868	1.775846	0.000105
 999	9.9301e+01	9.9252	7.298968	0.001130	11.301842	1.914584	0.000113
1000	9.9400e+01	9.9343	7.406099	0.001077	10.769509	1.824404	0.000108
1001	9.9500e+01	9.9420	7.524228	0.001188	11.875124	2.011701	0.000119
1002	9.9600e+01	9.9531	7.639099	0.001155	11.547535	1.956205	0.000115
1003	9.9699e+01	9.9634	7.754376	0.001159	11.588483	1.963142	0.000116
1004	9.9799e+01	9.9725	7.862322	0.001085	10.851407	1.838278	0.000108
1005	9.9898e+01	9.9854	7.980452	0.001188	11.875124	2.011701	0.000119
1006	9.9998e+01	9.9933	8.094508	0.001147	11.465637	1.942332	0.000115
1007	1.0010e+02	9.9878	8.183716	-0.000897	-8.967766	-1.519181	0.000090
1008	1.0020e+02	9.9740	8.265184	-0.000819	-8.189741	-1.387380	0.000082
1009	1.0030e+02	9.9640	8.347060	-0.000823	-8.230690	-1.394317	0.000082
1010	1.0040e+02	9.9542	8.428121	-0.000815	-8.148792	-1.380443	0.000081
1011	1.0050e+02	9.9439	8.507960	-0.000803	-8.025946	-1.359632	0.000080
1012	1.0059e+02	9.9365	8.591058	-0.000835	-8.353536	-1.415127	0.000084
1013	1.0069e+02	9.9249	8.674563	-0.000839	-8.394484	-1.422064	0.000084
1014	1.0079e+02	9.9148	8.762957	-0.000889	-8.885869	-1.505307	0.000089
1015	1.0089e+02	9.9050	8.848499	-0.000860	-8.599228	-1.456749	0.000086
1016	1.0099e+02	9.8938	8.936077	-0.000880	-8.803972	-1.491433	0.000088
1017	1.0109e+02	9.8861	9.016324	-0.000807	-8.066895	-1.366569	0.000081
1018	1.0119e+02	9.8740	9.099014	-0.000831	-8.312587	-1.408190	0.000083
1019	1.0129e+02	9.8634	9.182519	-0.000839	-8.394484	-1.422064	0.000084
1020	1.0139e+02	9.8550	9.271727	-0.000897	-8.967766	-1.519181	0.000090
1021	1.0149e+02	9.8465	9.362158	-0.000909	-9.090612	-1.539991	0.000091
1022	1.0159e+02	9.8353	9.452588	-0.000909	-9.090612	-1.539991	0.000091
1023	1.0169e+02	9.8267	9.545054	-0.000930	-9.295356	-1.574676	0.000093
1024	1.0179e+02	9.8145	9.628152	-0.000835	-8.353536	-1.415127	0.000084
1025	1.0189e+02	9.8047	9.714916	-0.000872	-8.722074	-1.477559	0.000087
1026	1.0199e+02	9.7956	9.810234	-0.000958	-9.581997	-1.623234	0.000096
1027	1.0209e+02	9.7864	9.906367	-0.000966	-9.663894	-1.637108	0.000097
1028	1.0219e+02	9.7754	10.002907	-0.000970	-9.704843	-1.644045	0.000097
1029	1.0229e+02	9.7650	10.105150	-0.001028	-10.278125	-1.741161	0.000103
1030	1.0239e+02	9.7553	10.209837	-0.001052	-10.523817	-1.782783	0.000105
1031	1.0248e+02	9.7474	10.306785	-0.000975	-9.745792	-1.650982	0.000097
1032	1.0258e+02	9.7327	10.403732	-0.000975	-9.745792	-1.650982	0.000097
1033	1.0268e+02	9.7291	10.496199	-0.000930	-9.295356	-1.574676	0.000093
1034	1.0278e+02	9.7177	10.583778	-0.000880	-8.803972	-1.491433	0.000088
1035	1.0288e+02	9.7054	10.682355	-0.000991	-9.909587	-1.678729	0.000099
1036	1.0298e+02	9.6936	10.787042	-0.001052	-10.523817	-1.782783	0.000105
1037	1.0308e+02	9.6829	10.885211	-0.000987	-9.868638	-1.671793	0.000099
1038	1.0318e+02	9.6734	10.977271	-0.000925	-9.254407	-1.567739	0.000093
1039	1.0328e+02	9.6664	11.064849	-0.000880	-8.803972	-1.491433	0.000088
1040	1.0338e+02	9.6552	11.150799	-0.000864	-8.640177	-1.463686	0.000086
1041	1.0348e+02	9.6456	11.242858	-0.000925	-9.254407	-1.567739	0.000093
1042	1.0358e+02	9.6379	11.333288	-0.000909	-9.090612	-1.539991	0.000091
1043	1.0368e+02	9.6257	11.418423	-0.000856	-8.558279	-1.449812	0.000086
1044	1.0378e+02	9.6174	11.506001	-0.000880	-8.803972	-1.491433	0.000088
1045	1.0388e+02	9.6063	11.584618	-0.000790	-7.903100	-1.338821	0.000079
1046	1.0398e+02	9.5957	11.667716	-0.000835	-8.353536	-1.415127	0.000084
1047	1.0408e+02	9.5852	11.745111	-0.000778	-7.780254	-1.318011	0.000078
1048	1.0418e+02	9.5741	11.820062	-0.000753	-7.534562	-1.276389	0.000075
1049	1.0428e+02	9.5660	11.892162	-0.000725	-7.247921	-1.227831	0.000072
1050	1.0438e+02	9.5558	11.965484	-0.000737	-7.370767	-1.248642	0.000074
1051	1.0447e+02	9.5486	12.037991	-0.000729	-7.288869	-1.234768	0.000073
1052	1.0457e+02	9.5342	12.114164	-0.000766	-7.657408	-1.297200	0.000077
1053	1.0467e+02	9.5317	12.188300	-0.000745	-7.452664	-1.262516	0.000075
1054	1.0477e+02	9.5166	12.268954	-0.000811	-8.107844	-1.373506	0.000081
1055	1.0487e+02	9.5068	12.343905	-0.000753	-7.534562	-1.276389	0.000075
1056	1.0497e+02	9.4934	12.421300	-0.000778	-7.780254	-1.318011	0.000078
1057	1.0507e+02	9.4851	12.501139	-0.000803	-8.025946	-1.359632	0.000080
1058	1.0517e+02	9.4767	12.580978	-0.000803	-8.025946	-1.359632	0.000080
1059	1.0527e+02	9.4663	12.659188	-0.000786	-7.862151	-1.331884	0.000079
1060	1.0537e+02	9.4543	12.736583	-0.000778	-7.780254	-1.318011	0.000078
1061	1.0547e+02	9.4483	12.811942	-0.000758	-7.575510	-1.283326	0.000076
1062	1.0557e+02	9.4373	12.885671	-0.000741	-7.411716	-1.255579	0.000074
1063	1.0567e+02	9.4288	12.963880	-0.000786	-7.862151	-1.331884	0.000079
1064	1.0577e+02	9.4169	13.038017	-0.000745	-7.452664	-1.262516	0.000075
1065	1.0587e+02	9.4096	13.115004	-0.000774	-7.739305	-1.311074	0.000077
1066	1.0597e+02	9.3986	13.187511	-0.000729	-7.288869	-1.234768	0.000073
1067	1.0607e+02	9.3860	13.260018	-0.000729	-7.288869	-1.234768	0.000073
1068	1.0617e+02	9.3776	13.333747	-0.000741	-7.411716	-1.255579	0.000074
1069	1.0627e+02	9.3701	13.409920	-0.000766	-7.657408	-1.297200	0.000077
1070	1.0637e+02	9.3572	13.477947	-0.000684	-6.838434	-1.158462	0.000068
1071	1.0647e+02	9.3481	13.552083	-0.000745	-7.452664	-1.262516	0.000075
1072	1.0656e+02	9.3366	13.623775	-0.000721	-7.206972	-1.220894	0.000072
1073	1.0666e+02	9.3265	13.698319	-0.000749	-7.493613	-1.269452	0.000075
1074	1.0676e+02	9.3155	13.765938	-0.000680	-6.797485	-1.151525	0.000068
1075	1.0686e+02	9.3073	13.844555	-0.000790	-7.903100	-1.338821	0.000079
1076	1.0696e+02	9.2963	13.919099	-0.000749	-7.493613	-1.269452	0.000075
1077	1.0706e+02	9.2871	13.998123	-0.000794	-7.944049	-1.345758	0.000079
1078	1.0716e+02	9.2789	14.074296	-0.000766	-7.657408	-1.297200	0.000077
1079	1.0726e+02	9.2706	14.150062	-0.000762	-7.616459	-1.290263	0.000076
1080	1.0736e+02	9.2585	14.218088	-0.000684	-6.838434	-1.158462	0.000068
1081	1.0746e+02	9.2471	14.296298	-0.000786	-7.862151	-1.331884	0.000079
1082	1.0756e+02	9.2395	14.365546	-0.000696	-6.961280	-1.179273	0.000070
1083	1.0766e+02	9.2285	14.431943	-0.000667	-6.674639	-1.130714	0.000067
1084	1.0776e+02	9.2163	14.499154	-0.000676	-6.756536	-1.144588	0.000068
1085	1.0786e+02	9.2072	14.565144	-0.000663	-6.633690	-1.123778	0.000066
1086	1.0796e+02	9.1992	14.628689	-0.000639	-6.387998	-1.082156	0.000064
1087	1.0806e+02	9.1882	14.698345	-0.000700	-7.002229	-1.186210	0.000070
1088	1.0816e+02	9.1797	14.761076	-0.000631	-6.306101	-1.068282	0.000063
1089	1.0826e+02	9.1678	14.827880	-0.000672	-6.715588	-1.137651	0.000067
1090	1.0836e+02	9.1582	14.885315	-0.000577	-5.773767	-0.978103	0.000058
1091	1.0845e+02	9.1486	14.950083	-0.000651	-6.510844	-1.102967	0.000065
1092	1.0855e+02	9.1383	15.007111	-0.000573	-5.732819	-0.971166	0.000057
1093	1.0865e+02	9.1281	15.067397	-0.000606	-6.060408	-1.026661	0.000061
1094	1.0875e+02	9.1177	15.129721	-0.000627	-6.265152	-1.061345	0.000063
1095	1.0885e+02	9.1071	15.186749	-0.000573	-5.732819	-0.971166	0.000057
1096	1.0895e+02	9.0987	15.242147	-0.000557	-5.569024	-0.943418	0.000056
1097	1.0905e+02	9.0882	15.300397	-0.000586	-5.855665	-0.991976	0.000059
1098	1.0915e+02	9.0778	15.360277	-0.000602	-6.019460	-1.019724	0.000060
1099	1.0925e+02	9.0723	15.415268	-0.000553	-5.528075	-0.936481	0.000055
1100	1.0935e+02	9.0631	15.474740	-0.000598	-5.978511	-1.012787	0.000060
1101	1.0945e+02	9.0497	15.534212	-0.000598	-5.978511	-1.012787	0.000060
1102	1.0955e+02	9.0368	15.588388	-0.000545	-5.446178	-0.922607	0.000054
1103	1.0965e+02	9.0277	15.649490	-0.000614	-6.142306	-1.040535	0.000061
1104	1.0975e+02	9.0190	15.700815	-0.000516	-5.159537	-0.874049	0.000052
1105	1.0985e+02	9.0084	15.754584	-0.000541	-5.405229	-0.915671	0.000054
1106	1.0995e+02	9.0005	15.810390	-0.000561	-5.609973	-0.950355	0.000056
1107	1.1005e+02	8.9896	15.858864	-0.000487	-4.872896	-0.825491	0.000049
1108	1.1015e+02	8.9807	15.912633	-0.000541	-5.405229	-0.915671	0.000054
1109	1.1025e+02	8.9697	15.970476	-0.000581	-5.814716	-0.985040	0.000058
1110	1.1035e+02	8.9586	16.019764	-0.000495	-4.954793	-0.839365	0.000050
1111	1.1044e+02	8.9497	16.071497	-0.000520	-5.200485	-0.880986	0.000052
1112	1.1054e+02	8.9384	16.117119	-0.000459	-4.586255	-0.776933	0.000046
1113	1.1064e+02	8.9273	16.165185	-0.000483	-4.831947	-0.818554	0.000048
1114	1.1074e+02	8.9191	16.213659	-0.000487	-4.872896	-0.825491	0.000049
1115	1.1084e+02	8.9120	16.260911	-0.000475	-4.750050	-0.804680	0.000047
1116	1.1094e+02	8.8986	16.309385	-0.000487	-4.872896	-0.825491	0.000049
1117	1.1104e+02	8.8895	16.356229	-0.000471	-4.709101	-0.797743	0.000047
1118	1.1114e+02	8.8795	16.398185	-0.000422	-4.217717	-0.714501	0.000042
1119	1.1124e+02	8.8705	16.451140	-0.000532	-5.323332	-0.901797	0.000053
1120	1.1134e+02	8.8604	16.491467	-0.000405	-4.053922	-0.686753	0.000041
1121	1.1144e+02	8.8501	16.538719	-0.000475	-4.750050	-0.804680	0.000047
1122	1.1154e+02	8.8384	16.587600	-0.000491	-4.913845	-0.832428	0.000049
1123	1.1164e+02	8.8311	16.626705	-0.000393	-3.931076	-0.665942	0.000039
1124	1.1174e+02	8.8223	16.664995	-0.000385	-3.849178	-0.652068	0.000038
1125	1.1184e+02	8.8123	16.707766	-0.000430	-4.299614	-0.728374	0.000043
1126	1.1194e+02	8.8000	16.744019	-0.000364	-3.644435	-0.617384	0.000036
1127	1.1204e+02	8.7907	16.780680	-0.000369	-3.685383	-0.624321	0.000037
1128	1.1214e+02	8.7800	16.814897	-0.000344	-3.439691	-0.582699	0.000034
1129	1.1224e+02	8.7705	16.849928	-0.000352	-3.521589	-0.596573	0.000035
1130	1.1234e+02	8.7605	16.888219	-0.000385	-3.849178	-0.652068	0.000038
1131	1.1244e+02	8.7521	16.923250	-0.000352	-3.521589	-0.596573	0.000035
1132	1.1253e+02	8.7422	16.951357	-0.000283	-2.825461	-0.478646	0.000028
1133	1.1263e+02	8.7310	16.984351	-0.000332	-3.316845	-0.561889	0.000033
1134	1.1273e+02	8.7256	17.017753	-0.000336	-3.357794	-0.568826	0.000034
1135	1.1283e+02	8.7144	17.051156	-0.000336	-3.357794	-0.568826	0.000034
1136	1.1293e+02	8.7018	17.082928	-0.000319	-3.193999	-0.541078	0.000032
1137	1.1303e+02	8.6922	17.118367	-0.000356	-3.562537	-0.603510	0.000036
1138	1.1313e+02	8.6807	17.148918	-0.000307	-3.071153	-0.520267	0.000031
1139	1.1323e+02	8.6709	17.182320	-0.000336	-3.357794	-0.568826	0.000034
1140	1.1333e+02	8.6617	17.216129	-0.000340	-3.398742	-0.575763	0.000034
1141	1.1343e+02	8.6491	17.247087	-0.000311	-3.112102	-0.527204	0.000031
1142	1.1353e+02	8.6418	17.282119	-0.000352	-3.521589	-0.596573	0.000035
1143	1.1363e+02	8.6338	17.317150	-0.000352	-3.521589	-0.596573	0.000035
1144	1.1373e+02	8.6207	17.344035	-0.000270	-2.702615	-0.457835	0.000027
1145	1.1383e+02	8.6120	17.373363	-0.000295	-2.948307	-0.499457	0.000029
1146	1.1393e+02	8.5996	17.395767	-0.000225	-2.252179	-0.381529	0.000023
1147	1.1403e+02	8.5935	17.425911	-0.000303	-3.030204	-0.513330	0.000030
1148	1.1413e+02	8.5806	17.452388	-0.000266	-2.661666	-0.450898	0.000027
1149	1.1423e+02	8.5729	17.479680	-0.000274	-2.743563	-0.464772	0.000027
1150	1.1433e+02	8.5626	17.509416	-0.000299	-2.989255	-0.506394	0.000030
1151	1.1442e+02	8.5520	17.534671	-0.000254	-2.538820	-0.430088	0.000025
1152	1.1452e+02	8.5425	17.567259	-0.000328	-3.275896	-0.554952	0.000033
1153	1.1462e+02	8.5318	17.586404	-0.000192	-1.924589	-0.326034	0.000019
1154	1.1472e+02	8.5257	17.605141	-0.000188	-1.883640	-0.319097	0.000019
1155	1.1482e+02	8.5146	17.624287	-0.000192	-1.924589	-0.326034	0.000019
1156	1.1492e+02	8.5012	17.648320	-0.000242	-2.415974	-0.409277	0.000024
1157	1.1502e+02	8.4916	17.669094	-0.000209	-2.088384	-0.353782	0.000021
1158	1.1512e+02	8.4837	17.683351	-0.000143	-1.433205	-0.242791	0.000014
1159	1.1522e+02	8.4721	17.706570	-0.000233	-2.334076	-0.395403	0.000023
1160	1.1532e+02	8.4619	17.730196	-0.000238	-2.375025	-0.402340	0.000024
1161	1.1542e+02	8.4512	17.742009	-0.000119	-1.187512	-0.201170	0.000012
1162	1.1552e+02	8.4439	17.755858	-0.000139	-1.392256	-0.235855	0.000014
1163	1.1562e+02	8.4318	17.773781	-0.000180	-1.801743	-0.305224	0.000018
1164	1.1572e+02	8.4211	17.788038	-0.000143	-1.433205	-0.242791	0.000014
1165	1.1582e+02	8.4156	17.803517	-0.000156	-1.556051	-0.263602	0.000016
1166	1.1592e+02	8.4042	17.819811	-0.000164	-1.637948	-0.277476	0.000016
1167	1.1602e+02	8.3926	17.831624	-0.000119	-1.187512	-0.201170	0.000012
1168	1.1612e+02	8.3860	17.837327	-0.000057	-0.573282	-0.097117	0.000006
1169	1.1622e+02	8.3735	17.853213	-0.000160	-1.596999	-0.270539	0.000016
1170	1.1632e+02	8.3626	17.862175	-0.000090	-0.900872	-0.152612	0.000009
1171	1.1642e+02	8.3558	17.868692	-0.000066	-0.655179	-0.110990	0.000007
1172	1.1651e+02	8.3456	17.879690	-0.000111	-1.105615	-0.187296	0.000011
1173	1.1661e+02	8.3320	17.889874	-0.000102	-1.023718	-0.173422	0.000010
1174	1.1671e+02	8.3247	17.896799	-0.000070	-0.696128	-0.117927	0.000007
1175	1.1681e+02	8.3139	17.906575	-0.000098	-0.982769	-0.166486	0.000010
1176	1.1691e+02	8.3016	17.911870	-0.000053	-0.532333	-0.090180	0.000005
1177	1.1701e+02	8.2922	17.916351	-0.000045	-0.450436	-0.076306	0.000005
1178	1.1711e+02	8.2827	17.922869	-0.000066	-0.655179	-0.110990	0.000007
1179	1.1721e+02	8.2727	17.928164	-0.000053	-0.532333	-0.090180	0.000005
1180	1.1731e+02	8.2633	17.931830	-0.000037	-0.368538	-0.062432	0.000004
1181	1.1741e+02	8.2559	17.935089	-0.000033	-0.327590	-0.055495	0.000003
1182	1.1751e+02	8.2435	17.943643	-0.000086	-0.859923	-0.145675	0.000009
1183	1.1761e+02	8.2336	17.951790	-0.000082	-0.818974	-0.138738	0.000008
1184	1.1771e+02	8.2240	17.950975	0.000008	0.081897	0.013874	-0.000001
1185	1.1781e+02	8.2140	17.963196	-0.000123	-1.228461	-0.208107	0.000012
1186	1.1791e+02	8.2025	17.966047	-0.000029	-0.286641	-0.048558	0.000003
1187	1.1801e+02	8.1951	17.971342	-0.000053	-0.532333	-0.090180	0.000005
1188	1.1811e+02	8.1853	17.975416	-0.000041	-0.409487	-0.069369	0.000004
1189	1.1821e+02	8.1754	17.975823	-0.000004	-0.040949	-0.006937	0.000000
1190	1.1831e+02	8.1634	17.979489	-0.000037	-0.368538	-0.062432	0.000004
1191	1.1841e+02	8.1565	17.979897	-0.000004	-0.040949	-0.006937	0.000000
1192	1.1850e+02	8.1461	17.979897	-0.000000	-0.000000	-0.000000	0.000000
1193	1.1860e+02	8.1374	17.985192	-0.000053	-0.532333	-0.090180	0.000005
1194	1.1870e+02	8.1229	17.985599	-0.000004	-0.040949	-0.006937	0.000000
1195	1.1880e+02	8.1128	17.981526	0.000041	0.409487	0.069369	-0.000004
1196	1.1890e+02	8.1037	17.982341	-0.000008	-0.081897	-0.013874	0.000001
1197	1.1900e+02	8.0936	17.979897	0.000025	0.245692	0.041621	-0.000002
1198	1.1910e+02	8.0850	17.978675	0.000012	0.122846	0.020811	-0.000001
1199	1.1920e+02	8.0762	17.981526	-0.000029	-0.286641	-0.048558	0.000003
1200	1.1930e+02	8.0627	17.981119	0.000004	0.040949	0.006937	-0.000000
1201	1.1940e+02	8.0566	17.980304	0.000008	0.081897	0.013874	-0.000001
1202	1.1950e+02	8.0457	17.982341	-0.000020	-0.204744	-0.034684	0.000002
1203	1.1960e+02	8.0350	17.983155	-0.000008	-0.081897	-0.013874	0.000001
1204	1.1970e+02	8.0267	17.981526	0.000016	0.163795	0.027748	-0.000002
1205	1.1980e+02	8.0167	17.980711	0.000008	0.081897	0.013874	-0.000001
1206	1.1990e+02	8.0047	17.976638	0.000041	0.409487	0.069369	-0.000004
1207	1.2000e+02	7.9949	17.974194	0.000025	0.245692	0.041621	-0.000002
1208	1.2010e+02	7.9835	17.972972	0.000012	0.122846	0.020811	-0.000001
1209	1.2020e+02	7.9748	17.971750	0.000012	0.122846	0.020811	-0.000001
1210	1.2030e+02	7.9668	17.967676	0.000041	0.409487	0.069369	-0.000004
1211	1.2039e+02	7.9575	17.968898	-0.000012	-0.122846	-0.020811	0.000001
1212	1.2049e+02	7.9449	17.968491	0.000004	0.040949	0.006937	-0.000000
1213	1.2059e+02	7.9346	17.964418	0.000041	0.409487	0.069369	-0.000004
1214	1.2069e+02	7.9272	17.959529	0.000049	0.491384	0.083243	-0.000005
1215	1.2079e+02	7.9159	17.957900	0.000016	0.163795	0.027748	-0.000002
1216	1.2089e+02	7.9053	17.953827	0.000041	0.409487	0.069369	-0.000004
1217	1.2099e+02	7.8931	17.950975	0.000029	0.286641	0.048558	-0.000003
1218	1.2109e+02	7.8851	17.946902	0.000041	0.409487	0.069369	-0.000004
1219	1.2119e+02	7.8739	17.945680	0.000012	0.122846	0.020811	-0.000001
1220	1.2129e+02	7.8655	17.937940	0.000078	0.778025	0.131801	-0.000008
1221	1.2139e+02	7.8597	17.932237	0.000057	0.573282	0.097117	-0.000006
1222	1.2149e+02	7.8453	17.924091	0.000082	0.818974	0.138738	-0.000008
1223	1.2159e+02	7.8361	17.917573	0.000066	0.655179	0.110990	-0.000007
1224	1.2169e+02	7.8249	17.913500	0.000041	0.409487	0.069369	-0.000004
1225	1.2179e+02	7.8149	17.903723	0.000098	0.982769	0.166486	-0.000010
1226	1.2189e+02	7.8043	17.898021	0.000057	0.573282	0.097117	-0.000006
1227	1.2199e+02	7.7989	17.893133	0.000049	0.491384	0.083243	-0.000005
1228	1.2209e+02	7.7861	17.887430	0.000057	0.573282	0.097117	-0.000006
1229	1.2219e+02	7.7749	17.882542	0.000049	0.491384	0.083243	-0.000005
1230	1.2229e+02	7.7673	17.878061	0.000045	0.450436	0.076306	-0.000005
1231	1.2239e+02	7.7560	17.869914	0.000082	0.818974	0.138738	-0.000008
1232	1.2248e+02	7.7466	17.858916	0.000111	1.105615	0.187296	-0.000011
1233	1.2258e+02	7.7370	17.853620	0.000053	0.532333	0.090180	-0.000005
1234	1.2268e+02	7.7254	17.839771	0.000139	1.392256	0.235855	-0.000014
1235	1.2278e+02	7.7173	17.832031	0.000078	0.778025	0.131801	-0.000008
1236	1.2288e+02	7.7058	17.821848	0.000102	1.023718	0.173422	-0.000010
1237	1.2298e+02	7.6958	17.814515	0.000074	0.737077	0.124864	-0.000007
1238	1.2308e+02	7.6862	17.805554	0.000090	0.900872	0.152612	-0.000009
1239	1.2318e+02	7.6758	17.790890	0.000147	1.474153	0.249728	-0.000015
1240	1.2328e+02	7.6662	17.786816	0.000041	0.409487	0.069369	-0.000004
1241	1.2338e+02	7.6570	17.778262	0.000086	0.859923	0.145675	-0.000009
1242	1.2348e+02	7.6460	17.771337	0.000070	0.696128	0.117927	-0.000007
1243	1.2358e+02	7.6379	17.759117	0.000123	1.228461	0.208107	-0.000012
1244	1.2368e+02	7.6278	17.754636	0.000045	0.450436	0.076306	-0.000005
1245	1.2378e+02	7.6186	17.751377	0.000033	0.327590	0.055495	-0.000003
1246	1.2388e+02	7.6055	17.741601	0.000098	0.982769	0.166486	-0.000010
1247	1.2398e+02	7.5958	17.734676	0.000070	0.696128	0.117927	-0.000007
1248	1.2408e+02	7.5862	17.723271	0.000115	1.146564	0.194233	-0.000011
1249	1.2418e+02	7.5762	17.718790	0.000045	0.450436	0.076306	-0.000005
1250	1.2428e+02	7.5688	17.711865	0.000070	0.696128	0.117927	-0.000007
1251	1.2438e+02	7.5581	17.701274	0.000106	1.064666	0.180359	-0.000011
1252	1.2447e+02	7.5475	17.695164	0.000061	0.614231	0.104053	-0.000006
1253	1.2457e+02	7.5372	17.686203	0.000090	0.900872	0.152612	-0.000009
1254	1.2467e+02	7.5271	17.675612	0.000106	1.064666	0.180359	-0.000011
1255	1.2477e+02	7.5208	17.673168	0.000025	0.245692	0.041621	-0.000002
1256	1.2487e+02	7.5060	17.660540	0.000127	1.269410	0.215044	-0.000013
1257	1.2497e+02	7.4966	17.656059	0.000045	0.450436	0.076306	-0.000005
1258	1.2507e+02	7.4874	17.646690	0.000094	0.941820	0.159549	-0.000009
1259	1.2517e+02	7.4756	17.638136	0.000086	0.859923	0.145675	-0.000009
1260	1.2527e+02	7.4671	17.630397	0.000078	0.778025	0.131801	-0.000008
1261	1.2537e+02	7.4567	17.620620	0.000098	0.982769	0.166486	-0.000010
1262	1.2547e+02	7.4483	17.605141	0.000156	1.556051	0.263602	-0.000016
1263	1.2557e+02	7.4383	17.599846	0.000053	0.532333	0.090180	-0.000005
1264	1.2567e+02	7.4279	17.591292	0.000086	0.859923	0.145675	-0.000009
1265	1.2577e+02	7.4197	17.579886	0.000115	1.146564	0.194233	-0.000011
1266	1.2587e+02	7.4053	17.568073	0.000119	1.187512	0.201170	-0.000012
1267	1.2597e+02	7.3968	17.552594	0.000156	1.556051	0.263602	-0.000016
1268	1.2607e+02	7.3882	17.544447	0.000082	0.818974	0.138738	-0.000008
1269	1.2617e+02	7.3790	17.533449	0.000111	1.105615	0.187296	-0.000011
1270	1.2627e+02	7.3702	17.522451	0.000111	1.105615	0.187296	-0.000011
1271	1.2636e+02	7.3571	17.507787	0.000147	1.474153	0.249728	-0.000015
1272	1.2646e+02	7.3524	17.501269	0.000066	0.655179	0.110990	-0.000007
1273	1.2656e+02	7.3371	17.489049	0.000123	1.228461	0.208107	-0.000012
1274	1.2666e+02	7.3296	17.476829	0.000123	1.228461	0.208107	-0.000012
1275	1.2676e+02	7.3180	17.467867	0.000090	0.900872	0.152612	-0.000009
1276	1.2686e+02	7.3080	17.454017	0.000139	1.392256	0.235855	-0.000014
1277	1.2696e+02	7.2988	17.442204	0.000119	1.187512	0.201170	-0.000012
1278	1.2706e+02	7.2869	17.430799	0.000115	1.146564	0.194233	-0.000011
1279	1.2716e+02	7.2794	17.423467	0.000074	0.737077	0.124864	-0.000007
1280	1.2726e+02	7.2685	17.407580	0.000160	1.596999	0.270539	-0.000016
1281	1.2736e+02	7.2591	17.395767	0.000119	1.187512	0.201170	-0.000012
1282	1.2746e+02	7.2513	17.385176	0.000106	1.064666	0.180359	-0.000011
1283	1.2756e+02	7.2383	17.373771	0.000115	1.146564	0.194233	-0.000011
1284	1.2766e+02	7.2314	17.361958	0.000119	1.187512	0.201170	-0.000012
1285	1.2776e+02	7.2169	17.349738	0.000123	1.228461	0.208107	-0.000012
1286	1.2786e+02	7.2089	17.335888	0.000139	1.392256	0.235855	-0.000014
1287	1.2796e+02	7.1997	17.323260	0.000127	1.269410	0.215044	-0.000013
1288	1.2806e+02	7.1906	17.309411	0.000139	1.392256	0.235855	-0.000014
1289	1.2816e+02	7.1805	17.299227	0.000102	1.023718	0.173422	-0.000010
1290	1.2826e+02	7.1702	17.287007	0.000123	1.228461	0.208107	-0.000012
1291	1.2835e+02	7.1575	17.271935	0.000152	1.515102	0.256665	-0.000015
1292	1.2845e+02	7.1502	17.258900	0.000131	1.310359	0.221981	-0.000013
1293	1.2855e+02	7.1380	17.245458	0.000135	1.351307	0.228918	-0.000014
1294	1.2865e+02	7.1301	17.234052	0.000115	1.146564	0.194233	-0.000011
1295	1.2875e+02	7.1194	17.217351	0.000168	1.678897	0.284413	-0.000017
1296	1.2885e+02	7.1075	17.204316	0.000131	1.310359	0.221981	-0.000013
1297	1.2895e+02	7.1010	17.190059	0.000143	1.433205	0.242791	-0.000014
1298	1.2905e+02	7.0901	17.174988	0.000152	1.515102	0.256665	-0.000015
1299	1.2915e+02	7.0815	17.156250	0.000188	1.883640	0.319097	-0.000019
1300	1.2925e+02	7.0695	17.140771	0.000156	1.556051	0.263602	-0.000016
1301	1.2935e+02	7.0589	17.128143	0.000127	1.269410	0.215044	-0.000013
1302	1.2945e+02	7.0483	17.114701	0.000135	1.351307	0.228918	-0.000014
1303	1.2955e+02	7.0394	17.102481	0.000123	1.228461	0.208107	-0.000012
1304	1.2965e+02	7.0296	17.088631	0.000139	1.392256	0.235855	-0.000014
1305	1.2975e+02	7.0237	17.077225	0.000115	1.146564	0.194233	-0.000011
1306	1.2985e+02	7.0134	17.062968	0.000143	1.433205	0.242791	-0.000014
1307	1.2995e+02	6.9987	17.052785	0.000102	1.023718	0.173422	-0.000010
1308	1.3005e+02	6.9894	17.035269	0.000176	1.760794	0.298287	-0.000018
1309	1.3015e+02	6.9810	17.021827	0.000135	1.351307	0.228918	-0.000014
1310	1.3025e+02	6.9704	17.007570	0.000143	1.433205	0.242791	-0.000014
1311	1.3034e+02	6.9616	16.996572	0.000111	1.105615	0.187296	-0.000011
1312	1.3044e+02	6.9536	16.979871	0.000168	1.678897	0.284413	-0.000017
1313	1.3054e+02	6.9411	16.968058	0.000119	1.187512	0.201170	-0.000012
1314	1.3064e+02	6.9296	16.954615	0.000135	1.351307	0.228918	-0.000014
1315	1.3074e+02	6.9199	16.939136	0.000156	1.556051	0.263602	-0.000016
1316	1.3084e+02	6.9125	16.926509	0.000127	1.269410	0.215044	-0.000013
1317	1.3094e+02	6.9007	16.914696	0.000119	1.187512	0.201170	-0.000012
1318	1.3104e+02	6.8914	16.901661	0.000131	1.310359	0.221981	-0.000013
1319	1.3114e+02	6.8794	16.889033	0.000127	1.269410	0.215044	-0.000013
1320	1.3124e+02	6.8726	16.877628	0.000115	1.146564	0.194233	-0.000011
1321	1.3134e+02	6.8599	16.862963	0.000147	1.474153	0.249728	-0.000015
1322	1.3144e+02	6.8510	16.850336	0.000127	1.269410	0.215044	-0.000013
1323	1.3154e+02	6.8417	16.836486	0.000139	1.392256	0.235855	-0.000014
1324	1.3164e+02	6.8307	16.818970	0.000176	1.760794	0.298287	-0.000018
1325	1.3174e+02	6.8209	16.797788	0.000213	2.129333	0.360719	-0.000021
1326	1.3184e+02	6.8115	16.783124	0.000147	1.474153	0.249728	-0.000015
1327	1.3194e+02	6.8023	16.768052	0.000152	1.515102	0.256665	-0.000015
1328	1.3204e+02	6.7924	16.752573	0.000156	1.556051	0.263602	-0.000016
1329	1.3214e+02	6.7791	16.735058	0.000176	1.760794	0.298287	-0.000018
1330	1.3224e+02	6.7715	16.716320	0.000188	1.883640	0.319097	-0.000019
1331	1.3234e+02	6.7638	16.700841	0.000156	1.556051	0.263602	-0.000016
1332	1.3243e+02	6.7501	16.685769	0.000152	1.515102	0.256665	-0.000015
1333	1.3253e+02	6.7410	16.664995	0.000209	2.088384	0.353782	-0.000021
1334	1.3263e+02	6.7331	16.645850	0.000192	1.924589	0.326034	-0.000019
1335	1.3273e+02	6.7217	16.629556	0.000164	1.637948	0.277476	-0.000016
1336	1.3283e+02	6.7110	16.609596	0.000201	2.006487	0.339908	-0.000020
1337	1.3293e+02	6.7020	16.593710	0.000160	1.596999	0.270539	-0.000016
1338	1.3303e+02	6.6927	16.579453	0.000143	1.433205	0.242791	-0.000014
1339	1.3313e+02	6.6809	16.557049	0.000225	2.252179	0.381529	-0.000023
1340	1.3323e+02	6.6702	16.540755	0.000164	1.637948	0.277476	-0.000016
1341	1.3333e+02	6.6627	16.522832	0.000180	1.801743	0.305224	-0.000018
1342	1.3343e+02	6.6525	16.504094	0.000188	1.883640	0.319097	-0.000019
1343	1.3353e+02	6.6436	16.485357	0.000188	1.883640	0.319097	-0.000019
1344	1.3363e+02	6.6302	16.465804	0.000197	1.965538	0.332971	-0.000020
1345	1.3373e+02	6.6230	16.449511	0.000164	1.637948	0.277476	-0.000016
1346	1.3383e+02	6.6116	16.433624	0.000160	1.596999	0.270539	-0.000016
1347	1.3393e+02	6.6029	16.418145	0.000156	1.556051	0.263602	-0.000016
1348	1.3403e+02	6.5955	16.401444	0.000168	1.678897	0.284413	-0.000017
1349	1.3413e+02	6.5804	16.383928	0.000176	1.760794	0.298287	-0.000018
1350	1.3423e+02	6.5723	16.364783	0.000192	1.924589	0.326034	-0.000019
1351	1.3432e+02	6.5609	16.350526	0.000143	1.433205	0.242791	-0.000014
1352	1.3442e+02	6.5504	16.333011	0.000176	1.760794	0.298287	-0.000018
1353	1.3452e+02	6.5438	16.313458	0.000197	1.965538	0.332971	-0.000020
1354	1.3462e+02	6.5333	16.300016	0.000135	1.351307	0.228918	-0.000014
1355	1.3472e+02	6.5236	16.282500	0.000176	1.760794	0.298287	-0.000018
1356	1.3482e+02	6.5122	16.264984	0.000176	1.760794	0.298287	-0.000018
1357	1.3492e+02	6.5032	16.247061	0.000180	1.801743	0.305224	-0.000018
1358	1.3502e+02	6.4933	16.229138	0.000180	1.801743	0.305224	-0.000018
1359	1.3512e+02	6.4817	16.209993	0.000192	1.924589	0.326034	-0.000019
1360	1.3522e+02	6.4715	16.194921	0.000152	1.515102	0.256665	-0.000015
1361	1.3532e+02	6.4625	16.175369	0.000197	1.965538	0.332971	-0.000020
1362	1.3542e+02	6.4516	16.163556	0.000119	1.187512	0.201170	-0.000012
1363	1.3552e+02	6.4445	16.143596	0.000201	2.006487	0.339908	-0.000020
1364	1.3562e+02	6.4342	16.125673	0.000180	1.801743	0.305224	-0.000018
1365	1.3572e+02	6.4225	16.109787	0.000160	1.596999	0.270539	-0.000016
1366	1.3582e+02	6.4149	16.093493	0.000164	1.637948	0.277476	-0.000016
1367	1.3592e+02	6.4043	16.076792	0.000168	1.678897	0.284413	-0.000017
1368	1.3602e+02	6.3918	16.056832	0.000201	2.006487	0.339908	-0.000020
1369	1.3612e+02	6.3807	16.039724	0.000172	1.719846	0.291350	-0.000017
1370	1.3622e+02	6.3737	16.024652	0.000152	1.515102	0.256665	-0.000015
1371	1.3631e+02	6.3659	16.006729	0.000180	1.801743	0.305224	-0.000018
1372	1.3641e+02	6.3537	15.990843	0.000160	1.596999	0.270539	-0.000016
1373	1.3651e+02	6.3441	15.971290	0.000197	1.965538	0.332971	-0.000020
1374	1.3661e+02	6.3335	15.953775	0.000176	1.760794	0.298287	-0.000018
1375	1.3671e+02	6.3216	15.941147	0.000127	1.269410	0.215044	-0.000013
1376	1.3681e+02	6.3125	15.919151	0.000221	2.211230	0.374593	-0.000022
1377	1.3691e+02	6.3015	15.899598	0.000197	1.965538	0.332971	-0.000020
1378	1.3701e+02	6.2952	15.886971	0.000127	1.269410	0.215044	-0.000013
1379	1.3711e+02	6.2861	15.870677	0.000164	1.637948	0.277476	-0.000016
1380	1.3721e+02	6.2753	15.853976	0.000168	1.678897	0.284413	-0.000017
1381	1.3731e+02	6.2643	15.838904	0.000152	1.515102	0.256665	-0.000015
1382	1.3741e+02	6.2538	15.820981	0.000180	1.801743	0.305224	-0.000018
1383	1.3751e+02	6.2451	15.802243	0.000188	1.883640	0.319097	-0.000019
1384	1.3761e+02	6.2347	15.781876	0.000205	2.047435	0.346845	-0.000020
1385	1.3771e+02	6.2238	15.771285	0.000106	1.064666	0.180359	-0.000011
1386	1.3781e+02	6.2115	15.752955	0.000184	1.842692	0.312160	-0.000018
1387	1.3791e+02	6.2063	15.730144	0.000229	2.293127	0.388466	-0.000023
1388	1.3801e+02	6.1954	15.712221	0.000180	1.801743	0.305224	-0.000018
1389	1.3811e+02	6.1825	15.695112	0.000172	1.719846	0.291350	-0.000017
1390	1.3821e+02	6.1750	15.678004	0.000172	1.719846	0.291350	-0.000017
1391	1.3831e+02	6.1666	15.656415	0.000217	2.170281	0.367656	-0.000022
1392	1.3840e+02	6.1544	15.639306	0.000172	1.719846	0.291350	-0.000017
1393	1.3850e+02	6.1443	15.624235	0.000152	1.515102	0.256665	-0.000015
1394	1.3860e+02	6.1355	15.604275	0.000201	2.006487	0.339908	-0.000020
1395	1.3870e+02	6.1262	15.584722	0.000197	1.965538	0.332971	-0.000020
1396	1.3880e+02	6.1134	15.568836	0.000160	1.596999	0.270539	-0.000016
1397	1.3890e+02	6.1040	15.548876	0.000201	2.006487	0.339908	-0.000020
1398	1.3900e+02	6.0949	15.529731	0.000192	1.924589	0.326034	-0.000019
1399	1.3910e+02	6.0844	15.509771	0.000201	2.006487	0.339908	-0.000020
1400	1.3920e+02	6.0761	15.491441	0.000184	1.842692	0.312160	-0.000018
1401	1.3930e+02	6.0720	15.475147	0.000164	1.637948	0.277476	-0.000016
1402	1.3940e+02	6.0554	15.451929	0.000233	2.334076	0.395403	-0.000023
1403	1.3950e+02	6.0448	15.437264	0.000147	1.474153	0.249728	-0.000015
1404	1.3960e+02	6.0348	15.417712	0.000197	1.965538	0.332971	-0.000020
1405	1.3970e+02	6.0250	15.397752	0.000201	2.006487	0.339908	-0.000020
1406	1.3980e+02	6.0181	15.381866	0.000160	1.596999	0.270539	-0.000016
1407	1.3990e+02	6.0064	15.364757	0.000172	1.719846	0.291350	-0.000017
1408	1.4000e+02	5.9969	15.347242	0.000176	1.760794	0.298287	-0.000018
1409	1.4010e+02	5.9878	15.332170	0.000152	1.515102	0.256665	-0.000015
1410	1.4020e+02	5.9766	15.313840	0.000184	1.842692	0.312160	-0.000018
1411	1.4029e+02	5.9643	15.296324	0.000176	1.760794	0.298287	-0.000018
1412	1.4039e+02	5.9566	15.282882	0.000135	1.351307	0.228918	-0.000014
1413	1.4049e+02	5.9454	15.265773	0.000172	1.719846	0.291350	-0.000017
1414	1.4059e+02	5.9396	15.252331	0.000135	1.351307	0.228918	-0.000014
1415	1.4069e+02	5.9240	15.235630	0.000168	1.678897	0.284413	-0.000017
1416	1.4079e+02	5.9158	15.220558	0.000152	1.515102	0.256665	-0.000015
1417	1.4089e+02	5.9063	15.204264	0.000164	1.637948	0.277476	-0.000016
1418	1.4099e+02	5.8967	15.185934	0.000184	1.842692	0.312160	-0.000018
1419	1.4109e+02	5.8868	15.174121	0.000119	1.187512	0.201170	-0.000012
1420	1.4119e+02	5.8772	15.157420	0.000168	1.678897	0.284413	-0.000017
1421	1.4129e+02	5.8661	15.138275	0.000192	1.924589	0.326034	-0.000019
1422	1.4139e+02	5.8553	15.125647	0.000127	1.269410	0.215044	-0.000013
1423	1.4149e+02	5.8479	15.109354	0.000164	1.637948	0.277476	-0.000016
1424	1.4159e+02	5.8358	15.093467	0.000160	1.596999	0.270539	-0.000016
1425	1.4169e+02	5.8277	15.079618	0.000139	1.392256	0.235855	-0.000014
1426	1.4179e+02	5.8169	15.063731	0.000160	1.596999	0.270539	-0.000016
1427	1.4189e+02	5.8089	15.045808	0.000180	1.801743	0.305224	-0.000018
1428	1.4199e+02	5.7977	15.032773	0.000131	1.310359	0.221981	-0.000013
1429	1.4209e+02	5.7839	15.013221	0.000197	1.965538	0.332971	-0.000020
1430	1.4219e+02	5.7748	14.998964	0.000143	1.433205	0.242791	-0.000014
1431	1.4228e+02	5.7685	14.979411	0.000197	1.965538	0.332971	-0.000020
1432	1.4238e+02	5.7583	14.962710	0.000168	1.678897	0.284413	-0.000017
1433	1.4248e+02	5.7478	14.948046	0.000147	1.474153	0.249728	-0.000015
1434	1.4258e+02	5.7368	14.930938	0.000172	1.719846	0.291350	-0.000017
1435	1.4268e+02	5.7287	14.911792	0.000192	1.924589	0.326034	-0.000019
1436	1.4278e+02	5.7185	14.895906	0.000160	1.596999	0.270539	-0.000016
1437	1.4288e+02	5.7052	14.876761	0.000192	1.924589	0.326034	-0.000019
1438	1.4298e+02	5.6968	14.862097	0.000147	1.474153	0.249728	-0.000015
1439	1.4308e+02	5.6883	14.844988	0.000172	1.719846	0.291350	-0.000017
1440	1.4318e+02	5.6768	14.826658	0.000184	1.842692	0.312160	-0.000018
1441	1.4328e+02	5.6661	14.813623	0.000131	1.310359	0.221981	-0.000013
1442	1.4338e+02	5.6558	14.790404	0.000233	2.334076	0.395403	-0.000023
1443	1.4348e+02	5.6487	14.778184	0.000123	1.228461	0.208107	-0.000012
1444	1.4358e+02	5.6367	14.762298	0.000160	1.596999	0.270539	-0.000016
1445	1.4368e+02	5.6283	14.744782	0.000176	1.760794	0.298287	-0.000018
1446	1.4378e+02	5.6185	14.725637	0.000192	1.924589	0.326034	-0.000019
1447	1.4388e+02	5.6070	14.710158	0.000156	1.556051	0.263602	-0.000016
1448	1.4398e+02	5.5978	14.688569	0.000217	2.170281	0.367656	-0.000022
1449	1.4408e+02	5.5876	14.670238	0.000184	1.842692	0.312160	-0.000018
1450	1.4418e+02	5.5786	14.653130	0.000172	1.719846	0.291350	-0.000017
1451	1.4428e+02	5.5669	14.636429	0.000168	1.678897	0.284413	-0.000017
1452	1.4437e+02	5.5581	14.616062	0.000205	2.047435	0.346845	-0.000020
1453	1.4447e+02	5.5505	14.601805	0.000143	1.433205	0.242791	-0.000014
1454	1.4457e+02	5.5386	14.583882	0.000180	1.801743	0.305224	-0.000018
1455	1.4467e+02	5.5297	14.566366	0.000176	1.760794	0.298287	-0.000018
1456	1.4477e+02	5.5215	14.549258	0.000172	1.719846	0.291350	-0.000017
1457	1.4487e+02	5.5065	14.530520	0.000188	1.883640	0.319097	-0.000019
1458	1.4497e+02	5.4980	14.515041	0.000156	1.556051	0.263602	-0.000016
1459	1.4507e+02	5.4890	14.498747	0.000164	1.637948	0.277476	-0.000016
1460	1.4517e+02	5.4810	14.480417	0.000184	1.842692	0.312160	-0.000018
1461	1.4527e+02	5.4691	14.466974	0.000135	1.351307	0.228918	-0.000014
1462	1.4537e+02	5.4577	14.444571	0.000225	2.252179	0.381529	-0.000023
1463	1.4547e+02	5.4504	14.425833	0.000188	1.883640	0.319097	-0.000019
1464	1.4557e+02	5.4395	14.405058	0.000209	2.088384	0.353782	-0.000021
1465	1.4567e+02	5.4286	14.387543	0.000176	1.760794	0.298287	-0.000018
1466	1.4577e+02	5.4180	14.370434	0.000172	1.719846	0.291350	-0.000017
1467	1.4587e+02	5.4072	14.351289	0.000192	1.924589	0.326034	-0.000019
1468	1.4597e+02	5.4000	14.334181	0.000172	1.719846	0.291350	-0.000017
1469	1.4607e+02	5.3887	14.316665	0.000176	1.760794	0.298287	-0.000018
1470	1.4617e+02	5.3796	14.295891	0.000209	2.088384	0.353782	-0.000021
1471	1.4626e+02	5.3684	14.281634	0.000143	1.433205	0.242791	-0.000014
1472	1.4636e+02	5.3587	14.260859	0.000209	2.088384	0.353782	-0.000021
1473	1.4646e+02	5.3503	14.247824	0.000131	1.310359	0.221981	-0.000013
1474	1.4656e+02	5.3407	14.235196	0.000127	1.269410	0.215044	-0.000013
1475	1.4666e+02	5.3286	14.216051	0.000192	1.924589	0.326034	-0.000019
1476	1.4676e+02	5.3177	14.196906	0.000192	1.924589	0.326034	-0.000019
1477	1.4686e+02	5.3083	14.184279	0.000127	1.269410	0.215044	-0.000013
1478	1.4696e+02	5.2995	14.167170	0.000172	1.719846	0.291350	-0.000017
1479	1.4706e+02	5.2883	14.144766	0.000225	2.252179	0.381529	-0.000023
1480	1.4716e+02	5.2784	14.128880	0.000160	1.596999	0.270539	-0.000016
1481	1.4726e+02	5.2679	14.114216	0.000147	1.474153	0.249728	-0.000015
1482	1.4736e+02	5.2583	14.097922	0.000164	1.637948	0.277476	-0.000016
1483	1.4746e+02	5.2491	14.077148	0.000209	2.088384	0.353782	-0.000021
1484	1.4756e+02	5.2396	14.060447	0.000168	1.678897	0.284413	-0.000017
1485	1.4766e+02	5.2282	14.043338	0.000172	1.719846	0.291350	-0.000017
1486	1.4776e+02	5.2200	14.029081	0.000143	1.433205	0.242791	-0.000014
1487	1.4786e+02	5.2085	14.011565	0.000176	1.760794	0.298287	-0.000018
1488	1.4796e+02	5.1992	13.997716	0.000139	1.392256	0.235855	-0.000014
1489	1.4806e+02	5.1907	13.980607	0.000172	1.719846	0.291350	-0.000017
1490	1.4816e+02	5.1807	13.963906	0.000168	1.678897	0.284413	-0.000017
1491	1.4825e+02	5.1705	13.946391	0.000176	1.760794	0.298287	-0.000018
1492	1.4835e+02	5.1612	13.923987	0.000225	2.252179	0.381529	-0.000023
1493	1.4845e+02	5.1527	13.904842	0.000192	1.924589	0.326034	-0.000019
1494	1.4855e+02	5.1392	13.885697	0.000192	1.924589	0.326034	-0.000019
1495	1.4865e+02	5.1297	13.864922	0.000209	2.088384	0.353782	-0.000021
1496	1.4875e+02	5.1189	13.844962	0.000201	2.006487	0.339908	-0.000020
1497	1.4885e+02	5.1095	13.825410	0.000197	1.965538	0.332971	-0.000020
1498	1.4895e+02	5.0997	13.807487	0.000180	1.801743	0.305224	-0.000018
1499	1.4905e+02	5.0919	13.787527	0.000201	2.006487	0.339908	-0.000020
1500	1.4915e+02	5.0803	13.768382	0.000192	1.924589	0.326034	-0.000019
1501	1.4925e+02	5.0703	13.745163	0.000233	2.334076	0.395403	-0.000023
1502	1.4935e+02	5.0587	13.723982	0.000213	2.129333	0.360719	-0.000021
1503	1.4945e+02	5.0489	13.706466	0.000176	1.760794	0.298287	-0.000018
1504	1.4955e+02	5.0423	13.682840	0.000238	2.375025	0.402340	-0.000024
1505	1.4965e+02	5.0321	13.666139	0.000168	1.678897	0.284413	-0.000017
1506	1.4975e+02	5.0259	13.644957	0.000213	2.129333	0.360719	-0.000021
1507	1.4985e+02	5.0118	13.624590	0.000205	2.047435	0.346845	-0.000020
1508	1.4995e+02	5.0005	13.607889	0.000168	1.678897	0.284413	-0.000017
1509	1.5005e+02	4.9944	13.584263	0.000238	2.375025	0.402340	-0.000024
1510	1.5015e+02	4.9783	13.560230	0.000242	2.415974	0.409277	-0.000024
1511	1.5025e+02	4.9702	13.543529	0.000168	1.678897	0.284413	-0.000017
1512	1.5034e+02	4.9594	13.522347	0.000213	2.129333	0.360719	-0.000021
1513	1.5044e+02	4.9500	13.501165	0.000213	2.129333	0.360719	-0.000021
1514	1.5054e+02	4.9407	13.486094	0.000152	1.515102	0.256665	-0.000015
1515	1.5064e+02	4.9313	13.466541	0.000197	1.965538	0.332971	-0.000020
1516	1.5074e+02	4.9191	13.446174	0.000205	2.047435	0.346845	-0.000020
1517	1.5084e+02	4.9083	13.424585	0.000217	2.170281	0.367656	-0.000022
1518	1.5094e+02	4.9010	13.405440	0.000192	1.924589	0.326034	-0.000019
1519	1.5104e+02	4.8930	13.386702	0.000188	1.883640	0.319097	-0.000019
1520	1.5114e+02	4.8849	13.365927	0.000209	2.088384	0.353782	-0.000021
1521	1.5124e+02	4.8717	13.349226	0.000168	1.678897	0.284413	-0.000017
1522	1.5134e+02	4.8620	13.326008	0.000233	2.334076	0.395403	-0.000023
1523	1.5144e+02	4.8524	13.310122	0.000160	1.596999	0.270539	-0.000016
1524	1.5154e+02	4.8397	13.292606	0.000176	1.760794	0.298287	-0.000018
1525	1.5164e+02	4.8313	13.270609	0.000221	2.211230	0.374593	-0.000022
1526	1.5174e+02	4.8225	13.257574	0.000131	1.310359	0.221981	-0.000013
1527	1.5184e+02	4.8128	13.235578	0.000221	2.211230	0.374593	-0.000022
1528	1.5194e+02	4.8031	13.214803	0.000209	2.088384	0.353782	-0.000021
1529	1.5204e+02	4.7894	13.197288	0.000176	1.760794	0.298287	-0.000018
1530	1.5214e+02	4.7806	13.175291	0.000221	2.211230	0.374593	-0.000022
1531	1.5224e+02	4.7744	13.155739	0.000197	1.965538	0.332971	-0.000020
1532	1.5233e+02	4.7620	13.134964	0.000209	2.088384	0.353782	-0.000021
1533	1.5243e+02	4.7509	13.117856	0.000172	1.719846	0.291350	-0.000017
1534	1.5253e+02	4.7414	13.097489	0.000205	2.047435	0.346845	-0.000020
1535	1.5263e+02	4.7340	13.078751	0.000188	1.883640	0.319097	-0.000019
1536	1.5273e+02	4.7240	13.063272	0.000156	1.556051	0.263602	-0.000016
1537	1.5283e+02	4.7129	13.043312	0.000201	2.006487	0.339908	-0.000020
1538	1.5293e+02	4.7025	13.024982	0.000184	1.842692	0.312160	-0.000018
1539	1.5303e+02	4.6925	13.002171	0.000229	2.293127	0.388466	-0.000023
1540	1.5313e+02	4.6824	12.984247	0.000180	1.801743	0.305224	-0.000018
1541	1.5323e+02	4.6738	12.965510	0.000188	1.883640	0.319097	-0.000019
1542	1.5333e+02	4.6610	12.946772	0.000188	1.883640	0.319097	-0.000019
1543	1.5343e+02	4.6535	12.929256	0.000176	1.760794	0.298287	-0.000018
1544	1.5353e+02	4.6449	12.908074	0.000213	2.129333	0.360719	-0.000021
1545	1.5363e+02	4.6337	12.889337	0.000188	1.883640	0.319097	-0.000019
1546	1.5373e+02	4.6230	12.871006	0.000184	1.842692	0.312160	-0.000018
1547	1.5383e+02	4.6119	12.851454	0.000197	1.965538	0.332971	-0.000020
1548	1.5393e+02	4.6040	12.830272	0.000213	2.129333	0.360719	-0.000021
1549	1.5403e+02	4.5921	12.814793	0.000156	1.556051	0.263602	-0.000016
1550	1.5413e+02	4.5825	12.794019	0.000209	2.088384	0.353782	-0.000021
1551	1.5422e+02	4.5730	12.776095	0.000180	1.801743	0.305224	-0.000018
1552	1.5432e+02	4.5646	12.757358	0.000188	1.883640	0.319097	-0.000019
1553	1.5442e+02	4.5530	12.740657	0.000168	1.678897	0.284413	-0.000017
1554	1.5452e+02	4.5419	12.717845	0.000229	2.293127	0.388466	-0.000023
1555	1.5462e+02	4.5335	12.699922	0.000180	1.801743	0.305224	-0.000018
1556	1.5472e+02	4.5229	12.680777	0.000192	1.924589	0.326034	-0.000019
1557	1.5482e+02	4.5132	12.657966	0.000229	2.293127	0.388466	-0.000023
1558	1.5492e+02	4.5023	12.641672	0.000164	1.637948	0.277476	-0.000016
1559	1.5502e+02	4.4910	12.615602	0.000262	2.620717	0.443961	-0.000026
1560	1.5512e+02	4.4837	12.599716	0.000160	1.596999	0.270539	-0.000016
1561	1.5522e+02	4.4751	12.577720	0.000221	2.211230	0.374593	-0.000022
1562	1.5532e+02	4.4628	12.557760	0.000201	2.006487	0.339908	-0.000020
1563	1.5542e+02	4.4549	12.535763	0.000221	2.211230	0.374593	-0.000022
1564	1.5552e+02	4.4444	12.519470	0.000164	1.637948	0.277476	-0.000016
1565	1.5562e+02	4.4346	12.499917	0.000197	1.965538	0.332971	-0.000020
1566	1.5572e+02	4.4219	12.477106	0.000229	2.293127	0.388466	-0.000023
1567	1.5582e+02	4.4147	12.458368	0.000188	1.883640	0.319097	-0.000019
1568	1.5592e+02	4.4054	12.438816	0.000197	1.965538	0.332971	-0.000020
1569	1.5602e+02	4.3905	12.418041	0.000209	2.088384	0.353782	-0.000021
1570	1.5612e+02	4.3829	12.396045	0.000221	2.211230	0.374593	-0.000022
1571	1.5622e+02	4.3729	12.376085	0.000201	2.006487	0.339908	-0.000020
1572	1.5631e+02	4.3632	12.354903	0.000213	2.129333	0.360719	-0.000021
1573	1.5641e+02	4.3533	12.334536	0.000205	2.047435	0.346845	-0.000020
1574	1.5651e+02	4.3420	12.317020	0.000176	1.760794	0.298287	-0.000018
1575	1.5661e+02	4.3341	12.297875	0.000192	1.924589	0.326034	-0.000019
1576	1.5671e+02	4.3223	12.281174	0.000168	1.678897	0.284413	-0.000017
1577	1.5681e+02	4.3153	12.258363	0.000229	2.293127	0.388466	-0.000023
1578	1.5691e+02	4.3050	12.241255	0.000172	1.719846	0.291350	-0.000017
1579	1.5701e+02	4.2960	12.224961	0.000164	1.637948	0.277476	-0.000016
1580	1.5711e+02	4.2827	12.204187	0.000209	2.088384	0.353782	-0.000021
1581	1.5721e+02	4.2735	12.188300	0.000160	1.596999	0.270539	-0.000016
1582	1.5731e+02	4.2644	12.174451	0.000139	1.392256	0.235855	-0.000014
1583	1.5741e+02	4.2521	12.156120	0.000184	1.842692	0.312160	-0.000018
1584	1.5751e+02	4.2431	12.138197	0.000180	1.801743	0.305224	-0.000018
1585	1.5761e+02	4.2345	12.119052	0.000192	1.924589	0.326034	-0.000019
1586	1.5771e+02	4.2242	12.103166	0.000160	1.596999	0.270539	-0.000016
1587	1.5781e+02	4.2162	12.083613	0.000197	1.965538	0.332971	-0.000020
1588	1.5791e+02	4.2057	12.070578	0.000131	1.310359	0.221981	-0.000013
1589	1.5801e+02	4.1940	12.049804	0.000209	2.088384	0.353782	-0.000021
1590	1.5811e+02	4.1843	12.032695	0.000172	1.719846	0.291350	-0.000017
1591	1.5821e+02	4.1768	12.017216	0.000156	1.556051	0.263602	-0.000016
1592	1.5830e+02	4.1620	11.996849	0.000205	2.047435	0.346845	-0.000020
1593	1.5840e+02	4.1545	11.983000	0.000139	1.392256	0.235855	-0.000014
1594	1.5850e+02	4.1454	11.965484	0.000176	1.760794	0.298287	-0.000018
1595	1.5860e+02	4.1343	11.946746	0.000188	1.883640	0.319097	-0.000019
1596	1.5870e+02	4.1242	11.929638	0.000172	1.719846	0.291350	-0.000017
1597	1.5880e+02	4.1162	11.912122	0.000176	1.760794	0.298287	-0.000018
1598	1.5890e+02	4.1036	11.894606	0.000176	1.760794	0.298287	-0.000018
1599	1.5900e+02	4.0946	11.875868	0.000188	1.883640	0.319097	-0.000019
1600	1.5910e+02	4.0852	11.855501	0.000205	2.047435	0.346845	-0.000020
1601	1.5920e+02	4.0728	11.841244	0.000143	1.433205	0.242791	-0.000014
1602	1.5930e+02	4.0642	11.822914	0.000184	1.842692	0.312160	-0.000018
1603	1.5940e+02	4.0563	11.800103	0.000229	2.293127	0.388466	-0.000023
1604	1.5950e+02	4.0441	11.781365	0.000188	1.883640	0.319097	-0.000019
1605	1.5960e+02	4.0374	11.757332	0.000242	2.415974	0.409277	-0.000024
1606	1.5970e+02	4.0261	11.743075	0.000143	1.433205	0.242791	-0.000014
1607	1.5980e+02	4.0128	11.724337	0.000188	1.883640	0.319097	-0.000019
1608	1.5990e+02	4.0047	11.709265	0.000152	1.515102	0.256665	-0.000015
1609	1.6000e+02	3.9951	11.691750	0.000176	1.760794	0.298287	-0.000018
1610	1.6010e+02	3.9822	11.671382	0.000205	2.047435	0.346845	-0.000020
1611	1.6019e+02	3.9748	11.655089	0.000164	1.637948	0.277476	-0.000016
1612	1.6029e+02	3.9669	11.633092	0.000221	2.211230	0.374593	-0.000022
1613	1.6039e+02	3.9562	11.614762	0.000184	1.842692	0.312160	-0.000018
1614	1.6049e+02	3.9447	11.596024	0.000188	1.883640	0.319097	-0.000019
1615	1.6059e+02	3.9336	11.574842	0.000213	2.129333	0.360719	-0.000021
1616	1.6069e+02	3.9246	11.558141	0.000168	1.678897	0.284413	-0.000017
1617	1.6079e+02	3.9153	11.537774	0.000205	2.047435	0.346845	-0.000020
1618	1.6089e+02	3.9071	11.522295	0.000156	1.556051	0.263602	-0.000016
1619	1.6099e+02	3.8955	11.498262	0.000242	2.415974	0.409277	-0.000024
1620	1.6109e+02	3.8851	11.480339	0.000180	1.801743	0.305224	-0.000018
1621	1.6119e+02	3.8780	11.463638	0.000168	1.678897	0.284413	-0.000017
1622	1.6129e+02	3.8685	11.444085	0.000197	1.965538	0.332971	-0.000020
1623	1.6139e+02	3.8557	11.426977	0.000172	1.719846	0.291350	-0.000017
1624	1.6149e+02	3.8478	11.406610	0.000205	2.047435	0.346845	-0.000020
1625	1.6159e+02	3.8367	11.386650	0.000201	2.006487	0.339908	-0.000020
1626	1.6169e+02	3.8253	11.365468	0.000213	2.129333	0.360719	-0.000021
1627	1.6179e+02	3.8158	11.347952	0.000176	1.760794	0.298287	-0.000018
1628	1.6189e+02	3.8068	11.328807	0.000192	1.924589	0.326034	-0.000019
1629	1.6199e+02	3.7985	11.308440	0.000205	2.047435	0.346845	-0.000020
1630	1.6209e+02	3.7851	11.292147	0.000164	1.637948	0.277476	-0.000016
1631	1.6219e+02	3.7776	11.271779	0.000205	2.047435	0.346845	-0.000020
1632	1.6228e+02	3.7672	11.251005	0.000209	2.088384	0.353782	-0.000021
1633	1.6238e+02	3.7591	11.231045	0.000201	2.006487	0.339908	-0.000020
1634	1.6248e+02	3.7468	11.210678	0.000205	2.047435	0.346845	-0.000020
1635	1.6258e+02	3.7397	11.191126	0.000197	1.965538	0.332971	-0.000020
1636	1.6268e+02	3.7271	11.170758	0.000205	2.047435	0.346845	-0.000020
1637	1.6278e+02	3.7178	11.154057	0.000168	1.678897	0.284413	-0.000017
1638	1.6288e+02	3.7075	11.137356	0.000168	1.678897	0.284413	-0.000017
1639	1.6298e+02	3.6973	11.112508	0.000250	2.497871	0.423151	-0.000025
1640	1.6308e+02	3.6874	11.097029	0.000156	1.556051	0.263602	-0.000016
1641	1.6318e+02	3.6768	11.079106	0.000180	1.801743	0.305224	-0.000018
1642	1.6328e+02	3.6665	11.061183	0.000180	1.801743	0.305224	-0.000018
1643	1.6338e+02	3.6595	11.044075	0.000172	1.719846	0.291350	-0.000017
1644	1.6348e+02	3.6459	11.026967	0.000172	1.719846	0.291350	-0.000017
1645	1.6358e+02	3.6382	11.004563	0.000225	2.252179	0.381529	-0.000023
1646	1.6368e+02	3.6300	10.987454	0.000172	1.719846	0.291350	-0.000017
1647	1.6378e+02	3.6192	10.967087	0.000205	2.047435	0.346845	-0.000020
1648	1.6388e+02	3.6081	10.947127	0.000201	2.006487	0.339908	-0.000020
1649	1.6398e+02	3.5968	10.932463	0.000147	1.474153	0.249728	-0.000015
1650	1.6408e+02	3.5851	10.911281	0.000213	2.129333	0.360719	-0.000021
1651	1.6418e+02	3.5763	10.892951	0.000184	1.842692	0.312160	-0.000018
1652	1.6427e+02	3.5677	10.874620	0.000184	1.842692	0.312160	-0.000018
1653	1.6437e+02	3.5563	10.859141	0.000156	1.556051	0.263602	-0.000016
1654	1.6447e+02	3.5473	10.840811	0.000184	1.842692	0.312160	-0.000018
1655	1.6457e+02	3.5398	10.822888	0.000180	1.801743	0.305224	-0.000018
1656	1.6467e+02	3.5270	10.804558	0.000184	1.842692	0.312160	-0.000018
1657	1.6477e+02	3.5213	10.787042	0.000176	1.760794	0.298287	-0.000018
1658	1.6487e+02	3.5080	10.765860	0.000213	2.129333	0.360719	-0.000021
1659	1.6497e+02	3.5014	10.748344	0.000176	1.760794	0.298287	-0.000018
1660	1.6507e+02	3.4882	10.727570	0.000209	2.088384	0.353782	-0.000021
1661	1.6517e+02	3.4779	10.705981	0.000217	2.170281	0.367656	-0.000022
1662	1.6527e+02	3.4695	10.683577	0.000225	2.252179	0.381529	-0.000023
1663	1.6537e+02	3.4576	10.660766	0.000229	2.293127	0.388466	-0.000023
1664	1.6547e+02	3.4499	10.642843	0.000180	1.801743	0.305224	-0.000018
1665	1.6557e+02	3.4380	10.619217	0.000238	2.375025	0.402340	-0.000024
1666	1.6567e+02	3.4292	10.598850	0.000205	2.047435	0.346845	-0.000020
1667	1.6577e+02	3.4220	10.575631	0.000233	2.334076	0.395403	-0.000023
1668	1.6587e+02	3.4071	10.555264	0.000205	2.047435	0.346845	-0.000020
1669	1.6597e+02	3.4006	10.532453	0.000229	2.293127	0.388466	-0.000023
1670	1.6607e+02	3.3879	10.510049	0.000225	2.252179	0.381529	-0.000023
1671	1.6616e+02	3.3853	10.486016	0.000242	2.415974	0.409277	-0.000024
1672	1.6626e+02	3.3684	10.467278	0.000188	1.883640	0.319097	-0.000019
1673	1.6636e+02	3.3584	10.445689	0.000217	2.170281	0.367656	-0.000022
1674	1.6646e+02	3.3491	10.425322	0.000205	2.047435	0.346845	-0.000020
1675	1.6656e+02	3.3360	10.398030	0.000274	2.743563	0.464772	-0.000027
1676	1.6666e+02	3.3299	10.379699	0.000184	1.842692	0.312160	-0.000018
1677	1.6676e+02	3.3184	10.357703	0.000221	2.211230	0.374593	-0.000022
1678	1.6686e+02	3.3126	10.336521	0.000213	2.129333	0.360719	-0.000021
1679	1.6696e+02	3.2972	10.312080	0.000246	2.456922	0.416214	-0.000025
1680	1.6706e+02	3.2899	10.290491	0.000217	2.170281	0.367656	-0.000022
1681	1.6716e+02	3.2783	10.270939	0.000197	1.965538	0.332971	-0.000020
1682	1.6726e+02	3.2693	10.250164	0.000209	2.088384	0.353782	-0.000021
1683	1.6736e+02	3.2578	10.228575	0.000217	2.170281	0.367656	-0.000022
1684	1.6746e+02	3.2504	10.209430	0.000192	1.924589	0.326034	-0.000019
1685	1.6756e+02	3.2392	10.186212	0.000233	2.334076	0.395403	-0.000023
1686	1.6766e+02	3.2310	10.163808	0.000225	2.252179	0.381529	-0.000023
1687	1.6776e+02	3.2190	10.145885	0.000180	1.801743	0.305224	-0.000018
1688	1.6786e+02	3.2099	10.125925	0.000201	2.006487	0.339908	-0.000020
1689	1.6796e+02	3.1992	10.103928	0.000221	2.211230	0.374593	-0.000022
1690	1.6806e+02	3.1919	10.084376	0.000197	1.965538	0.332971	-0.000020
1691	1.6816e+02	3.1770	10.063601	0.000209	2.088384	0.353782	-0.000021
1692	1.6825e+02	3.1712	10.040790	0.000229	2.293127	0.388466	-0.000023
1693	1.6835e+02	3.1592	10.020423	0.000205	2.047435	0.346845	-0.000020
1694	1.6845e+02	3.1490	10.001685	0.000188	1.883640	0.319097	-0.000019
1695	1.6855e+02	3.1397	9.980911	0.000209	2.088384	0.353782	-0.000021
1696	1.6865e+02	3.1306	9.958507	0.000225	2.252179	0.381529	-0.000023
1697	1.6875e+02	3.1200	9.936918	0.000217	2.170281	0.367656	-0.000022
1698	1.6885e+02	3.1107	9.915736	0.000213	2.129333	0.360719	-0.000021
1699	1.6895e+02	3.0994	9.895369	0.000205	2.047435	0.346845	-0.000020
1700	1.6905e+02	3.0899	9.874594	0.000209	2.088384	0.353782	-0.000021
1701	1.6915e+02	3.0817	9.855449	0.000192	1.924589	0.326034	-0.000019
1702	1.6925e+02	3.0701	9.836304	0.000192	1.924589	0.326034	-0.000019
1703	1.6935e+02	3.0627	9.813493	0.000229	2.293127	0.388466	-0.000023
1704	1.6945e+02	3.0493	9.793533	0.000201	2.006487	0.339908	-0.000020
1705	1.6955e+02	3.0413	9.774388	0.000192	1.924589	0.326034	-0.000019
1706	1.6965e+02	3.0312	9.751984	0.000225	2.252179	0.381529	-0.000023
1707	1.6975e+02	3.0205	9.729988	0.000221	2.211230	0.374593	-0.000022
1708	1.6985e+02	3.0090	9.712879	0.000172	1.719846	0.291350	-0.000017
1709	1.6995e+02	3.0009	9.691290	0.000217	2.170281	0.367656	-0.000022
1710	1.7005e+02	2.9897	9.669294	0.000221	2.211230	0.374593	-0.000022
1711	1.7015e+02	2.9804	9.646890	0.000225	2.252179	0.381529	-0.000023
1712	1.7024e+02	2.9719	9.628152	0.000188	1.883640	0.319097	-0.000019
1713	1.7034e+02	2.9607	9.608600	0.000197	1.965538	0.332971	-0.000020
1714	1.7044e+02	2.9519	9.589047	0.000197	1.965538	0.332971	-0.000020
1715	1.7054e+02	2.9409	9.569902	0.000192	1.924589	0.326034	-0.000019
1716	1.7064e+02	2.9308	9.549535	0.000205	2.047435	0.346845	-0.000020
1717	1.7074e+02	2.9198	9.530390	0.000192	1.924589	0.326034	-0.000019
1718	1.7084e+02	2.9127	9.506357	0.000242	2.415974	0.409277	-0.000024
1719	1.7094e+02	2.9014	9.487212	0.000192	1.924589	0.326034	-0.000019
1720	1.7104e+02	2.8898	9.466845	0.000205	2.047435	0.346845	-0.000020
1721	1.7114e+02	2.8816	9.446070	0.000209	2.088384	0.353782	-0.000021
1722	1.7124e+02	2.8706	9.425296	0.000209	2.088384	0.353782	-0.000021
1723	1.7134e+02	2.8638	9.401670	0.000238	2.375025	0.402340	-0.000024
1724	1.7144e+02	2.8521	9.382117	0.000197	1.965538	0.332971	-0.000020
1725	1.7154e+02	2.8408	9.358899	0.000233	2.334076	0.395403	-0.000023
1726	1.7164e+02	2.8323	9.338532	0.000205	2.047435	0.346845	-0.000020
1727	1.7174e+02	2.8226	9.315720	0.000229	2.293127	0.388466	-0.000023
1728	1.7184e+02	2.8138	9.294131	0.000217	2.170281	0.367656	-0.000022
1729	1.7194e+02	2.8008	9.270098	0.000242	2.415974	0.409277	-0.000024
1730	1.7204e+02	2.7898	9.251360	0.000188	1.883640	0.319097	-0.000019
1731	1.7213e+02	2.7826	9.229771	0.000217	2.170281	0.367656	-0.000022
1732	1.7223e+02	2.7708	9.206145	0.000238	2.375025	0.402340	-0.000024
1733	1.7233e+02	2.7599	9.185371	0.000209	2.088384	0.353782	-0.000021
1734	1.7243e+02	2.7515	9.164189	0.000213	2.129333	0.360719	-0.000021
1735	1.7253e+02	2.7447	9.139748	0.000246	2.456922	0.416214	-0.000025
1736	1.7263e+02	2.7311	9.117345	0.000225	2.252179	0.381529	-0.000023
1737	1.7273e+02	2.7211	9.094941	0.000225	2.252179	0.381529	-0.000023
1738	1.7283e+02	2.7119	9.074981	0.000201	2.006487	0.339908	-0.000020
1739	1.7293e+02	2.7001	9.051355	0.000238	2.375025	0.402340	-0.000024
1740	1.7303e+02	2.6913	9.028951	0.000225	2.252179	0.381529	-0.000023
1741	1.7313e+02	2.6834	9.010621	0.000184	1.842692	0.312160	-0.000018
1742	1.7323e+02	2.6716	8.989032	0.000217	2.170281	0.367656	-0.000022
1743	1.7333e+02	2.6617	8.966221	0.000229	2.293127	0.388466	-0.000023
1744	1.7343e+02	2.6521	8.950742	0.000156	1.556051	0.263602	-0.000016
1745	1.7353e+02	2.6422	8.929967	0.000209	2.088384	0.353782	-0.000021
1746	1.7363e+02	2.6320	8.909193	0.000209	2.088384	0.353782	-0.000021
1747	1.7373e+02	2.6233	8.893714	0.000156	1.556051	0.263602	-0.000016
1748	1.7383e+02	2.6128	8.871310	0.000225	2.252179	0.381529	-0.000023
1749	1.7393e+02	2.6034	8.854609	0.000168	1.678897	0.284413	-0.000017
1750	1.7403e+02	2.5944	8.833427	0.000213	2.129333	0.360719	-0.000021
1751	1.7413e+02	2.5834	8.818355	0.000152	1.515102	0.256665	-0.000015
1752	1.7422e+02	2.5730	8.797988	0.000205	2.047435	0.346845	-0.000020
1753	1.7432e+02	2.5628	8.777214	0.000209	2.088384	0.353782	-0.000021
1754	1.7442e+02	2.5497	8.758883	0.000184	1.842692	0.312160	-0.000018
1755	1.7452e+02	2.5446	8.741367	0.000176	1.760794	0.298287	-0.000018
1756	1.7462e+02	2.5343	8.719778	0.000217	2.170281	0.367656	-0.000022
1757	1.7472e+02	2.5210	8.703892	0.000160	1.596999	0.270539	-0.000016
1758	1.7482e+02	2.5135	8.683525	0.000205	2.047435	0.346845	-0.000020
1759	1.7492e+02	2.5039	8.666009	0.000176	1.760794	0.298287	-0.000018
1760	1.7502e+02	2.4914	8.646864	0.000192	1.924589	0.326034	-0.000019
1761	1.7512e+02	2.4831	8.627719	0.000192	1.924589	0.326034	-0.000019
1762	1.7522e+02	2.4760	8.609796	0.000180	1.801743	0.305224	-0.000018
1763	1.7532e+02	2.4612	8.591058	0.000188	1.883640	0.319097	-0.000019
1764	1.7542e+02	2.4538	8.569062	0.000221	2.211230	0.374593	-0.000022
1765	1.7552e+02	2.4435	8.555212	0.000139	1.392256	0.235855	-0.000014
1766	1.7562e+02	2.4329	8.533623	0.000217	2.170281	0.367656	-0.000022
1767	1.7572e+02	2.4273	8.512848	0.000209	2.088384	0.353782	-0.000021
1768	1.7582e+02	2.4146	8.492074	0.000209	2.088384	0.353782	-0.000021
1769	1.7592e+02	2.4049	8.471707	0.000205	2.047435	0.346845	-0.000020
1770	1.7602e+02	2.3940	8.450118	0.000217	2.170281	0.367656	-0.000022
1771	1.7612e+02	2.3842	8.430565	0.000197	1.965538	0.332971	-0.000020
1772	1.7621e+02	2.3748	8.411013	0.000197	1.965538	0.332971	-0.000020
1773	1.7631e+02	2.3638	8.388609	0.000225	2.252179	0.381529	-0.000023
1774	1.7641e+02	2.3562	8.369871	0.000188	1.883640	0.319097	-0.000019
1775	1.7651e+02	2.3434	8.347875	0.000221	2.211230	0.374593	-0.000022
1776	1.7661e+02	2.3326	8.327507	0.000205	2.047435	0.346845	-0.000020
1777	1.7671e+02	2.3248	8.310806	0.000168	1.678897	0.284413	-0.000017
1778	1.7681e+02	2.3122	8.287995	0.000229	2.293127	0.388466	-0.000023
1779	1.7691e+02	2.3055	8.268850	0.000192	1.924589	0.326034	-0.000019
1780	1.7701e+02	2.2939	8.246446	0.000225	2.252179	0.381529	-0.000023
1781	1.7711e+02	2.2841	8.229338	0.000172	1.719846	0.291350	-0.000017
1782	1.7721e+02	2.2745	8.211822	0.000176	1.760794	0.298287	-0.000018
1783	1.7731e+02	2.2627	8.188604	0.000233	2.334076	0.395403	-0.000023
1784	1.7741e+02	2.2546	8.165385	0.000233	2.334076	0.395403	-0.000023
1785	1.7751e+02	2.2468	8.149091	0.000164	1.637948	0.277476	-0.000016
1786	1.7761e+02	2.2359	8.127910	0.000213	2.129333	0.360719	-0.000021
1787	1.7771e+02	2.2247	8.105506	0.000225	2.252179	0.381529	-0.000023
1788	1.7781e+02	2.2158	8.083102	0.000225	2.252179	0.381529	-0.000023
1789	1.7791e+02	2.2034	8.063549	0.000197	1.965538	0.332971	-0.000020
1790	1.7801e+02	2.1922	8.041553	0.000221	2.211230	0.374593	-0.000022
1791	1.7810e+02	2.1841	8.020779	0.000209	2.088384	0.353782	-0.000021
1792	1.7820e+02	2.1725	8.002448	0.000184	1.842692	0.312160	-0.000018
1793	1.7830e+02	2.1644	7.979230	0.000233	2.334076	0.395403	-0.000023
1794	1.7840e+02	2.1550	7.960084	0.000192	1.924589	0.326034	-0.000019
1795	1.7850e+02	2.1450	7.938088	0.000221	2.211230	0.374593	-0.000022
1796	1.7860e+02	2.1334	7.919758	0.000184	1.842692	0.312160	-0.000018
1797	1.7870e+02	2.1247	7.897761	0.000221	2.211230	0.374593	-0.000022
1798	1.7880e+02	2.1140	7.876987	0.000209	2.088384	0.353782	-0.000021
1799	1.7890e+02	2.1050	7.860693	0.000164	1.637948	0.277476	-0.000016
1800	1.7900e+02	2.0939	7.833401	0.000274	2.743563	0.464772	-0.000027
1801	1.7910e+02	2.0845	7.810590	0.000229	2.293127	0.388466	-0.000023
1802	1.7920e+02	2.0750	7.789001	0.000217	2.170281	0.367656	-0.000022
1803	1.7930e+02	2.0656	7.767411	0.000217	2.170281	0.367656	-0.000022
1804	1.7940e+02	2.0542	7.745008	0.000225	2.252179	0.381529	-0.000023
1805	1.7950e+02	2.0441	7.727899	0.000172	1.719846	0.291350	-0.000017
1806	1.7960e+02	2.0358	7.709161	0.000188	1.883640	0.319097	-0.000019
1807	1.7970e+02	2.0272	7.687572	0.000217	2.170281	0.367656	-0.000022
1808	1.7980e+02	2.0151	7.669242	0.000184	1.842692	0.312160	-0.000018
1809	1.7990e+02	2.0065	7.650097	0.000192	1.924589	0.326034	-0.000019
1810	1.8000e+02	1.9958	7.632581	0.000176	1.760794	0.298287	-0.000018
1811	1.8009e+02	1.9851	7.608955	0.000238	2.375025	0.402340	-0.000024
1812	1.8019e+02	1.9755	7.591032	0.000180	1.801743	0.305224	-0.000018
1813	1.8029e+02	1.9685	7.570258	0.000209	2.088384	0.353782	-0.000021
1814	1.8039e+02	1.9549	7.549483	0.000209	2.088384	0.353782	-0.000021
1815	1.8049e+02	1.9486	7.529523	0.000201	2.006487	0.339908	-0.000020
1816	1.8059e+02	1.9357	7.504675	0.000250	2.497871	0.423151	-0.000025
1817	1.8069e+02	1.9250	7.487567	0.000172	1.719846	0.291350	-0.000017
1818	1.8079e+02	1.9150	7.467607	0.000201	2.006487	0.339908	-0.000020
1819	1.8089e+02	1.9070	7.448055	0.000197	1.965538	0.332971	-0.000020
1820	1.8099e+02	1.8967	7.430539	0.000176	1.760794	0.298287	-0.000018
1821	1.8109e+02	1.8859	7.409765	0.000209	2.088384	0.353782	-0.000021
1822	1.8119e+02	1.8752	7.391842	0.000180	1.801743	0.305224	-0.000018
1823	1.8129e+02	1.8652	7.375548	0.000164	1.637948	0.277476	-0.000016
1824	1.8139e+02	1.8555	7.351922	0.000238	2.375025	0.402340	-0.000024
1825	1.8149e+02	1.8468	7.327481	0.000246	2.456922	0.416214	-0.000025
1826	1.8159e+02	1.8380	7.308744	0.000188	1.883640	0.319097	-0.000019
1827	1.8169e+02	1.8289	7.288377	0.000205	2.047435	0.346845	-0.000020
1828	1.8179e+02	1.8153	7.265565	0.000229	2.293127	0.388466	-0.000023
1829	1.8189e+02	1.8060	7.245606	0.000201	2.006487	0.339908	-0.000020
1830	1.8199e+02	1.7957	7.219536	0.000262	2.620717	0.443961	-0.000026
1831	1.8209e+02	1.7887	7.194280	0.000254	2.538820	0.430088	-0.000025
1832	1.8218e+02	1.7800	7.174321	0.000201	2.006487	0.339908	-0.000020
1833	1.8228e+02	1.7693	7.150287	0.000242	2.415974	0.409277	-0.000024
1834	1.8238e+02	1.7573	7.126254	0.000242	2.415974	0.409277	-0.000024
1835	1.8248e+02	1.7448	7.101814	0.000246	2.456922	0.416214	-0.000025
1836	1.8258e+02	1.7366	7.080632	0.000213	2.129333	0.360719	-0.000021
1837	1.8268e+02	1.7278	7.055784	0.000250	2.497871	0.423151	-0.000025
1838	1.8278e+02	1.7155	7.035010	0.000209	2.088384	0.353782	-0.000021
1839	1.8288e+02	1.7081	7.010162	0.000250	2.497871	0.423151	-0.000025
1840	1.8298e+02	1.6958	6.985721	0.000246	2.456922	0.416214	-0.000025
1841	1.8308e+02	1.6867	6.964132	0.000217	2.170281	0.367656	-0.000022
1842	1.8318e+02	1.6763	6.939284	0.000250	2.497871	0.423151	-0.000025
1843	1.8328e+02	1.6681	6.913621	0.000258	2.579768	0.437025	-0.000026
1844	1.8338e+02	1.6595	6.896106	0.000176	1.760794	0.298287	-0.000018
1845	1.8348e+02	1.6459	6.869628	0.000266	2.661666	0.450898	-0.000027
1846	1.8358e+02	1.6366	6.843559	0.000262	2.620717	0.443961	-0.000026
1847	1.8368e+02	1.6294	6.821155	0.000225	2.252179	0.381529	-0.000023
1848	1.8378e+02	1.6190	6.797121	0.000242	2.415974	0.409277	-0.000024
1849	1.8388e+02	1.6067	6.774718	0.000225	2.252179	0.381529	-0.000023
1850	1.8398e+02	1.5980	6.755165	0.000197	1.965538	0.332971	-0.000020
1851	1.8407e+02	1.5893	6.730725	0.000246	2.456922	0.416214	-0.000025
1852	1.8417e+02	1.5748	6.706691	0.000242	2.415974	0.409277	-0.000024
1853	1.8427e+02	1.5665	6.684288	0.000225	2.252179	0.381529	-0.000023
1854	1.8437e+02	1.5587	6.666365	0.000180	1.801743	0.305224	-0.000018
1855	1.8447e+02	1.5515	6.641109	0.000254	2.538820	0.430088	-0.000025
1856	1.8457e+02	1.5376	6.612188	0.000291	2.907358	0.492520	-0.000029
1857	1.8467e+02	1.5294	6.597931	0.000143	1.433205	0.242791	-0.000014
1858	1.8477e+02	1.5167	6.574305	0.000238	2.375025	0.402340	-0.000024
1859	1.8487e+02	1.5075	6.553938	0.000205	2.047435	0.346845	-0.000020
1860	1.8497e+02	1.4957	6.531534	0.000225	2.252179	0.381529	-0.000023
1861	1.8507e+02	1.4877	6.509538	0.000221	2.211230	0.374593	-0.000022
1862	1.8517e+02	1.4788	6.483060	0.000266	2.661666	0.450898	-0.000027
1863	1.8527e+02	1.4697	6.461471	0.000217	2.170281	0.367656	-0.000022
1864	1.8537e+02	1.4581	6.442733	0.000188	1.883640	0.319097	-0.000019
1865	1.8547e+02	1.4485	6.419922	0.000229	2.293127	0.388466	-0.000023
1866	1.8557e+02	1.4379	6.395482	0.000246	2.456922	0.416214	-0.000025
1867	1.8567e+02	1.4288	6.375115	0.000205	2.047435	0.346845	-0.000020
1868	1.8577e+02	1.4186	6.351489	0.000238	2.375025	0.402340	-0.000024
1869	1.8587e+02	1.4074	6.328678	0.000229	2.293127	0.388466	-0.000023
1870	1.8597e+02	1.3987	6.307903	0.000209	2.088384	0.353782	-0.000021
1871	1.8606e+02	1.3883	6.281833	0.000262	2.620717	0.443961	-0.000026
1872	1.8616e+02	1.3779	6.263095	0.000188	1.883640	0.319097	-0.000019
1873	1.8626e+02	1.3684	6.240284	0.000229	2.293127	0.388466	-0.000023
1874	1.8636e+02	1.3628	6.216658	0.000238	2.375025	0.402340	-0.000024
1875	1.8646e+02	1.3486	6.193847	0.000229	2.293127	0.388466	-0.000023
1876	1.8656e+02	1.3392	6.171851	0.000221	2.211230	0.374593	-0.000022
1877	1.8666e+02	1.3274	6.150262	0.000217	2.170281	0.367656	-0.000022
1878	1.8676e+02	1.3163	6.129487	0.000209	2.088384	0.353782	-0.000021
1879	1.8686e+02	1.3089	6.103824	0.000258	2.579768	0.437025	-0.000026
1880	1.8696e+02	1.2969	6.082235	0.000217	2.170281	0.367656	-0.000022
1881	1.8706e+02	1.2897	6.064312	0.000180	1.801743	0.305224	-0.000018
1882	1.8716e+02	1.2785	6.041908	0.000225	2.252179	0.381529	-0.000023
1883	1.8726e+02	1.2682	6.018690	0.000233	2.334076	0.395403	-0.000023
1884	1.8736e+02	1.2595	5.997915	0.000209	2.088384	0.353782	-0.000021
1885	1.8746e+02	1.2516	5.978363	0.000197	1.965538	0.332971	-0.000020
1886	1.8756e+02	1.2379	5.953515	0.000250	2.497871	0.423151	-0.000025
1887	1.8766e+02	1.2292	5.932741	0.000209	2.088384	0.353782	-0.000021
1888	1.8776e+02	1.2199	5.909115	0.000238	2.375025	0.402340	-0.000024
1889	1.8786e+02	1.2086	5.885082	0.000242	2.415974	0.409277	-0.000024
1890	1.8796e+02	1.2017	5.863492	0.000217	2.170281	0.367656	-0.000022
1891	1.8806e+02	1.1902	5.839866	0.000238	2.375025	0.402340	-0.000024
1892	1.8815e+02	1.1791	5.815426	0.000246	2.456922	0.416214	-0.000025
1893	1.8825e+02	1.1730	5.792615	0.000229	2.293127	0.388466	-0.000023
1894	1.8835e+02	1.1597	5.772248	0.000205	2.047435	0.346845	-0.000020
1895	1.8845e+02	1.1509	5.748214	0.000242	2.415974	0.409277	-0.000024
1896	1.8855e+02	1.1407	5.723774	0.000246	2.456922	0.416214	-0.000025
1897	1.8865e+02	1.1305	5.700148	0.000238	2.375025	0.402340	-0.000024
1898	1.8875e+02	1.1201	5.677744	0.000225	2.252179	0.381529	-0.000023
1899	1.8885e+02	1.1095	5.651674	0.000262	2.620717	0.443961	-0.000026
1900	1.8895e+02	1.1006	5.626419	0.000254	2.538820	0.430088	-0.000025
1901	1.8905e+02	1.0937	5.609311	0.000172	1.719846	0.291350	-0.000017
1902	1.8915e+02	1.0807	5.583648	0.000258	2.579768	0.437025	-0.000026
1903	1.8925e+02	1.0701	5.558393	0.000254	2.538820	0.430088	-0.000025
1904	1.8935e+02	1.0616	5.530286	0.000283	2.825461	0.478646	-0.000028
1905	1.8945e+02	1.0490	5.511548	0.000188	1.883640	0.319097	-0.000019
1906	1.8955e+02	1.0400	5.486700	0.000250	2.497871	0.423151	-0.000025
1907	1.8965e+02	1.0326	5.463482	0.000233	2.334076	0.395403	-0.000023
1908	1.8975e+02	1.0217	5.442300	0.000213	2.129333	0.360719	-0.000021
1909	1.8985e+02	1.0105	5.419489	0.000229	2.293127	0.388466	-0.000023
1910	1.8995e+02	1.0005	5.395863	0.000238	2.375025	0.402340	-0.000024
1911	1.9004e+02	0.9928	5.374681	0.000213	2.129333	0.360719	-0.000021
1912	1.9014e+02	0.9820	5.353907	0.000209	2.088384	0.353782	-0.000021
1913	1.9024e+02	0.9687	5.333540	0.000205	2.047435	0.346845	-0.000020
1914	1.9034e+02	0.9604	5.310729	0.000229	2.293127	0.388466	-0.000023
1915	1.9044e+02	0.9510	5.290769	0.000201	2.006487	0.339908	-0.000020
1916	1.9054e+02	0.9425	5.272031	0.000188	1.883640	0.319097	-0.000019
1917	1.9064e+02	0.9306	5.248405	0.000238	2.375025	0.402340	-0.000024
1918	1.9074e+02	0.9202	5.226409	0.000221	2.211230	0.374593	-0.000022
1919	1.9084e+02	0.9116	5.209300	0.000172	1.719846	0.291350	-0.000017
1920	1.9094e+02	0.8990	5.191784	0.000176	1.760794	0.298287	-0.000018
1921	1.9104e+02	0.8921	5.170603	0.000213	2.129333	0.360719	-0.000021
1922	1.9114e+02	0.8804	5.146977	0.000238	2.375025	0.402340	-0.000024
1923	1.9124e+02	0.8740	5.126610	0.000205	2.047435	0.346845	-0.000020
1924	1.9134e+02	0.8636	5.107872	0.000188	1.883640	0.319097	-0.000019
1925	1.9144e+02	0.8514	5.086283	0.000217	2.170281	0.367656	-0.000022
1926	1.9154e+02	0.8425	5.065101	0.000213	2.129333	0.360719	-0.000021
1927	1.9164e+02	0.8305	5.043919	0.000213	2.129333	0.360719	-0.000021
1928	1.9174e+02	0.8202	5.024774	0.000192	1.924589	0.326034	-0.000019
1929	1.9184e+02	0.8111	5.005222	0.000197	1.965538	0.332971	-0.000020
1930	1.9194e+02	0.8028	4.985262	0.000201	2.006487	0.339908	-0.000020
1931	1.9203e+02	0.7932	4.961636	0.000238	2.375025	0.402340	-0.000024
1932	1.9213e+02	0.7815	4.940047	0.000217	2.170281	0.367656	-0.000022
1933	1.9223e+02	0.7698	4.919680	0.000205	2.047435	0.346845	-0.000020
1934	1.9233e+02	0.7617	4.898498	0.000213	2.129333	0.360719	-0.000021
1935	1.9243e+02	0.7518	4.876094	0.000225	2.252179	0.381529	-0.000023
1936	1.9253e+02	0.7420	4.856134	0.000201	2.006487	0.339908	-0.000020
1937	1.9263e+02	0.7329	4.832916	0.000233	2.334076	0.395403	-0.000023
1938	1.9273e+02	0.7190	4.811327	0.000217	2.170281	0.367656	-0.000022
1939	1.9283e+02	0.7114	4.788108	0.000233	2.334076	0.395403	-0.000023
1940	1.9293e+02	0.7029	4.766519	0.000217	2.170281	0.367656	-0.000022
1941	1.9303e+02	0.6913	4.744522	0.000221	2.211230	0.374593	-0.000022
1942	1.9313e+02	0.6831	4.721711	0.000229	2.293127	0.388466	-0.000023
1943	1.9323e+02	0.6716	4.700937	0.000209	2.088384	0.353782	-0.000021
1944	1.9333e+02	0.6623	4.680162	0.000209	2.088384	0.353782	-0.000021
1945	1.9343e+02	0.6509	4.654500	0.000258	2.579768	0.437025	-0.000026
1946	1.9353e+02	0.6419	4.634133	0.000205	2.047435	0.346845	-0.000020
1947	1.9363e+02	0.6342	4.612951	0.000213	2.129333	0.360719	-0.000021
1948	1.9373e+02	0.6212	4.589732	0.000233	2.334076	0.395403	-0.000023
1949	1.9383e+02	0.6133	4.567328	0.000225	2.252179	0.381529	-0.000023
1950	1.9393e+02	0.6021	4.548183	0.000192	1.924589	0.326034	-0.000019
1951	1.9403e+02	0.5945	4.525779	0.000225	2.252179	0.381529	-0.000023
1952	1.9412e+02	0.5817	4.502154	0.000238	2.375025	0.402340	-0.000024
1953	1.9422e+02	0.5738	4.484230	0.000180	1.801743	0.305224	-0.000018
1954	1.9432e+02	0.5622	4.460605	0.000238	2.375025	0.402340	-0.000024
1955	1.9442e+02	0.5541	4.434535	0.000262	2.620717	0.443961	-0.000026
1956	1.9452e+02	0.5434	4.414168	0.000205	2.047435	0.346845	-0.000020
1957	1.9462e+02	0.5302	4.390134	0.000242	2.415974	0.409277	-0.000024
1958	1.9472e+02	0.5225	4.370582	0.000197	1.965538	0.332971	-0.000020
1959	1.9482e+02	0.5135	4.348178	0.000225	2.252179	0.381529	-0.000023
1960	1.9492e+02	0.5011	4.327811	0.000205	2.047435	0.346845	-0.000020
1961	1.9502e+02	0.4920	4.304592	0.000233	2.334076	0.395403	-0.000023
1962	1.9512e+02	0.4828	4.280152	0.000246	2.456922	0.416214	-0.000025
1963	1.9522e+02	0.4729	4.259785	0.000205	2.047435	0.346845	-0.000020
1964	1.9532e+02	0.4669	4.233307	0.000266	2.661666	0.450898	-0.000027
1965	1.9542e+02	0.4548	4.211311	0.000221	2.211230	0.374593	-0.000022
1966	1.9552e+02	0.4422	4.189722	0.000217	2.170281	0.367656	-0.000022
1967	1.9562e+02	0.4320	4.162023	0.000278	2.784512	0.471709	-0.000028
1968	1.9572e+02	0.4234	4.140841	0.000213	2.129333	0.360719	-0.000021
1969	1.9582e+02	0.4105	4.118844	0.000221	2.211230	0.374593	-0.000022
1970	1.9592e+02	0.4070	4.095218	0.000238	2.375025	0.402340	-0.000024
1971	1.9601e+02	0.3942	4.072000	0.000233	2.334076	0.395403	-0.000023
1972	1.9611e+02	0.3835	4.052447	0.000197	1.965538	0.332971	-0.000020
1973	1.9621e+02	0.3750	4.028414	0.000242	2.415974	0.409277	-0.000024
1974	1.9631e+02	0.3632	4.005603	0.000229	2.293127	0.388466	-0.000023
1975	1.9641e+02	0.3525	3.985643	0.000201	2.006487	0.339908	-0.000020
1976	1.9651e+02	0.3425	3.962832	0.000229	2.293127	0.388466	-0.000023
1977	1.9661e+02	0.3320	3.944094	0.000188	1.883640	0.319097	-0.000019
1978	1.9671e+02	0.3254	3.920468	0.000238	2.375025	0.402340	-0.000024
1979	1.9681e+02	0.3139	3.899287	0.000213	2.129333	0.360719	-0.000021
1980	1.9691e+02	0.3051	3.879327	0.000201	2.006487	0.339908	-0.000020
1981	1.9701e+02	0.2925	3.859367	0.000201	2.006487	0.339908	-0.000020
1982	1.9711e+02	0.2813	3.833704	0.000258	2.579768	0.437025	-0.000026
1983	1.9721e+02	0.2755	3.810893	0.000229	2.293127	0.388466	-0.000023
1984	1.9731e+02	0.2625	3.790526	0.000205	2.047435	0.346845	-0.000020
1985	1.9741e+02	0.2543	3.768530	0.000221	2.211230	0.374593	-0.000022
1986	1.9751e+02	0.2457	3.744089	0.000246	2.456922	0.416214	-0.000025
1987	1.9761e+02	0.2354	3.727795	0.000164	1.637948	0.277476	-0.000016
1988	1.9771e+02	0.2242	3.702947	0.000250	2.497871	0.423151	-0.000025
1989	1.9781e+02	0.2155	3.685024	0.000180	1.801743	0.305224	-0.000018
1990	1.9791e+02	0.2033	3.661806	0.000233	2.334076	0.395403	-0.000023
1991	1.9800e+02	0.1945	3.642253	0.000197	1.965538	0.332971	-0.000020
1992	1.9810e+02	0.1875	3.619035	0.000233	2.334076	0.395403	-0.000023
1993	1.9820e+02	0.1750	3.597038	0.000221	2.211230	0.374593	-0.000022
1994	1.9830e+02	0.1659	3.574635	0.000225	2.252179	0.381529	-0.000023
1995	1.9840e+02	0.1531	3.549787	0.000250	2.497871	0.423151	-0.000025
1996	1.9850e+02	0.1463	3.523309	0.000266	2.661666	0.450898	-0.000027
1997	1.9860e+02	0.1352	3.499684	0.000238	2.375025	0.402340	-0.000024
1998	1.9870e+02	0.1259	3.476872	0.000229	2.293127	0.388466	-0.000023
1999	1.9880e+02	0.1157	3.447544	0.000295	2.948307	0.499457	-0.000029
2000	1.9890e+02	0.1060	3.425547	0.000221	2.211230	0.374593	-0.000022
2001	1.9900e+02	0.0953	3.397441	0.000283	2.825461	0.478646	-0.000028
2002	1.9910e+02	0.0824	3.375444	0.000221	2.211230	0.374593	-0.000022
2003	1.9920e+02	0.0761	3.349781	0.000258	2.579768	0.437025	-0.000026
2004	1.9930e+02	0.0654	3.323712	0.000262	2.620717	0.443961	-0.000026
2005	1.9940e+02	0.0556	3.299678	0.000242	2.415974	0.409277	-0.000024
2006	1.9950e+02	0.0449	3.275238	0.000246	2.456922	0.416214	-0.000025
2007	1.9960e+02	0.0372	3.252834	0.000225	2.252179	0.381529	-0.000023
2008	1.9970e+02	0.0239	3.224727	0.000283	2.825461	0.478646	-0.000028
2009	1.9980e+02	0.0141	3.199472	0.000254	2.538820	0.430088	-0.000025
2010	1.9990e+02	0.0045	3.172995	0.000266	2.661666	0.450898	-0.000027
2011	2.0000e+02	-0.0059	3.148962	0.000266	2.661666	0.450898	-0.000024

PMax (uC/cm2):	2.61e+01
Pr (uC/cm2):	2.11e+01
-Pr (uC/cm2):	0.00e+00
PLoss (uC/cm2):	0.00e+00
C (Max-Eff) (nF):	2.61e-01
K (Eff):	4.42e+02
Vert. (+/-Pr) Shift (uC/cm2):	1.06e+01
Offset (uC/cm2):	1.80e+01

A (Loop Area - uC/cm2·Volts):	-1.31e-02



Hysteresis Version: 5.48.1 - Radiant Technologies, Inc., 1999 - 9/12/24

