»»»»»»»»»»»»»»»»»»»»»»»»»»»»»»»»»»»» Hysteresis ««««««««««««««««««««««««««««««««««««
»»»  Executed Version:	5.48.1
»»»  Vision Version:	5.48.4 (R)
»»»  Vision Compiled:	9/18/24
»»»  Driver Version:	5.47.0
»»»  Windows Version:	Windows 8 or 8.1
»»»  Processor Information:	x86 (AMD or Intel) - 32 Processors
»»»  Tester Name:	PMF21124-494 (100V)
»»»  Tester S/N:	PMF21124-494
»»»  Internal Amp Type:	100V RevK 270k
»»»  Internal Amp S/N:	iAB2-596/K     
»»»  Execution Count:	1
»»»»»»»»»»»»»»»»»»»»»»»»»»»»»»»»»»»»»»»»»»««««««««««««««««««««««««««««««««««««««««««

Stored:	6/26/2025 - 15:11:19
Configured:	06/26/25 10:24:47 AM
Executed:	06/26/25 03:10:22 PM

»»»»»»»»»»»»»»»»»»»»»»»»»»»»»»»»»»» Sample Info ««««««««««««««««««««««««««««««««««««
Sample Name:	
Lot Name:	
Wafer Name:	
Die Row/Column:	0/0
Capacitor Number:	0
Sample Area (cm2):	1.00e-04
Sample Thickness (microns):	1.50e-01

Amplifier:	Internal

»»»»»»»»»»»»»»»»»»»»»»»»»»»»»»»»»»» Tester Info «««««««««««««««««««««««««««««««««««
Tester Name:	PMF21124-494 (100V)
Tester Serial Number:	PMF21124-494
Return Signal Amp. Level:	1.9 [Index: 2]

»»»»»»»»»»»»»»»»»»»»»»»»»»»»»»»» Hysteresis Info ««««««««««««««««««««««««««««««««««
Task Name:	Hyst-562
Volts:	10.00
Field:	666.67 (kV/cm)
DCBias:	0.00
DCField:	0.00 (kV/cm)
Hysteresis Period (ms):	2.00e+02
Preset:	Enabled
Preset Delay (ms):	1.00e+03
Profile:	Standard Monopolar

»»»»»»»»»»»»»»»»»»»»»»»»»»»»»»»»»»»»»» Data «««««««««««««««««««««««««««««««««««««««
Points:	2011

Valid Data

Point	Time (ms)	Drive Voltage	Measured Polarization (uC/cm2)	Capacitance (uF)	Normalized Capacitance (uF/cm2)	Dielectric Constant	Instantaneous Current (mA)
   1	0.0000e+00	-0.0037	-10.285807	0.000217	2.170430	0.367681	0.000022
   2	9.9500e-02	0.0079	-10.264218	0.000217	2.170430	0.367681	0.000022
   3	1.9900e-01	0.0155	-10.242221	0.000221	2.211382	0.374618	0.000022
   4	2.9850e-01	0.0243	-10.225927	0.000164	1.638061	0.277495	0.000016
   5	3.9800e-01	0.0371	-10.206375	0.000197	1.965673	0.332994	0.000020
   6	4.9750e-01	0.0443	-10.186008	0.000205	2.047576	0.346869	0.000020
   7	5.9700e-01	0.0552	-10.161975	0.000242	2.416140	0.409305	0.000024
   8	6.9650e-01	0.0667	-10.142015	0.000201	2.006624	0.339931	0.000020
   9	7.9600e-01	0.0775	-10.117167	0.000250	2.498043	0.423180	0.000025
  10	8.9550e-01	0.0848	-10.102095	0.000152	1.515206	0.256683	0.000015
  11	9.9500e-01	0.0933	-10.076840	0.000254	2.538994	0.430117	0.000025
  12	1.0945e+00	0.1049	-10.054029	0.000229	2.293285	0.388493	0.000023
  13	1.1940e+00	0.1142	-10.036106	0.000180	1.801867	0.305244	0.000018
  14	1.2935e+00	0.1247	-10.012887	0.000233	2.334236	0.395430	0.000023
  15	1.3930e+00	0.1348	-9.986410	0.000266	2.661849	0.450929	0.000027
  16	1.4925e+00	0.1463	-9.966450	0.000201	2.006624	0.339931	0.000020
  17	1.5920e+00	0.1535	-9.942417	0.000242	2.416140	0.409305	0.000024
  18	1.6915e+00	0.1662	-9.919198	0.000233	2.334236	0.395430	0.000023
  19	1.7910e+00	0.1723	-9.897609	0.000217	2.170430	0.367681	0.000022
  20	1.8905e+00	0.1838	-9.877242	0.000205	2.047576	0.346869	0.000020
  21	1.9900e+00	0.1941	-9.849950	0.000274	2.743752	0.464804	0.000027
  22	2.0895e+00	0.2054	-9.831212	0.000188	1.883770	0.319119	0.000019
  23	2.1890e+00	0.2158	-9.809216	0.000221	2.211382	0.374618	0.000022
  24	2.2885e+00	0.2234	-9.786812	0.000225	2.252333	0.381556	0.000023
  25	2.3880e+00	0.2346	-9.763186	0.000238	2.375188	0.402368	0.000024
  26	2.4875e+00	0.2445	-9.742412	0.000209	2.088527	0.353806	0.000021
  27	2.5870e+00	0.2525	-9.719193	0.000233	2.334236	0.395430	0.000023
  28	2.6865e+00	0.2645	-9.697197	0.000221	2.211382	0.374618	0.000022
  29	2.7860e+00	0.2756	-9.677237	0.000201	2.006624	0.339931	0.000020
  30	2.8855e+00	0.2829	-9.648316	0.000291	2.907558	0.492554	0.000029
  31	2.9850e+00	0.2930	-9.628356	0.000201	2.006624	0.339931	0.000020
  32	3.0845e+00	0.3030	-9.603915	0.000246	2.457091	0.416242	0.000025
  33	3.1840e+00	0.3139	-9.581919	0.000221	2.211382	0.374618	0.000022
  34	3.2835e+00	0.3235	-9.564403	0.000176	1.760915	0.298307	0.000018
  35	3.3830e+00	0.3342	-9.538741	0.000258	2.579946	0.437055	0.000026
  36	3.4825e+00	0.3423	-9.516337	0.000225	2.252333	0.381556	0.000023
  37	3.5820e+00	0.3534	-9.491489	0.000250	2.498043	0.423180	0.000025
  38	3.6815e+00	0.3619	-9.471122	0.000205	2.047576	0.346869	0.000020
  39	3.7810e+00	0.3721	-9.445459	0.000258	2.579946	0.437055	0.000026
  40	3.8805e+00	0.3824	-9.425092	0.000205	2.047576	0.346869	0.000020
  41	3.9800e+00	0.3938	-9.402688	0.000225	2.252333	0.381556	0.000023
  42	4.0795e+00	0.4041	-9.380692	0.000221	2.211382	0.374618	0.000022
  43	4.1790e+00	0.4139	-9.356658	0.000242	2.416140	0.409305	0.000024
  44	4.2785e+00	0.4238	-9.335884	0.000209	2.088527	0.353806	0.000021
  45	4.3780e+00	0.4332	-9.310629	0.000254	2.538994	0.430117	0.000025
  46	4.4775e+00	0.4429	-9.285373	0.000254	2.538994	0.430117	0.000025
  47	4.5770e+00	0.4538	-9.264599	0.000209	2.088527	0.353806	0.000021
  48	4.6765e+00	0.4613	-9.241380	0.000233	2.334236	0.395430	0.000023
  49	4.7760e+00	0.4747	-9.216533	0.000250	2.498043	0.423180	0.000025
  50	4.8755e+00	0.4818	-9.194943	0.000217	2.170430	0.367681	0.000022
  51	4.9750e+00	0.4930	-9.172540	0.000225	2.252333	0.381556	0.000023
  52	5.0745e+00	0.5020	-9.147692	0.000250	2.498043	0.423180	0.000025
  53	5.1740e+00	0.5140	-9.129769	0.000180	1.801867	0.305244	0.000018
  54	5.2735e+00	0.5241	-9.104106	0.000258	2.579946	0.437055	0.000026
  55	5.3730e+00	0.5338	-9.085776	0.000184	1.842818	0.312182	0.000018
  56	5.4725e+00	0.5431	-9.062557	0.000233	2.334236	0.395430	0.000023
  57	5.5720e+00	0.5536	-9.037709	0.000250	2.498043	0.423180	0.000025
  58	5.6715e+00	0.5647	-9.016120	0.000217	2.170430	0.367681	0.000022
  59	5.7710e+00	0.5714	-8.998604	0.000176	1.760915	0.298307	0.000018
  60	5.8705e+00	0.5811	-8.974978	0.000238	2.375188	0.402368	0.000024
  61	5.9700e+00	0.5941	-8.950131	0.000250	2.498043	0.423180	0.000025
  62	6.0695e+00	0.6024	-8.932207	0.000180	1.801867	0.305244	0.000018
  63	6.1690e+00	0.6118	-8.908174	0.000242	2.416140	0.409305	0.000024
  64	6.2685e+00	0.6198	-8.886992	0.000213	2.129479	0.360743	0.000021
  65	6.3680e+00	0.6335	-8.866625	0.000205	2.047576	0.346869	0.000020
  66	6.4675e+00	0.6430	-8.846258	0.000205	2.047576	0.346869	0.000020
  67	6.5670e+00	0.6525	-8.823447	0.000229	2.293285	0.388493	0.000023
  68	6.6665e+00	0.6644	-8.799821	0.000238	2.375188	0.402368	0.000024
  69	6.7660e+00	0.6731	-8.780269	0.000197	1.965673	0.332994	0.000020
  70	6.8655e+00	0.6840	-8.758680	0.000217	2.170430	0.367681	0.000022
  71	6.9650e+00	0.6948	-8.737498	0.000213	2.129479	0.360743	0.000021
  72	7.0645e+00	0.7033	-8.716316	0.000213	2.129479	0.360743	0.000021
  73	7.1640e+00	0.7108	-8.690246	0.000262	2.620897	0.443992	0.000026
  74	7.2635e+00	0.7205	-8.669472	0.000209	2.088527	0.353806	0.000021
  75	7.3630e+00	0.7311	-8.644624	0.000250	2.498043	0.423180	0.000025
  76	7.4625e+00	0.7422	-8.618146	0.000266	2.661849	0.450929	0.000027
  77	7.5620e+00	0.7522	-8.594113	0.000242	2.416140	0.409305	0.000024
  78	7.6615e+00	0.7619	-8.570080	0.000242	2.416140	0.409305	0.000024
  79	7.7610e+00	0.7719	-8.547676	0.000225	2.252333	0.381556	0.000023
  80	7.8605e+00	0.7811	-8.519162	0.000287	2.866606	0.485616	0.000029
  81	7.9600e+00	0.7933	-8.491870	0.000274	2.743752	0.464804	0.000027
  82	8.0595e+00	0.8015	-8.468652	0.000233	2.334236	0.395430	0.000023
  83	8.1590e+00	0.8104	-8.442582	0.000262	2.620897	0.443992	0.000026
  84	8.2585e+00	0.8228	-8.423844	0.000188	1.883770	0.319119	0.000019
  85	8.3580e+00	0.8318	-8.399403	0.000246	2.457091	0.416242	0.000025
  86	8.4575e+00	0.8421	-8.371297	0.000283	2.825655	0.478679	0.000028
  87	8.5570e+00	0.8508	-8.346449	0.000250	2.498043	0.423180	0.000025
  88	8.6565e+00	0.8609	-8.322008	0.000246	2.457091	0.416242	0.000025
  89	8.7560e+00	0.8688	-8.297160	0.000250	2.498043	0.423180	0.000025
  90	8.8555e+00	0.8840	-8.273127	0.000242	2.416140	0.409305	0.000024
  91	8.9550e+00	0.8925	-8.247872	0.000254	2.538994	0.430117	0.000025
  92	9.0545e+00	0.9010	-8.225468	0.000225	2.252333	0.381556	0.000023
  93	9.1540e+00	0.9113	-8.199806	0.000258	2.579946	0.437055	0.000026
  94	9.2535e+00	0.9193	-8.174958	0.000250	2.498043	0.423180	0.000025
  95	9.3530e+00	0.9313	-8.149702	0.000254	2.538994	0.430117	0.000025
  96	9.4525e+00	0.9441	-8.127706	0.000221	2.211382	0.374618	0.000022
  97	9.5520e+00	0.9512	-8.102043	0.000258	2.579946	0.437055	0.000026
  98	9.6515e+00	0.9589	-8.081676	0.000205	2.047576	0.346869	0.000020
  99	9.7510e+00	0.9692	-8.056014	0.000258	2.579946	0.437055	0.000026
 100	9.8505e+00	0.9770	-8.031980	0.000242	2.416140	0.409305	0.000024
 101	9.9500e+00	0.9915	-8.010799	0.000213	2.129479	0.360743	0.000021
 102	1.0050e+01	1.0010	-7.984321	0.000266	2.661849	0.450929	0.000027
 103	1.0149e+01	1.0128	-7.965176	0.000192	1.924721	0.326057	0.000019
 104	1.0248e+01	1.0185	-7.941958	0.000233	2.334236	0.395430	0.000023
 105	1.0348e+01	1.0327	-7.918332	0.000238	2.375188	0.402368	0.000024
 106	1.0447e+01	1.0400	-7.893484	0.000250	2.498043	0.423180	0.000025
 107	1.0547e+01	1.0504	-7.871895	0.000217	2.170430	0.367681	0.000022
 108	1.0646e+01	1.0625	-7.846640	0.000254	2.538994	0.430117	0.000025
 109	1.0746e+01	1.0702	-7.823421	0.000233	2.334236	0.395430	0.000023
 110	1.0845e+01	1.0799	-7.798573	0.000250	2.498043	0.423180	0.000025
 111	1.0945e+01	1.0899	-7.776169	0.000225	2.252333	0.381556	0.000023
 112	1.1044e+01	1.1003	-7.751321	0.000250	2.498043	0.423180	0.000025
 113	1.1144e+01	1.1124	-7.726881	0.000246	2.457091	0.416242	0.000025
 114	1.1243e+01	1.1215	-7.700811	0.000262	2.620897	0.443992	0.000026
 115	1.1343e+01	1.1359	-7.681258	0.000197	1.965673	0.332994	0.000020
 116	1.1443e+01	1.1401	-7.658447	0.000229	2.293285	0.388493	0.000023
 117	1.1542e+01	1.1497	-7.637265	0.000213	2.129479	0.360743	0.000021
 118	1.1642e+01	1.1617	-7.612418	0.000250	2.498043	0.423180	0.000025
 119	1.1741e+01	1.1695	-7.589606	0.000229	2.293285	0.388493	0.000023
 120	1.1841e+01	1.1808	-7.566388	0.000233	2.334236	0.395430	0.000023
 121	1.1940e+01	1.1890	-7.542762	0.000238	2.375188	0.402368	0.000024
 122	1.2040e+01	1.1983	-7.523210	0.000197	1.965673	0.332994	0.000020
 123	1.2139e+01	1.2096	-7.496732	0.000266	2.661849	0.450929	0.000027
 124	1.2239e+01	1.2196	-7.475143	0.000217	2.170430	0.367681	0.000022
 125	1.2338e+01	1.2313	-7.449888	0.000254	2.538994	0.430117	0.000025
 126	1.2438e+01	1.2408	-7.427077	0.000229	2.293285	0.388493	0.000023
 127	1.2537e+01	1.2488	-7.405488	0.000217	2.170430	0.367681	0.000022
 128	1.2636e+01	1.2611	-7.384713	0.000209	2.088527	0.353806	0.000021
 129	1.2736e+01	1.2683	-7.366790	0.000180	1.801867	0.305244	0.000018
 130	1.2835e+01	1.2786	-7.339905	0.000270	2.702800	0.457867	0.000027
 131	1.2935e+01	1.2891	-7.317094	0.000229	2.293285	0.388493	0.000023
 132	1.3034e+01	1.2980	-7.293876	0.000233	2.334236	0.395430	0.000023
 133	1.3134e+01	1.3103	-7.272287	0.000217	2.170430	0.367681	0.000022
 134	1.3233e+01	1.3168	-7.252327	0.000201	2.006624	0.339931	0.000020
 135	1.3333e+01	1.3302	-7.226664	0.000258	2.579946	0.437055	0.000026
 136	1.3432e+01	1.3393	-7.204668	0.000221	2.211382	0.374618	0.000022
 137	1.3532e+01	1.3487	-7.180227	0.000246	2.457091	0.416242	0.000025
 138	1.3632e+01	1.3577	-7.158231	0.000221	2.211382	0.374618	0.000022
 139	1.3731e+01	1.3699	-7.136234	0.000221	2.211382	0.374618	0.000022
 140	1.3831e+01	1.3785	-7.108128	0.000283	2.825655	0.478679	0.000028
 141	1.3930e+01	1.3855	-7.081650	0.000266	2.661849	0.450929	0.000027
 142	1.4030e+01	1.3992	-7.056802	0.000250	2.498043	0.423180	0.000025
 143	1.4129e+01	1.4082	-7.034399	0.000225	2.252333	0.381556	0.000023
 144	1.4229e+01	1.4189	-7.010365	0.000242	2.416140	0.409305	0.000024
 145	1.4328e+01	1.4296	-6.987554	0.000229	2.293285	0.388493	0.000023
 146	1.4428e+01	1.4403	-6.965965	0.000217	2.170430	0.367681	0.000022
 147	1.4527e+01	1.4518	-6.940302	0.000258	2.579946	0.437055	0.000026
 148	1.4627e+01	1.4608	-6.920750	0.000197	1.965673	0.332994	0.000020
 149	1.4726e+01	1.4681	-6.893051	0.000278	2.784703	0.471741	0.000028
 150	1.4825e+01	1.4786	-6.871054	0.000221	2.211382	0.374618	0.000022
 151	1.4925e+01	1.4859	-6.843762	0.000274	2.743752	0.464804	0.000027
 152	1.5024e+01	1.4965	-6.822173	0.000217	2.170430	0.367681	0.000022
 153	1.5124e+01	1.5075	-6.796918	0.000254	2.538994	0.430117	0.000025
 154	1.5223e+01	1.5182	-6.772477	0.000246	2.457091	0.416242	0.000025
 155	1.5323e+01	1.5273	-6.748444	0.000242	2.416140	0.409305	0.000024
 156	1.5422e+01	1.5376	-6.724411	0.000242	2.416140	0.409305	0.000024
 157	1.5522e+01	1.5456	-6.706080	0.000184	1.842818	0.312182	0.000018
 158	1.5621e+01	1.5577	-6.684491	0.000217	2.170430	0.367681	0.000022
 159	1.5721e+01	1.5693	-6.660865	0.000238	2.375188	0.402368	0.000024
 160	1.5820e+01	1.5791	-6.636832	0.000242	2.416140	0.409305	0.000024
 161	1.5920e+01	1.5865	-6.619316	0.000176	1.760915	0.298307	0.000018
 162	1.6020e+01	1.5968	-6.599357	0.000201	2.006624	0.339931	0.000020
 163	1.6119e+01	1.6084	-6.577768	0.000217	2.170430	0.367681	0.000022
 164	1.6218e+01	1.6159	-6.558215	0.000197	1.965673	0.332994	0.000020
 165	1.6318e+01	1.6304	-6.538255	0.000201	2.006624	0.339931	0.000020
 166	1.6418e+01	1.6393	-6.514222	0.000242	2.416140	0.409305	0.000024
 167	1.6517e+01	1.6451	-6.492633	0.000217	2.170430	0.367681	0.000022
 168	1.6616e+01	1.6554	-6.474710	0.000180	1.801867	0.305244	0.000018
 169	1.6716e+01	1.6658	-6.449862	0.000250	2.498043	0.423180	0.000025
 170	1.6816e+01	1.6763	-6.434790	0.000152	1.515206	0.256683	0.000015
 171	1.6915e+01	1.6863	-6.410350	0.000246	2.457091	0.416242	0.000025
 172	1.7015e+01	1.6945	-6.390797	0.000197	1.965673	0.332994	0.000020
 173	1.7114e+01	1.7081	-6.373282	0.000176	1.760915	0.298307	0.000018
 174	1.7213e+01	1.7167	-6.348434	0.000250	2.498043	0.423180	0.000025
 175	1.7313e+01	1.7275	-6.331733	0.000168	1.679012	0.284432	0.000017
 176	1.7413e+01	1.7397	-6.308921	0.000229	2.293285	0.388493	0.000023
 177	1.7512e+01	1.7462	-6.286925	0.000221	2.211382	0.374618	0.000022
 178	1.7611e+01	1.7562	-6.269002	0.000180	1.801867	0.305244	0.000018
 179	1.7711e+01	1.7654	-6.242525	0.000266	2.661849	0.450929	0.000027
 180	1.7811e+01	1.7772	-6.222157	0.000205	2.047576	0.346869	0.000020
 181	1.7910e+01	1.7875	-6.200976	0.000213	2.129479	0.360743	0.000021
 182	1.8009e+01	1.7956	-6.178572	0.000225	2.252333	0.381556	0.000023
 183	1.8109e+01	1.8093	-6.154946	0.000238	2.375188	0.402368	0.000024
 184	1.8209e+01	1.8156	-6.137838	0.000172	1.719964	0.291370	0.000017
 185	1.8308e+01	1.8248	-6.114619	0.000233	2.334236	0.395430	0.000023
 186	1.8407e+01	1.8360	-6.093030	0.000217	2.170430	0.367681	0.000022
 187	1.8507e+01	1.8456	-6.070219	0.000229	2.293285	0.388493	0.000023
 188	1.8607e+01	1.8538	-6.045778	0.000246	2.457091	0.416242	0.000025
 189	1.8706e+01	1.8671	-6.026633	0.000192	1.924721	0.326057	0.000019
 190	1.8805e+01	1.8761	-6.006266	0.000205	2.047576	0.346869	0.000020
 191	1.8905e+01	1.8875	-5.980603	0.000258	2.579946	0.437055	0.000026
 192	1.9005e+01	1.8972	-5.960644	0.000201	2.006624	0.339931	0.000020
 193	1.9104e+01	1.9086	-5.939462	0.000213	2.129479	0.360743	0.000021
 194	1.9203e+01	1.9143	-5.919502	0.000201	2.006624	0.339931	0.000020
 195	1.9303e+01	1.9257	-5.898727	0.000209	2.088527	0.353806	0.000021
 196	1.9402e+01	1.9382	-5.875102	0.000238	2.375188	0.402368	0.000024
 197	1.9502e+01	1.9448	-5.853512	0.000217	2.170430	0.367681	0.000022
 198	1.9602e+01	1.9573	-5.833960	0.000197	1.965673	0.332994	0.000020
 199	1.9701e+01	1.9665	-5.809519	0.000246	2.457091	0.416242	0.000025
 200	1.9800e+01	1.9778	-5.783857	0.000258	2.579946	0.437055	0.000026
 201	1.9900e+01	1.9864	-5.766749	0.000172	1.719964	0.291370	0.000017
 202	2.0000e+01	1.9962	-5.743937	0.000229	2.293285	0.388493	0.000023
 203	2.0099e+01	2.0081	-5.722348	0.000217	2.170430	0.367681	0.000022
 204	2.0198e+01	2.0171	-5.699130	0.000233	2.334236	0.395430	0.000023
 205	2.0298e+01	2.0261	-5.676726	0.000225	2.252333	0.381556	0.000023
 206	2.0398e+01	2.0351	-5.659210	0.000176	1.760915	0.298307	0.000018
 207	2.0497e+01	2.0416	-5.635992	0.000233	2.334236	0.395430	0.000023
 208	2.0596e+01	2.0558	-5.613588	0.000225	2.252333	0.381556	0.000023
 209	2.0696e+01	2.0637	-5.596887	0.000168	1.679012	0.284432	0.000017
 210	2.0796e+01	2.0745	-5.571224	0.000258	2.579946	0.437055	0.000026
 211	2.0895e+01	2.0844	-5.544339	0.000270	2.702800	0.457867	0.000027
 212	2.0994e+01	2.0963	-5.527231	0.000172	1.719964	0.291370	0.000017
 213	2.1094e+01	2.1084	-5.503198	0.000242	2.416140	0.409305	0.000024
 214	2.1194e+01	2.1134	-5.478757	0.000246	2.457091	0.416242	0.000025
 215	2.1293e+01	2.1239	-5.455946	0.000229	2.293285	0.388493	0.000023
 216	2.1392e+01	2.1352	-5.436394	0.000197	1.965673	0.332994	0.000020
 217	2.1492e+01	2.1465	-5.411953	0.000246	2.457091	0.416242	0.000025
 218	2.1591e+01	2.1563	-5.390364	0.000217	2.170430	0.367681	0.000022
 219	2.1691e+01	2.1644	-5.370812	0.000197	1.965673	0.332994	0.000020
 220	2.1791e+01	2.1743	-5.348408	0.000225	2.252333	0.381556	0.000023
 221	2.1890e+01	2.1835	-5.328448	0.000201	2.006624	0.339931	0.000020
 222	2.1989e+01	2.1948	-5.304415	0.000242	2.416140	0.409305	0.000024
 223	2.2089e+01	2.2066	-5.282826	0.000217	2.170430	0.367681	0.000022
 224	2.2189e+01	2.2145	-5.269383	0.000135	1.351400	0.228933	0.000014
 225	2.2288e+01	2.2257	-5.246979	0.000225	2.252333	0.381556	0.000023
 226	2.2387e+01	2.2365	-5.226612	0.000205	2.047576	0.346869	0.000020
 227	2.2487e+01	2.2425	-5.204208	0.000225	2.252333	0.381556	0.000023
 228	2.2587e+01	2.2541	-5.178546	0.000258	2.579946	0.437055	0.000026
 229	2.2686e+01	2.2651	-5.161845	0.000168	1.679012	0.284432	0.000017
 230	2.2785e+01	2.2730	-5.137812	0.000242	2.416140	0.409305	0.000024
 231	2.2885e+01	2.2854	-5.116222	0.000217	2.170430	0.367681	0.000022
 232	2.2985e+01	2.2924	-5.098299	0.000180	1.801867	0.305244	0.000018
 233	2.3084e+01	2.3034	-5.077932	0.000205	2.047576	0.346869	0.000020
 234	2.3183e+01	2.3156	-5.056750	0.000213	2.129479	0.360743	0.000021
 235	2.3283e+01	2.3242	-5.035161	0.000217	2.170430	0.367681	0.000022
 236	2.3383e+01	2.3353	-5.019682	0.000156	1.556158	0.263620	0.000016
 237	2.3482e+01	2.3418	-4.996056	0.000238	2.375188	0.402368	0.000024
 238	2.3581e+01	2.3525	-4.978133	0.000180	1.801867	0.305244	0.000018
 239	2.3681e+01	2.3618	-4.953285	0.000250	2.498043	0.423180	0.000025
 240	2.3780e+01	2.3746	-4.928845	0.000246	2.457091	0.416242	0.000025
 241	2.3880e+01	2.3842	-4.912144	0.000168	1.679012	0.284432	0.000017
 242	2.3980e+01	2.3926	-4.884852	0.000274	2.743752	0.464804	0.000027
 243	2.4079e+01	2.4027	-4.863263	0.000217	2.170430	0.367681	0.000022
 244	2.4178e+01	2.4134	-4.840859	0.000225	2.252333	0.381556	0.000023
 245	2.4278e+01	2.4233	-4.814789	0.000262	2.620897	0.443992	0.000026
 246	2.4378e+01	2.4339	-4.787904	0.000270	2.702800	0.457867	0.000027
 247	2.4477e+01	2.4440	-4.770796	0.000172	1.719964	0.291370	0.000017
 248	2.4576e+01	2.4516	-4.742689	0.000283	2.825655	0.478679	0.000028
 249	2.4676e+01	2.4654	-4.722730	0.000201	2.006624	0.339931	0.000020
 250	2.4776e+01	2.4721	-4.695438	0.000274	2.743752	0.464804	0.000027
 251	2.4875e+01	2.4811	-4.672219	0.000233	2.334236	0.395430	0.000023
 252	2.4974e+01	2.4933	-4.651037	0.000213	2.129479	0.360743	0.000021
 253	2.5074e+01	2.5037	-4.629855	0.000213	2.129479	0.360743	0.000021
 254	2.5174e+01	2.5144	-4.602156	0.000278	2.784703	0.471741	0.000028
 255	2.5273e+01	2.5198	-4.579752	0.000225	2.252333	0.381556	0.000023
 256	2.5372e+01	2.5343	-4.553682	0.000262	2.620897	0.443992	0.000026
 257	2.5472e+01	2.5426	-4.531279	0.000225	2.252333	0.381556	0.000023
 258	2.5572e+01	2.5507	-4.506838	0.000246	2.457091	0.416242	0.000025
 259	2.5671e+01	2.5616	-4.481990	0.000250	2.498043	0.423180	0.000025
 260	2.5770e+01	2.5714	-4.463660	0.000184	1.842818	0.312182	0.000018
 261	2.5870e+01	2.5839	-4.433924	0.000299	2.989461	0.506428	0.000030
 262	2.5970e+01	2.5909	-4.412335	0.000217	2.170430	0.367681	0.000022
 263	2.6069e+01	2.6028	-4.392782	0.000197	1.965673	0.332994	0.000020
 264	2.6169e+01	2.6149	-4.366712	0.000262	2.620897	0.443992	0.000026
 265	2.6268e+01	2.6226	-4.345123	0.000217	2.170430	0.367681	0.000022
 266	2.6367e+01	2.6323	-4.321090	0.000242	2.416140	0.409305	0.000024
 267	2.6467e+01	2.6430	-4.300315	0.000209	2.088527	0.353806	0.000021
 268	2.6567e+01	2.6525	-4.277911	0.000225	2.252333	0.381556	0.000023
 269	2.6666e+01	2.6627	-4.256730	0.000213	2.129479	0.360743	0.000021
 270	2.6765e+01	2.6747	-4.233511	0.000233	2.334236	0.395430	0.000023
 271	2.6865e+01	2.6823	-4.209071	0.000246	2.457091	0.416242	0.000025
 272	2.6965e+01	2.6917	-4.186259	0.000229	2.293285	0.388493	0.000023
 273	2.7064e+01	2.6987	-4.167929	0.000184	1.842818	0.312182	0.000018
 274	2.7163e+01	2.7112	-4.141859	0.000262	2.620897	0.443992	0.000026
 275	2.7263e+01	2.7217	-4.122714	0.000192	1.924721	0.326057	0.000019
 276	2.7363e+01	2.7311	-4.101125	0.000217	2.170430	0.367681	0.000022
 277	2.7462e+01	2.7412	-4.073833	0.000274	2.743752	0.464804	0.000027
 278	2.7561e+01	2.7508	-4.051836	0.000221	2.211382	0.374618	0.000022
 279	2.7661e+01	2.7663	-4.029433	0.000225	2.252333	0.381556	0.000023
 280	2.7761e+01	2.7728	-4.005807	0.000238	2.375188	0.402368	0.000024
 281	2.7860e+01	2.7831	-3.987884	0.000180	1.801867	0.305244	0.000018
 282	2.7959e+01	2.7925	-3.967924	0.000201	2.006624	0.339931	0.000020
 283	2.8059e+01	2.8002	-3.941039	0.000270	2.702800	0.457867	0.000027
 284	2.8159e+01	2.8114	-3.919857	0.000213	2.129479	0.360743	0.000021
 285	2.8258e+01	2.8229	-3.899898	0.000201	2.006624	0.339931	0.000020
 286	2.8358e+01	2.8297	-3.875864	0.000242	2.416140	0.409305	0.000024
 287	2.8457e+01	2.8406	-3.855497	0.000205	2.047576	0.346869	0.000020
 288	2.8556e+01	2.8497	-3.834315	0.000213	2.129479	0.360743	0.000021
 289	2.8656e+01	2.8613	-3.811912	0.000225	2.252333	0.381556	0.000023
 290	2.8756e+01	2.8730	-3.784212	0.000278	2.784703	0.471741	0.000028
 291	2.8855e+01	2.8787	-3.766289	0.000180	1.801867	0.305244	0.000018
 292	2.8954e+01	2.8911	-3.744293	0.000221	2.211382	0.374618	0.000022
 293	2.9054e+01	2.9014	-3.721482	0.000229	2.293285	0.388493	0.000023
 294	2.9154e+01	2.9106	-3.699078	0.000225	2.252333	0.381556	0.000023
 295	2.9253e+01	2.9194	-3.674637	0.000246	2.457091	0.416242	0.000025
 296	2.9352e+01	2.9338	-3.655899	0.000188	1.883770	0.319119	0.000019
 297	2.9452e+01	2.9430	-3.632274	0.000238	2.375188	0.402368	0.000024
 298	2.9552e+01	2.9531	-3.616387	0.000160	1.597109	0.270558	0.000016
 299	2.9651e+01	2.9624	-3.593576	0.000229	2.293285	0.388493	0.000023
 300	2.9750e+01	2.9714	-3.570357	0.000233	2.334236	0.395430	0.000023
 301	2.9850e+01	2.9805	-3.553249	0.000172	1.719964	0.291370	0.000017
 302	2.9950e+01	2.9910	-3.525550	0.000278	2.784703	0.471741	0.000028
 303	3.0049e+01	3.0010	-3.505183	0.000205	2.047576	0.346869	0.000020
 304	3.0148e+01	3.0087	-3.482779	0.000225	2.252333	0.381556	0.000023
 305	3.0248e+01	3.0184	-3.460782	0.000221	2.211382	0.374618	0.000022
 306	3.0348e+01	3.0338	-3.440008	0.000209	2.088527	0.353806	0.000021
 307	3.0447e+01	3.0427	-3.416789	0.000233	2.334236	0.395430	0.000023
 308	3.0547e+01	3.0508	-3.389497	0.000274	2.743752	0.464804	0.000027
 309	3.0646e+01	3.0602	-3.369130	0.000205	2.047576	0.346869	0.000020
 310	3.0745e+01	3.0713	-3.342653	0.000266	2.661849	0.450929	0.000027
 311	3.0845e+01	3.0783	-3.321879	0.000209	2.088527	0.353806	0.000021
 312	3.0945e+01	3.0888	-3.300697	0.000213	2.129479	0.360743	0.000021
 313	3.1044e+01	3.1008	-3.276256	0.000246	2.457091	0.416242	0.000025
 314	3.1143e+01	3.1092	-3.255482	0.000209	2.088527	0.353806	0.000021
 315	3.1243e+01	3.1206	-3.232670	0.000229	2.293285	0.388493	0.000023
 316	3.1343e+01	3.1293	-3.208230	0.000246	2.457091	0.416242	0.000025
 317	3.1442e+01	3.1420	-3.187048	0.000213	2.129479	0.360743	0.000021
 318	3.1541e+01	3.1499	-3.163830	0.000233	2.334236	0.395430	0.000023
 319	3.1641e+01	3.1636	-3.141833	0.000221	2.211382	0.374618	0.000022
 320	3.1741e+01	3.1690	-3.115356	0.000266	2.661849	0.450929	0.000027
 321	3.1840e+01	3.1802	-3.091323	0.000242	2.416140	0.409305	0.000024
 322	3.1939e+01	3.1893	-3.072178	0.000192	1.924721	0.326057	0.000019
 323	3.2039e+01	3.2032	-3.049366	0.000229	2.293285	0.388493	0.000023
 324	3.2139e+01	3.2110	-3.023704	0.000258	2.579946	0.437055	0.000026
 325	3.2238e+01	3.2191	-3.007817	0.000160	1.597109	0.270558	0.000016
 326	3.2337e+01	3.2286	-2.990302	0.000176	1.760915	0.298307	0.000018
 327	3.2437e+01	3.2387	-2.965046	0.000254	2.538994	0.430117	0.000025
 328	3.2536e+01	3.2491	-2.945901	0.000192	1.924721	0.326057	0.000019
 329	3.2636e+01	3.2599	-2.927164	0.000188	1.883770	0.319119	0.000019
 330	3.2736e+01	3.2681	-2.906389	0.000209	2.088527	0.353806	0.000021
 331	3.2835e+01	3.2815	-2.886022	0.000205	2.047576	0.346869	0.000020
 332	3.2934e+01	3.2888	-2.868099	0.000180	1.801867	0.305244	0.000018
 333	3.3034e+01	3.2984	-2.850176	0.000180	1.801867	0.305244	0.000018
 334	3.3133e+01	3.3111	-2.824921	0.000254	2.538994	0.430117	0.000025
 335	3.3233e+01	3.3212	-2.804961	0.000201	2.006624	0.339931	0.000020
 336	3.3333e+01	3.3279	-2.785001	0.000201	2.006624	0.339931	0.000020
 337	3.3432e+01	3.3407	-2.768300	0.000168	1.679012	0.284432	0.000017
 338	3.3532e+01	3.3485	-2.746303	0.000221	2.211382	0.374618	0.000022
 339	3.3631e+01	3.3586	-2.727973	0.000184	1.842818	0.312182	0.000018
 340	3.3730e+01	3.3674	-2.712494	0.000156	1.556158	0.263620	0.000016
 341	3.3830e+01	3.3764	-2.692534	0.000201	2.006624	0.339931	0.000020
 342	3.3929e+01	3.3900	-2.672574	0.000201	2.006624	0.339931	0.000020
 343	3.4029e+01	3.3971	-2.652615	0.000201	2.006624	0.339931	0.000020
 344	3.4129e+01	3.4072	-2.633062	0.000197	1.965673	0.332994	0.000020
 345	3.4228e+01	3.4177	-2.611880	0.000213	2.129479	0.360743	0.000021
 346	3.4328e+01	3.4274	-2.595179	0.000168	1.679012	0.284432	0.000017
 347	3.4427e+01	3.4393	-2.572368	0.000229	2.293285	0.388493	0.000023
 348	3.4526e+01	3.4463	-2.550372	0.000221	2.211382	0.374618	0.000022
 349	3.4626e+01	3.4607	-2.530005	0.000205	2.047576	0.346869	0.000020
 350	3.4725e+01	3.4704	-2.510045	0.000201	2.006624	0.339931	0.000020
 351	3.4825e+01	3.4792	-2.490900	0.000192	1.924721	0.326057	0.000019
 352	3.4925e+01	3.4879	-2.468089	0.000229	2.293285	0.388493	0.000023
 353	3.5024e+01	3.5000	-2.447314	0.000209	2.088527	0.353806	0.000021
 354	3.5123e+01	3.5067	-2.424910	0.000225	2.252333	0.381556	0.000023
 355	3.5223e+01	3.5207	-2.407394	0.000176	1.760915	0.298307	0.000018
 356	3.5322e+01	3.5275	-2.386213	0.000213	2.129479	0.360743	0.000021
 357	3.5422e+01	3.5372	-2.364624	0.000217	2.170430	0.367681	0.000022
 358	3.5522e+01	3.5480	-2.342220	0.000225	2.252333	0.381556	0.000023
 359	3.5621e+01	3.5587	-2.323075	0.000192	1.924721	0.326057	0.000019
 360	3.5721e+01	3.5695	-2.303522	0.000197	1.965673	0.332994	0.000020
 361	3.5820e+01	3.5765	-2.282748	0.000209	2.088527	0.353806	0.000021
 362	3.5919e+01	3.5860	-2.263195	0.000197	1.965673	0.332994	0.000020
 363	3.6019e+01	3.5979	-2.242013	0.000213	2.129479	0.360743	0.000021
 364	3.6118e+01	3.6089	-2.221646	0.000205	2.047576	0.346869	0.000020
 365	3.6218e+01	3.6167	-2.199650	0.000221	2.211382	0.374618	0.000022
 366	3.6318e+01	3.6266	-2.178468	0.000213	2.129479	0.360743	0.000021
 367	3.6417e+01	3.6407	-2.156064	0.000225	2.252333	0.381556	0.000023
 368	3.6517e+01	3.6497	-2.135290	0.000209	2.088527	0.353806	0.000021
 369	3.6616e+01	3.6588	-2.116145	0.000192	1.924721	0.326057	0.000019
 370	3.6715e+01	3.6684	-2.098221	0.000180	1.801867	0.305244	0.000018
 371	3.6815e+01	3.6794	-2.070522	0.000278	2.784703	0.471741	0.000028
 372	3.6914e+01	3.6913	-2.055451	0.000152	1.515206	0.256683	0.000015
 373	3.7014e+01	3.6954	-2.033454	0.000221	2.211382	0.374618	0.000022
 374	3.7114e+01	3.7081	-2.013087	0.000205	2.047576	0.346869	0.000020
 375	3.7213e+01	3.7163	-1.992720	0.000205	2.047576	0.346869	0.000020
 376	3.7313e+01	3.7287	-1.968687	0.000242	2.416140	0.409305	0.000024
 377	3.7412e+01	3.7357	-1.950356	0.000184	1.842818	0.312182	0.000018
 378	3.7511e+01	3.7473	-1.929989	0.000205	2.047576	0.346869	0.000020
 379	3.7611e+01	3.7557	-1.906770	0.000233	2.334236	0.395430	0.000023
 380	3.7711e+01	3.7695	-1.886811	0.000201	2.006624	0.339931	0.000020
 381	3.7810e+01	3.7758	-1.864000	0.000229	2.293285	0.388493	0.000023
 382	3.7910e+01	3.7865	-1.844854	0.000192	1.924721	0.326057	0.000019
 383	3.8009e+01	3.7963	-1.822451	0.000225	2.252333	0.381556	0.000023
 384	3.8108e+01	3.8055	-1.804528	0.000180	1.801867	0.305244	0.000018
 385	3.8208e+01	3.8165	-1.778865	0.000258	2.579946	0.437055	0.000026
 386	3.8307e+01	3.8258	-1.761349	0.000176	1.760915	0.298307	0.000018
 387	3.8407e+01	3.8369	-1.737723	0.000238	2.375188	0.402368	0.000024
 388	3.8507e+01	3.8461	-1.719800	0.000180	1.801867	0.305244	0.000018
 389	3.8606e+01	3.8542	-1.700655	0.000192	1.924721	0.326057	0.000019
 390	3.8706e+01	3.8652	-1.680288	0.000205	2.047576	0.346869	0.000020
 391	3.8805e+01	3.8743	-1.659514	0.000209	2.088527	0.353806	0.000021
 392	3.8904e+01	3.8843	-1.641998	0.000176	1.760915	0.298307	0.000018
 393	3.9004e+01	3.8954	-1.621631	0.000205	2.047576	0.346869	0.000020
 394	3.9103e+01	3.9048	-1.604115	0.000176	1.760915	0.298307	0.000018
 395	3.9203e+01	3.9183	-1.584155	0.000201	2.006624	0.339931	0.000020
 396	3.9303e+01	3.9253	-1.562159	0.000221	2.211382	0.374618	0.000022
 397	3.9402e+01	3.9349	-1.545050	0.000172	1.719964	0.291370	0.000017
 398	3.9502e+01	3.9449	-1.519795	0.000254	2.538994	0.430117	0.000025
 399	3.9601e+01	3.9567	-1.497799	0.000221	2.211382	0.374618	0.000022
 400	3.9700e+01	3.9658	-1.482320	0.000156	1.556158	0.263620	0.000016
 401	3.9800e+01	3.9752	-1.466433	0.000160	1.597109	0.270558	0.000016
 402	3.9900e+01	3.9845	-1.446066	0.000205	2.047576	0.346869	0.000020
 403	3.9999e+01	3.9939	-1.424070	0.000221	2.211382	0.374618	0.000022
 404	4.0099e+01	4.0060	-1.406554	0.000176	1.760915	0.298307	0.000018
 405	4.0198e+01	4.0159	-1.386594	0.000201	2.006624	0.339931	0.000020
 406	4.0297e+01	4.0266	-1.366634	0.000201	2.006624	0.339931	0.000020
 407	4.0397e+01	4.0349	-1.344638	0.000221	2.211382	0.374618	0.000022
 408	4.0496e+01	4.0475	-1.322641	0.000221	2.211382	0.374618	0.000022
 409	4.0596e+01	4.0566	-1.303496	0.000192	1.924721	0.326057	0.000019
 410	4.0696e+01	4.0664	-1.280685	0.000229	2.293285	0.388493	0.000023
 411	4.0795e+01	4.0727	-1.255837	0.000250	2.498043	0.423180	0.000025
 412	4.0895e+01	4.0821	-1.234248	0.000217	2.170430	0.367681	0.000022
 413	4.0994e+01	4.0974	-1.212251	0.000221	2.211382	0.374618	0.000022
 414	4.1093e+01	4.1034	-1.188218	0.000242	2.416140	0.409305	0.000024
 415	4.1193e+01	4.1151	-1.168258	0.000201	2.006624	0.339931	0.000020
 416	4.1292e+01	4.1247	-1.145447	0.000229	2.293285	0.388493	0.000023
 417	4.1392e+01	4.1338	-1.122229	0.000233	2.334236	0.395430	0.000023
 418	4.1492e+01	4.1455	-1.101047	0.000213	2.129479	0.360743	0.000021
 419	4.1591e+01	4.1552	-1.077828	0.000233	2.334236	0.395430	0.000023
 420	4.1691e+01	4.1635	-1.057054	0.000209	2.088527	0.353806	0.000021
 421	4.1790e+01	4.1755	-1.030577	0.000266	2.661849	0.450929	0.000027
 422	4.1889e+01	4.1879	-1.010210	0.000205	2.047576	0.346869	0.000020
 423	4.1989e+01	4.1932	-0.988620	0.000217	2.170430	0.367681	0.000022
 424	4.2089e+01	4.2036	-0.959699	0.000291	2.907558	0.492554	0.000029
 425	4.2188e+01	4.2126	-0.943813	0.000160	1.597109	0.270558	0.000016
 426	4.2288e+01	4.2223	-0.918150	0.000258	2.579946	0.437055	0.000026
 427	4.2387e+01	4.2335	-0.894524	0.000238	2.375188	0.402368	0.000024
 428	4.2486e+01	4.2425	-0.876194	0.000184	1.842818	0.312182	0.000018
 429	4.2586e+01	4.2548	-0.850531	0.000258	2.579946	0.437055	0.000026
 430	4.2685e+01	4.2631	-0.829349	0.000213	2.129479	0.360743	0.000021
 431	4.2785e+01	4.2744	-0.808982	0.000205	2.047576	0.346869	0.000020
 432	4.2885e+01	4.2821	-0.789837	0.000192	1.924721	0.326057	0.000019
 433	4.2984e+01	4.2920	-0.761323	0.000287	2.866606	0.485616	0.000029
 434	4.3084e+01	4.3031	-0.744622	0.000168	1.679012	0.284432	0.000017
 435	4.3183e+01	4.3154	-0.723848	0.000209	2.088527	0.353806	0.000021
 436	4.3282e+01	4.3253	-0.701037	0.000229	2.293285	0.388493	0.000023
 437	4.3382e+01	4.3343	-0.677818	0.000233	2.334236	0.395430	0.000023
 438	4.3481e+01	4.3433	-0.657858	0.000201	2.006624	0.339931	0.000020
 439	4.3581e+01	4.3539	-0.635454	0.000225	2.252333	0.381556	0.000023
 440	4.3681e+01	4.3652	-0.617531	0.000180	1.801867	0.305244	0.000018
 441	4.3780e+01	4.3748	-0.594313	0.000233	2.334236	0.395430	0.000023
 442	4.3880e+01	4.3851	-0.574353	0.000201	2.006624	0.339931	0.000020
 443	4.3979e+01	4.3911	-0.552764	0.000217	2.170430	0.367681	0.000022
 444	4.4078e+01	4.4020	-0.528731	0.000242	2.416140	0.409305	0.000024
 445	4.4178e+01	4.4154	-0.511215	0.000176	1.760915	0.298307	0.000018
 446	4.4278e+01	4.4241	-0.488404	0.000229	2.293285	0.388493	0.000023
 447	4.4377e+01	4.4330	-0.466000	0.000225	2.252333	0.381556	0.000023
 448	4.4477e+01	4.4437	-0.445225	0.000209	2.088527	0.353806	0.000021
 449	4.4576e+01	4.4541	-0.427302	0.000180	1.801867	0.305244	0.000018
 450	4.4675e+01	4.4636	-0.407343	0.000201	2.006624	0.339931	0.000020
 451	4.4775e+01	4.4753	-0.382902	0.000246	2.457091	0.416242	0.000025
 452	4.4874e+01	4.4833	-0.362942	0.000201	2.006624	0.339931	0.000020
 453	4.4974e+01	4.4933	-0.344612	0.000184	1.842818	0.312182	0.000018
 454	4.5074e+01	4.5024	-0.321393	0.000233	2.334236	0.395430	0.000023
 455	4.5173e+01	4.5144	-0.299397	0.000221	2.211382	0.374618	0.000022
 456	4.5273e+01	4.5255	-0.279844	0.000197	1.965673	0.332994	0.000020
 457	4.5372e+01	4.5324	-0.256626	0.000233	2.334236	0.395430	0.000023
 458	4.5471e+01	4.5425	-0.236666	0.000201	2.006624	0.339931	0.000020
 459	4.5571e+01	4.5528	-0.212633	0.000242	2.416140	0.409305	0.000024
 460	4.5670e+01	4.5631	-0.191451	0.000213	2.129479	0.360743	0.000021
 461	4.5770e+01	4.5739	-0.172306	0.000192	1.924721	0.326057	0.000019
 462	4.5870e+01	4.5864	-0.157642	0.000147	1.474255	0.249745	0.000015
 463	4.5969e+01	4.5934	-0.130757	0.000270	2.702800	0.457867	0.000027
 464	4.6069e+01	4.6037	-0.109982	0.000209	2.088527	0.353806	0.000021
 465	4.6168e+01	4.6149	-0.090430	0.000197	1.965673	0.332994	0.000020
 466	4.6267e+01	4.6246	-0.074544	0.000160	1.597109	0.270558	0.000016
 467	4.6367e+01	4.6319	-0.051733	0.000229	2.293285	0.388493	0.000023
 468	4.6467e+01	4.6450	-0.031365	0.000205	2.047576	0.346869	0.000020
 469	4.6566e+01	4.6520	-0.009776	0.000217	2.170430	0.367681	0.000022
 470	4.6666e+01	4.6627	0.010591	0.000205	2.047576	0.346869	0.000020
 471	4.6765e+01	4.6738	0.031365	0.000209	2.088527	0.353806	0.000021
 472	4.6864e+01	4.6813	0.051733	0.000205	2.047576	0.346869	0.000020
 473	4.6964e+01	4.6918	0.075358	0.000238	2.375188	0.402368	0.000024
 474	4.7063e+01	4.7038	0.099392	0.000242	2.416140	0.409305	0.000024
 475	4.7163e+01	4.7129	0.119759	0.000205	2.047576	0.346869	0.000020
 476	4.7263e+01	4.7211	0.144607	0.000250	2.498043	0.423180	0.000025
 477	4.7362e+01	4.7324	0.163752	0.000192	1.924721	0.326057	0.000019
 478	4.7462e+01	4.7445	0.184526	0.000209	2.088527	0.353806	0.000021
 479	4.7561e+01	4.7552	0.204893	0.000205	2.047576	0.346869	0.000020
 480	4.7660e+01	4.7619	0.227704	0.000229	2.293285	0.388493	0.000023
 481	4.7760e+01	4.7698	0.249294	0.000217	2.170430	0.367681	0.000022
 482	4.7859e+01	4.7810	0.268031	0.000188	1.883770	0.319119	0.000019
 483	4.7959e+01	4.7918	0.292065	0.000242	2.416140	0.409305	0.000024
 484	4.8059e+01	4.8011	0.315690	0.000238	2.375188	0.402368	0.000024
 485	4.8158e+01	4.8130	0.337280	0.000217	2.170430	0.367681	0.000022
 486	4.8258e+01	4.8211	0.358054	0.000209	2.088527	0.353806	0.000021
 487	4.8357e+01	4.8308	0.382495	0.000246	2.457091	0.416242	0.000025
 488	4.8456e+01	4.8397	0.403269	0.000209	2.088527	0.353806	0.000021
 489	4.8556e+01	4.8518	0.425266	0.000221	2.211382	0.374618	0.000022
 490	4.8656e+01	4.8620	0.444411	0.000192	1.924721	0.326057	0.000019
 491	4.8755e+01	4.8740	0.467222	0.000229	2.293285	0.388493	0.000023
 492	4.8855e+01	4.8794	0.485552	0.000184	1.842818	0.312182	0.000018
 493	4.8954e+01	4.8919	0.506734	0.000213	2.129479	0.360743	0.000021
 494	4.9053e+01	4.9018	0.526694	0.000201	2.006624	0.339931	0.000020
 495	4.9153e+01	4.9087	0.542173	0.000156	1.556158	0.263620	0.000016
 496	4.9252e+01	4.9209	0.564169	0.000221	2.211382	0.374618	0.000022
 497	4.9352e+01	4.9300	0.584537	0.000205	2.047576	0.346869	0.000020
 498	4.9452e+01	4.9390	0.599201	0.000147	1.474255	0.249745	0.000015
 499	4.9551e+01	4.9512	0.619975	0.000209	2.088527	0.353806	0.000021
 500	4.9651e+01	4.9615	0.636269	0.000164	1.638061	0.277495	0.000016
 501	4.9750e+01	4.9708	0.654599	0.000184	1.842818	0.312182	0.000018
 502	4.9849e+01	4.9815	0.674152	0.000197	1.965673	0.332994	0.000020
 503	4.9949e+01	4.9914	0.694519	0.000205	2.047576	0.346869	0.000020
 504	5.0048e+01	5.0018	0.711627	0.000172	1.719964	0.291370	0.000017
 505	5.0148e+01	5.0085	0.729958	0.000184	1.842818	0.312182	0.000018
 506	5.0248e+01	5.0176	0.753176	0.000233	2.334236	0.395430	0.000023
 507	5.0347e+01	5.0298	0.764582	0.000115	1.146642	0.194246	0.000011
 508	5.0447e+01	5.0404	0.784542	0.000201	2.006624	0.339931	0.000020
 509	5.0546e+01	5.0524	0.802872	0.000184	1.842818	0.312182	0.000018
 510	5.0645e+01	5.0623	0.819166	0.000164	1.638061	0.277495	0.000016
 511	5.0745e+01	5.0716	0.834645	0.000156	1.556158	0.263620	0.000016
 512	5.0844e+01	5.0797	0.857049	0.000225	2.252333	0.381556	0.000023
 513	5.0944e+01	5.0918	0.877009	0.000201	2.006624	0.339931	0.000020
 514	5.1044e+01	5.1002	0.897783	0.000209	2.088527	0.353806	0.000021
 515	5.1143e+01	5.1086	0.915299	0.000176	1.760915	0.298307	0.000018
 516	5.1242e+01	5.1164	0.932000	0.000168	1.679012	0.284432	0.000017
 517	5.1342e+01	5.1318	0.955218	0.000233	2.334236	0.395430	0.000023
 518	5.1441e+01	5.1397	0.975993	0.000209	2.088527	0.353806	0.000021
 519	5.1541e+01	5.1524	0.994323	0.000184	1.842818	0.312182	0.000018
 520	5.1641e+01	5.1582	1.014283	0.000201	2.006624	0.339931	0.000020
 521	5.1740e+01	5.1720	1.033021	0.000188	1.883770	0.319119	0.000019
 522	5.1840e+01	5.1840	1.051758	0.000188	1.883770	0.319119	0.000019
 523	5.1939e+01	5.1887	1.072126	0.000205	2.047576	0.346869	0.000020
 524	5.2038e+01	5.2003	1.094529	0.000225	2.252333	0.381556	0.000023
 525	5.2138e+01	5.2084	1.110416	0.000160	1.597109	0.270558	0.000016
 526	5.2237e+01	5.2192	1.128746	0.000184	1.842818	0.312182	0.000018
 527	5.2337e+01	5.2306	1.153187	0.000246	2.457091	0.416242	0.000025
 528	5.2437e+01	5.2395	1.168258	0.000152	1.515206	0.256683	0.000015
 529	5.2536e+01	5.2505	1.189033	0.000209	2.088527	0.353806	0.000021
 530	5.2636e+01	5.2601	1.209400	0.000205	2.047576	0.346869	0.000020
 531	5.2735e+01	5.2686	1.229360	0.000201	2.006624	0.339931	0.000020
 532	5.2834e+01	5.2808	1.244839	0.000156	1.556158	0.263620	0.000016
 533	5.2934e+01	5.2923	1.265206	0.000205	2.047576	0.346869	0.000020
 534	5.3033e+01	5.3001	1.291276	0.000262	2.620897	0.443992	0.000026
 535	5.3133e+01	5.3063	1.310014	0.000188	1.883770	0.319119	0.000019
 536	5.3233e+01	5.3191	1.329159	0.000192	1.924721	0.326057	0.000019
 537	5.3332e+01	5.3278	1.345452	0.000164	1.638061	0.277495	0.000016
 538	5.3431e+01	5.3385	1.365005	0.000197	1.965673	0.332994	0.000020
 539	5.3531e+01	5.3484	1.384150	0.000192	1.924721	0.326057	0.000019
 540	5.3630e+01	5.3568	1.402073	0.000180	1.801867	0.305244	0.000018
 541	5.3730e+01	5.3667	1.424477	0.000225	2.252333	0.381556	0.000023
 542	5.3830e+01	5.3767	1.445251	0.000209	2.088527	0.353806	0.000021
 543	5.3929e+01	5.3887	1.467248	0.000221	2.211382	0.374618	0.000022
 544	5.4029e+01	5.3992	1.485171	0.000180	1.801867	0.305244	0.000018
 545	5.4128e+01	5.4105	1.503909	0.000188	1.883770	0.319119	0.000019
 546	5.4227e+01	5.4185	1.524276	0.000205	2.047576	0.346869	0.000020
 547	5.4327e+01	5.4297	1.542199	0.000180	1.801867	0.305244	0.000018
 548	5.4426e+01	5.4368	1.566232	0.000242	2.416140	0.409305	0.000024
 549	5.4526e+01	5.4473	1.584970	0.000188	1.883770	0.319119	0.000019
 550	5.4626e+01	5.4586	1.605337	0.000205	2.047576	0.346869	0.000020
 551	5.4725e+01	5.4668	1.624075	0.000188	1.883770	0.319119	0.000019
 552	5.4825e+01	5.4775	1.648923	0.000250	2.498043	0.423180	0.000025
 553	5.4924e+01	5.4884	1.665216	0.000164	1.638061	0.277495	0.000016
 554	5.5023e+01	5.4987	1.683547	0.000184	1.842818	0.312182	0.000018
 555	5.5123e+01	5.5083	1.704729	0.000213	2.129479	0.360743	0.000021
 556	5.5222e+01	5.5174	1.723466	0.000188	1.883770	0.319119	0.000019
 557	5.5322e+01	5.5271	1.741389	0.000180	1.801867	0.305244	0.000018
 558	5.5422e+01	5.5383	1.762164	0.000209	2.088527	0.353806	0.000021
 559	5.5521e+01	5.5448	1.778050	0.000160	1.597109	0.270558	0.000016
 560	5.5620e+01	5.5570	1.794751	0.000168	1.679012	0.284432	0.000017
 561	5.5720e+01	5.5679	1.817562	0.000229	2.293285	0.388493	0.000023
 562	5.5819e+01	5.5747	1.831819	0.000143	1.433303	0.242808	0.000014
 563	5.5919e+01	5.5871	1.851779	0.000201	2.006624	0.339931	0.000020
 564	5.6019e+01	5.5976	1.873776	0.000221	2.211382	0.374618	0.000022
 565	5.6118e+01	5.6080	1.888033	0.000143	1.433303	0.242808	0.000014
 566	5.6218e+01	5.6162	1.909622	0.000217	2.170430	0.367681	0.000022
 567	5.6317e+01	5.6275	1.926730	0.000172	1.719964	0.291370	0.000017
 568	5.6416e+01	5.6371	1.948319	0.000217	2.170430	0.367681	0.000022
 569	5.6516e+01	5.6512	1.965020	0.000168	1.679012	0.284432	0.000017
 570	5.6615e+01	5.6588	1.984166	0.000192	1.924721	0.326057	0.000019
 571	5.6715e+01	5.6686	1.996793	0.000127	1.269497	0.215059	0.000013
 572	5.6815e+01	5.6765	2.018790	0.000221	2.211382	0.374618	0.000022
 573	5.6914e+01	5.6864	2.038342	0.000197	1.965673	0.332994	0.000020
 574	5.7014e+01	5.6989	2.053006	0.000147	1.474255	0.249745	0.000015
 575	5.7113e+01	5.7073	2.077040	0.000242	2.416140	0.409305	0.000024
 576	5.7212e+01	5.7180	2.094963	0.000180	1.801867	0.305244	0.000018
 577	5.7312e+01	5.7287	2.118181	0.000233	2.334236	0.395430	0.000023
 578	5.7411e+01	5.7372	2.136104	0.000180	1.801867	0.305244	0.000018
 579	5.7511e+01	5.7476	2.161360	0.000254	2.538994	0.430117	0.000025
 580	5.7611e+01	5.7561	2.180912	0.000197	1.965673	0.332994	0.000020
 581	5.7710e+01	5.7674	2.201686	0.000209	2.088527	0.353806	0.000021
 582	5.7809e+01	5.7776	2.224498	0.000229	2.293285	0.388493	0.000023
 583	5.7909e+01	5.7854	2.242828	0.000184	1.842818	0.312182	0.000018
 584	5.8008e+01	5.7967	2.268083	0.000254	2.538994	0.430117	0.000025
 585	5.8108e+01	5.8054	2.288450	0.000205	2.047576	0.346869	0.000020
 586	5.8208e+01	5.8170	2.308818	0.000205	2.047576	0.346869	0.000020
 587	5.8307e+01	5.8262	2.333665	0.000250	2.498043	0.423180	0.000025
 588	5.8407e+01	5.8354	2.348737	0.000152	1.515206	0.256683	0.000015
 589	5.8506e+01	5.8498	2.372770	0.000242	2.416140	0.409305	0.000024
 590	5.8605e+01	5.8562	2.393952	0.000213	2.129479	0.360743	0.000021
 591	5.8705e+01	5.8660	2.417578	0.000238	2.375188	0.402368	0.000024
 592	5.8804e+01	5.8772	2.440389	0.000229	2.293285	0.388493	0.000023
 593	5.8904e+01	5.8852	2.463200	0.000229	2.293285	0.388493	0.000023
 594	5.9004e+01	5.8961	2.483975	0.000209	2.088527	0.353806	0.000021
 595	5.9103e+01	5.9056	2.503935	0.000201	2.006624	0.339931	0.000020
 596	5.9203e+01	5.9168	2.526339	0.000225	2.252333	0.381556	0.000023
 597	5.9302e+01	5.9255	2.549150	0.000229	2.293285	0.388493	0.000023
 598	5.9401e+01	5.9344	2.563814	0.000147	1.474255	0.249745	0.000015
 599	5.9501e+01	5.9470	2.587440	0.000238	2.375188	0.402368	0.000024
 600	5.9600e+01	5.9539	2.610658	0.000233	2.334236	0.395430	0.000023
 601	5.9700e+01	5.9668	2.627767	0.000172	1.719964	0.291370	0.000017
 602	5.9800e+01	5.9772	2.648134	0.000205	2.047576	0.346869	0.000020
 603	5.9899e+01	5.9865	2.667686	0.000197	1.965673	0.332994	0.000020
 604	5.9998e+01	5.9959	2.688053	0.000205	2.047576	0.346869	0.000020
 605	6.0098e+01	6.0052	2.708421	0.000205	2.047576	0.346869	0.000020
 606	6.0197e+01	6.0197	2.727158	0.000188	1.883770	0.319119	0.000019
 607	6.0297e+01	6.0264	2.749155	0.000221	2.211382	0.374618	0.000022
 608	6.0397e+01	6.0349	2.769929	0.000209	2.088527	0.353806	0.000021
 609	6.0496e+01	6.0458	2.788260	0.000184	1.842818	0.312182	0.000018
 610	6.0596e+01	6.0546	2.811478	0.000233	2.334236	0.395430	0.000023
 611	6.0695e+01	6.0647	2.829401	0.000180	1.801867	0.305244	0.000018
 612	6.0794e+01	6.0748	2.850176	0.000209	2.088527	0.353806	0.000021
 613	6.0894e+01	6.0854	2.872172	0.000221	2.211382	0.374618	0.000022
 614	6.0993e+01	6.0938	2.892132	0.000201	2.006624	0.339931	0.000020
 615	6.1093e+01	6.1073	2.913314	0.000213	2.129479	0.360743	0.000021
 616	6.1193e+01	6.1164	2.930015	0.000168	1.679012	0.284432	0.000017
 617	6.1292e+01	6.1233	2.947938	0.000180	1.801867	0.305244	0.000018
 618	6.1392e+01	6.1349	2.972379	0.000246	2.457091	0.416242	0.000025
 619	6.1491e+01	6.1463	2.993153	0.000209	2.088527	0.353806	0.000021
 620	6.1590e+01	6.1565	3.008225	0.000152	1.515206	0.256683	0.000015
 621	6.1690e+01	6.1623	3.028592	0.000205	2.047576	0.346869	0.000020
 622	6.1789e+01	6.1758	3.050181	0.000217	2.170430	0.367681	0.000022
 623	6.1889e+01	6.1845	3.068511	0.000184	1.842818	0.312182	0.000018
 624	6.1989e+01	6.1945	3.086842	0.000184	1.842818	0.312182	0.000018
 625	6.2088e+01	6.2035	3.111282	0.000246	2.457091	0.416242	0.000025
 626	6.2188e+01	6.2149	3.133279	0.000221	2.211382	0.374618	0.000022
 627	6.2287e+01	6.2261	3.152017	0.000188	1.883770	0.319119	0.000019
 628	6.2386e+01	6.2365	3.172791	0.000209	2.088527	0.353806	0.000021
 629	6.2486e+01	6.2455	3.190307	0.000176	1.760915	0.298307	0.000018
 630	6.2586e+01	6.2527	3.209859	0.000197	1.965673	0.332994	0.000020
 631	6.2685e+01	6.2675	3.232263	0.000225	2.252333	0.381556	0.000023
 632	6.2785e+01	6.2751	3.249372	0.000172	1.719964	0.291370	0.000017
 633	6.2884e+01	6.2856	3.264036	0.000147	1.474255	0.249745	0.000015
 634	6.2983e+01	6.2917	3.283181	0.000192	1.924721	0.326057	0.000019
 635	6.3083e+01	6.3084	3.303548	0.000205	2.047576	0.346869	0.000020
 636	6.3182e+01	6.3140	3.323915	0.000205	2.047576	0.346869	0.000020
 637	6.3282e+01	6.3235	3.347134	0.000233	2.334236	0.395430	0.000023
 638	6.3382e+01	6.3306	3.363427	0.000164	1.638061	0.277495	0.000016
 639	6.3481e+01	6.3415	3.381758	0.000184	1.842818	0.312182	0.000018
 640	6.3581e+01	6.3542	3.404569	0.000229	2.293285	0.388493	0.000023
 641	6.3680e+01	6.3649	3.426566	0.000221	2.211382	0.374618	0.000022
 642	6.3779e+01	6.3726	3.447747	0.000213	2.129479	0.360743	0.000021
 643	6.3879e+01	6.3847	3.467300	0.000197	1.965673	0.332994	0.000020
 644	6.3978e+01	6.3912	3.488074	0.000209	2.088527	0.353806	0.000021
 645	6.4078e+01	6.4018	3.508034	0.000201	2.006624	0.339931	0.000020
 646	6.4177e+01	6.4114	3.528809	0.000209	2.088527	0.353806	0.000021
 647	6.4277e+01	6.4243	3.548768	0.000201	2.006624	0.339931	0.000020
 648	6.4376e+01	6.4375	3.569135	0.000205	2.047576	0.346869	0.000020
 649	6.4476e+01	6.4423	3.589095	0.000201	2.006624	0.339931	0.000020
 650	6.4576e+01	6.4527	3.610277	0.000213	2.129479	0.360743	0.000021
 651	6.4675e+01	6.4614	3.630237	0.000201	2.006624	0.339931	0.000020
 652	6.4775e+01	6.4711	3.652641	0.000225	2.252333	0.381556	0.000023
 653	6.4874e+01	6.4814	3.676674	0.000242	2.416140	0.409305	0.000024
 654	6.4974e+01	6.4947	3.693375	0.000168	1.679012	0.284432	0.000017
 655	6.5073e+01	6.5022	3.715779	0.000225	2.252333	0.381556	0.000023
 656	6.5172e+01	6.5137	3.736553	0.000209	2.088527	0.353806	0.000021
 657	6.5272e+01	6.5206	3.756513	0.000201	2.006624	0.339931	0.000020
 658	6.5371e+01	6.5316	3.778510	0.000221	2.211382	0.374618	0.000022
 659	6.5471e+01	6.5420	3.796433	0.000180	1.801867	0.305244	0.000018
 660	6.5570e+01	6.5508	3.814763	0.000184	1.842818	0.312182	0.000018
 661	6.5670e+01	6.5637	3.837574	0.000229	2.293285	0.388493	0.000023
 662	6.5769e+01	6.5718	3.853461	0.000160	1.597109	0.270558	0.000016
 663	6.5869e+01	6.5835	3.869347	0.000160	1.597109	0.270558	0.000016
 664	6.5969e+01	6.5947	3.888492	0.000192	1.924721	0.326057	0.000019
 665	6.6068e+01	6.6028	3.904378	0.000160	1.597109	0.270558	0.000016
 666	6.6168e+01	6.6125	3.924745	0.000205	2.047576	0.346869	0.000020
 667	6.6267e+01	6.6206	3.942669	0.000180	1.801867	0.305244	0.000018
 668	6.6367e+01	6.6319	3.958148	0.000156	1.556158	0.263620	0.000016
 669	6.6466e+01	6.6447	3.976885	0.000188	1.883770	0.319119	0.000019
 670	6.6566e+01	6.6491	3.992772	0.000160	1.597109	0.270558	0.000016
 671	6.6665e+01	6.6628	4.010287	0.000176	1.760915	0.298307	0.000018
 672	6.6764e+01	6.6726	4.028210	0.000180	1.801867	0.305244	0.000018
 673	6.6864e+01	6.6814	4.043690	0.000156	1.556158	0.263620	0.000016
 674	6.6963e+01	6.6886	4.062020	0.000184	1.842818	0.312182	0.000018
 675	6.7063e+01	6.7036	4.078721	0.000168	1.679012	0.284432	0.000017
 676	6.7162e+01	6.7108	4.094200	0.000156	1.556158	0.263620	0.000016
 677	6.7262e+01	6.7196	4.115382	0.000213	2.129479	0.360743	0.000021
 678	6.7362e+01	6.7326	4.131268	0.000160	1.597109	0.270558	0.000016
 679	6.7461e+01	6.7417	4.147969	0.000168	1.679012	0.284432	0.000017
 680	6.7561e+01	6.7507	4.167114	0.000192	1.924721	0.326057	0.000019
 681	6.7660e+01	6.7650	4.184630	0.000176	1.760915	0.298307	0.000018
 682	6.7760e+01	6.7730	4.207441	0.000229	2.293285	0.388493	0.000023
 683	6.7859e+01	6.7815	4.221291	0.000139	1.392352	0.235871	0.000014
 684	6.7959e+01	6.7941	4.239214	0.000180	1.801867	0.305244	0.000018
 685	6.8058e+01	6.8041	4.257137	0.000180	1.801867	0.305244	0.000018
 686	6.8157e+01	6.8119	4.278726	0.000217	2.170430	0.367681	0.000022
 687	6.8257e+01	6.8208	4.294613	0.000160	1.597109	0.270558	0.000016
 688	6.8356e+01	6.8301	4.312943	0.000184	1.842818	0.312182	0.000018
 689	6.8456e+01	6.8410	4.329237	0.000164	1.638061	0.277495	0.000016
 690	6.8555e+01	6.8508	4.348789	0.000197	1.965673	0.332994	0.000020
 691	6.8655e+01	6.8606	4.372415	0.000238	2.375188	0.402368	0.000024
 692	6.8754e+01	6.8757	4.391967	0.000197	1.965673	0.332994	0.000020
 693	6.8854e+01	6.8813	4.407854	0.000160	1.597109	0.270558	0.000016
 694	6.8954e+01	6.8916	4.427814	0.000201	2.006624	0.339931	0.000020
 695	6.9053e+01	6.8994	4.443700	0.000160	1.597109	0.270558	0.000016
 696	6.9153e+01	6.9110	4.462030	0.000184	1.842818	0.312182	0.000018
 697	6.9252e+01	6.9197	4.479546	0.000176	1.760915	0.298307	0.000018
 698	6.9352e+01	6.9342	4.497469	0.000180	1.801867	0.305244	0.000018
 699	6.9451e+01	6.9399	4.516614	0.000192	1.924721	0.326057	0.000019
 700	6.9550e+01	6.9504	4.539018	0.000225	2.252333	0.381556	0.000023
 701	6.9650e+01	6.9613	4.558163	0.000192	1.924721	0.326057	0.000019
 702	6.9749e+01	6.9692	4.577308	0.000192	1.924721	0.326057	0.000019
 703	6.9849e+01	6.9817	4.596453	0.000192	1.924721	0.326057	0.000019
 704	6.9948e+01	6.9909	4.612747	0.000164	1.638061	0.277495	0.000016
 705	7.0048e+01	7.0025	4.628633	0.000160	1.597109	0.270558	0.000016
 706	7.0147e+01	7.0105	4.647371	0.000188	1.883770	0.319119	0.000019
 707	7.0247e+01	7.0223	4.666924	0.000197	1.965673	0.332994	0.000020
 708	7.0347e+01	7.0315	4.686476	0.000197	1.965673	0.332994	0.000020
 709	7.0446e+01	7.0412	4.704399	0.000180	1.801867	0.305244	0.000018
 710	7.0546e+01	7.0497	4.725174	0.000209	2.088527	0.353806	0.000021
 711	7.0645e+01	7.0626	4.743911	0.000188	1.883770	0.319119	0.000019
 712	7.0745e+01	7.0681	4.761427	0.000176	1.760915	0.298307	0.000018
 713	7.0844e+01	7.0797	4.779757	0.000184	1.842818	0.312182	0.000018
 714	7.0944e+01	7.0890	4.800125	0.000205	2.047576	0.346869	0.000020
 715	7.1043e+01	7.1040	4.817233	0.000172	1.719964	0.291370	0.000017
 716	7.1142e+01	7.1096	4.838415	0.000213	2.129479	0.360743	0.000021
 717	7.1242e+01	7.1204	4.858375	0.000201	2.006624	0.339931	0.000020
 718	7.1341e+01	7.1278	4.874668	0.000164	1.638061	0.277495	0.000016
 719	7.1441e+01	7.1416	4.896665	0.000221	2.211382	0.374618	0.000022
 720	7.1540e+01	7.1478	4.912551	0.000160	1.597109	0.270558	0.000016
 721	7.1640e+01	7.1587	4.928438	0.000160	1.597109	0.270558	0.000016
 722	7.1740e+01	7.1703	4.951249	0.000229	2.293285	0.388493	0.000023
 723	7.1839e+01	7.1777	4.968357	0.000172	1.719964	0.291370	0.000017
 724	7.1939e+01	7.1890	4.987502	0.000192	1.924721	0.326057	0.000019
 725	7.2038e+01	7.1971	5.003796	0.000164	1.638061	0.277495	0.000016
 726	7.2138e+01	7.2093	5.022126	0.000184	1.842818	0.312182	0.000018
 727	7.2237e+01	7.2193	5.042086	0.000201	2.006624	0.339931	0.000020
 728	7.2337e+01	7.2281	5.058380	0.000164	1.638061	0.277495	0.000016
 729	7.2436e+01	7.2403	5.075488	0.000172	1.719964	0.291370	0.000017
 730	7.2535e+01	7.2504	5.088523	0.000131	1.310449	0.221996	0.000013
 731	7.2635e+01	7.2607	5.113371	0.000250	2.498043	0.423180	0.000025
 732	7.2734e+01	7.2662	5.130072	0.000168	1.679012	0.284432	0.000017
 733	7.2834e+01	7.2788	5.143922	0.000139	1.392352	0.235871	0.000014
 734	7.2933e+01	7.2880	5.163474	0.000197	1.965673	0.332994	0.000020
 735	7.3033e+01	7.3006	5.179768	0.000164	1.638061	0.277495	0.000016
 736	7.3132e+01	7.3072	5.200542	0.000209	2.088527	0.353806	0.000021
 737	7.3232e+01	7.3196	5.216021	0.000156	1.556158	0.263620	0.000016
 738	7.3332e+01	7.3296	5.231500	0.000156	1.556158	0.263620	0.000016
 739	7.3431e+01	7.3383	5.249423	0.000180	1.801867	0.305244	0.000018
 740	7.3531e+01	7.3498	5.266939	0.000176	1.760915	0.298307	0.000018
 741	7.3630e+01	7.3593	5.284862	0.000180	1.801867	0.305244	0.000018
 742	7.3730e+01	7.3694	5.301971	0.000172	1.719964	0.291370	0.000017
 743	7.3829e+01	7.3823	5.325597	0.000238	2.375188	0.402368	0.000024
 744	7.3928e+01	7.3864	5.345964	0.000205	2.047576	0.346869	0.000020
 745	7.4028e+01	7.3975	5.360628	0.000147	1.474255	0.249745	0.000015
 746	7.4127e+01	7.4081	5.383032	0.000225	2.252333	0.381556	0.000023
 747	7.4227e+01	7.4174	5.400955	0.000180	1.801867	0.305244	0.000018
 748	7.4326e+01	7.4299	5.424988	0.000242	2.416140	0.409305	0.000024
 749	7.4426e+01	7.4365	5.444948	0.000201	2.006624	0.339931	0.000020
 750	7.4525e+01	7.4477	5.465722	0.000209	2.088527	0.353806	0.000021
 751	7.4625e+01	7.4606	5.487719	0.000221	2.211382	0.374618	0.000022
 752	7.4725e+01	7.4680	5.505642	0.000180	1.801867	0.305244	0.000018
 753	7.4824e+01	7.4748	5.525602	0.000201	2.006624	0.339931	0.000020
 754	7.4924e+01	7.4868	5.546784	0.000213	2.129479	0.360743	0.000021
 755	7.5023e+01	7.4973	5.569187	0.000225	2.252333	0.381556	0.000023
 756	7.5123e+01	7.5039	5.589962	0.000209	2.088527	0.353806	0.000021
 757	7.5222e+01	7.5188	5.609107	0.000192	1.924721	0.326057	0.000019
 758	7.5322e+01	7.5293	5.631918	0.000229	2.293285	0.388493	0.000023
 759	7.5421e+01	7.5365	5.654322	0.000225	2.252333	0.381556	0.000023
 760	7.5520e+01	7.5499	5.673060	0.000188	1.883770	0.319119	0.000019
 761	7.5620e+01	7.5565	5.693427	0.000205	2.047576	0.346869	0.000020
 762	7.5719e+01	7.5680	5.716645	0.000233	2.334236	0.395430	0.000023
 763	7.5819e+01	7.5772	5.732939	0.000164	1.638061	0.277495	0.000016
 764	7.5918e+01	7.5866	5.754528	0.000217	2.170430	0.367681	0.000022
 765	7.6018e+01	7.5957	5.773673	0.000192	1.924721	0.326057	0.000019
 766	7.6118e+01	7.6082	5.790374	0.000168	1.679012	0.284432	0.000017
 767	7.6217e+01	7.6175	5.813593	0.000233	2.334236	0.395430	0.000023
 768	7.6317e+01	7.6245	5.832331	0.000188	1.883770	0.319119	0.000019
 769	7.6416e+01	7.6374	5.851068	0.000188	1.883770	0.319119	0.000019
 770	7.6516e+01	7.6450	5.866955	0.000160	1.597109	0.270558	0.000016
 771	7.6615e+01	7.6577	5.889359	0.000225	2.252333	0.381556	0.000023
 772	7.6715e+01	7.6664	5.909318	0.000201	2.006624	0.339931	0.000020
 773	7.6814e+01	7.6744	5.925205	0.000160	1.597109	0.270558	0.000016
 774	7.6913e+01	7.6873	5.945979	0.000209	2.088527	0.353806	0.000021
 775	7.7013e+01	7.6980	5.965532	0.000197	1.965673	0.332994	0.000020
 776	7.7112e+01	7.7069	5.985491	0.000201	2.006624	0.339931	0.000020
 777	7.7212e+01	7.7149	6.006266	0.000209	2.088527	0.353806	0.000021
 778	7.7311e+01	7.7259	6.025411	0.000192	1.924721	0.326057	0.000019
 779	7.7411e+01	7.7351	6.047815	0.000225	2.252333	0.381556	0.000023
 780	7.7510e+01	7.7462	6.064109	0.000164	1.638061	0.277495	0.000016
 781	7.7610e+01	7.7570	6.088549	0.000246	2.457091	0.416242	0.000025
 782	7.7710e+01	7.7676	6.106472	0.000180	1.801867	0.305244	0.000018
 783	7.7809e+01	7.7768	6.122359	0.000160	1.597109	0.270558	0.000016
 784	7.7909e+01	7.7859	6.143540	0.000213	2.129479	0.360743	0.000021
 785	7.8008e+01	7.7966	6.160649	0.000172	1.719964	0.291370	0.000017
 786	7.8108e+01	7.8062	6.179387	0.000188	1.883770	0.319119	0.000019
 787	7.8207e+01	7.8159	6.198124	0.000188	1.883770	0.319119	0.000019
 788	7.8306e+01	7.8257	6.217677	0.000197	1.965673	0.332994	0.000020
 789	7.8406e+01	7.8379	6.237636	0.000201	2.006624	0.339931	0.000020
 790	7.8505e+01	7.8458	6.253930	0.000164	1.638061	0.277495	0.000016
 791	7.8605e+01	7.8556	6.275112	0.000213	2.129479	0.360743	0.000021
 792	7.8704e+01	7.8663	6.293442	0.000184	1.842818	0.312182	0.000018
 793	7.8804e+01	7.8773	6.313402	0.000201	2.006624	0.339931	0.000020
 794	7.8903e+01	7.8842	6.330918	0.000176	1.760915	0.298307	0.000018
 795	7.9003e+01	7.8956	6.354544	0.000238	2.375188	0.402368	0.000024
 796	7.9103e+01	7.9066	6.370430	0.000160	1.597109	0.270558	0.000016
 797	7.9202e+01	7.9160	6.387946	0.000176	1.760915	0.298307	0.000018
 798	7.9302e+01	7.9256	6.406684	0.000188	1.883770	0.319119	0.000019
 799	7.9401e+01	7.9375	6.424607	0.000180	1.801867	0.305244	0.000018
 800	7.9501e+01	7.9443	6.441308	0.000168	1.679012	0.284432	0.000017
 801	7.9600e+01	7.9565	6.459638	0.000184	1.842818	0.312182	0.000018
 802	7.9700e+01	7.9691	6.480820	0.000213	2.129479	0.360743	0.000021
 803	7.9799e+01	7.9780	6.498336	0.000176	1.760915	0.298307	0.000018
 804	7.9898e+01	7.9873	6.516666	0.000184	1.842818	0.312182	0.000018
 805	7.9998e+01	7.9948	6.537441	0.000209	2.088527	0.353806	0.000021
 806	8.0097e+01	8.0032	6.557400	0.000201	2.006624	0.339931	0.000020
 807	8.0197e+01	8.0137	6.572879	0.000156	1.556158	0.263620	0.000016
 808	8.0296e+01	8.0231	6.594876	0.000221	2.211382	0.374618	0.000022
 809	8.0396e+01	8.0344	6.614836	0.000201	2.006624	0.339931	0.000020
 810	8.0496e+01	8.0456	6.632351	0.000176	1.760915	0.298307	0.000018
 811	8.0595e+01	8.0593	6.653941	0.000217	2.170430	0.367681	0.000022
 812	8.0695e+01	8.0655	6.674715	0.000209	2.088527	0.353806	0.000021
 813	8.0794e+01	8.0752	6.695897	0.000213	2.129479	0.360743	0.000021
 814	8.0894e+01	8.0817	6.717079	0.000213	2.129479	0.360743	0.000021
 815	8.0993e+01	8.0933	6.737446	0.000205	2.047576	0.346869	0.000020
 816	8.1093e+01	8.1049	6.756184	0.000188	1.883770	0.319119	0.000019
 817	8.1192e+01	8.1179	6.773292	0.000172	1.719964	0.291370	0.000017
 818	8.1291e+01	8.1223	6.795288	0.000221	2.211382	0.374618	0.000022
 819	8.1391e+01	8.1350	6.815656	0.000205	2.047576	0.346869	0.000020
 820	8.1490e+01	8.1443	6.833986	0.000184	1.842818	0.312182	0.000018
 821	8.1590e+01	8.1533	6.852316	0.000184	1.842818	0.312182	0.000018
 822	8.1689e+01	8.1641	6.877164	0.000250	2.498043	0.423180	0.000025
 823	8.1789e+01	8.1741	6.893865	0.000168	1.679012	0.284432	0.000017
 824	8.1888e+01	8.1834	6.915454	0.000217	2.170430	0.367681	0.000022
 825	8.1988e+01	8.1937	6.937044	0.000217	2.170430	0.367681	0.000022
 826	8.2088e+01	8.2035	6.954967	0.000180	1.801867	0.305244	0.000018
 827	8.2187e+01	8.2132	6.976149	0.000213	2.129479	0.360743	0.000021
 828	8.2287e+01	8.2240	6.991220	0.000152	1.515206	0.256683	0.000015
 829	8.2386e+01	8.2352	7.008736	0.000176	1.760915	0.298307	0.000018
 830	8.2486e+01	8.2435	7.022993	0.000143	1.433303	0.242808	0.000014
 831	8.2585e+01	8.2528	7.042953	0.000201	2.006624	0.339931	0.000020
 832	8.2684e+01	8.2642	7.059654	0.000168	1.679012	0.284432	0.000017
 833	8.2784e+01	8.2751	7.075540	0.000160	1.597109	0.270558	0.000016
 834	8.2883e+01	8.2858	7.091834	0.000164	1.638061	0.277495	0.000016
 835	8.2983e+01	8.2935	7.112201	0.000205	2.047576	0.346869	0.000020
 836	8.3082e+01	8.3033	7.125236	0.000131	1.310449	0.221996	0.000013
 837	8.3182e+01	8.3134	7.143566	0.000184	1.842818	0.312182	0.000018
 838	8.3281e+01	8.3228	7.161082	0.000176	1.760915	0.298307	0.000018
 839	8.3381e+01	8.3327	7.179820	0.000188	1.883770	0.319119	0.000019
 840	8.3481e+01	8.3450	7.194891	0.000152	1.515206	0.256683	0.000015
 841	8.3580e+01	8.3505	7.208334	0.000135	1.351400	0.228933	0.000014
 842	8.3680e+01	8.3652	7.222183	0.000139	1.392352	0.235871	0.000014
 843	8.3779e+01	8.3742	7.242551	0.000205	2.047576	0.346869	0.000020
 844	8.3879e+01	8.3849	7.260066	0.000176	1.760915	0.298307	0.000018
 845	8.3978e+01	8.3927	7.273101	0.000131	1.310449	0.221996	0.000013
 846	8.4078e+01	8.4022	7.289802	0.000168	1.679012	0.284432	0.000017
 847	8.4177e+01	8.4126	7.308133	0.000184	1.842818	0.312182	0.000018
 848	8.4276e+01	8.4223	7.328907	0.000209	2.088527	0.353806	0.000021
 849	8.4376e+01	8.4326	7.342349	0.000135	1.351400	0.228933	0.000014
 850	8.4475e+01	8.4431	7.360273	0.000180	1.801867	0.305244	0.000018
 851	8.4575e+01	8.4525	7.383084	0.000229	2.293285	0.388493	0.000023
 852	8.4674e+01	8.4634	7.396526	0.000135	1.351400	0.228933	0.000014
 853	8.4774e+01	8.4741	7.416893	0.000205	2.047576	0.346869	0.000020
 854	8.4874e+01	8.4808	7.431558	0.000147	1.474255	0.249745	0.000015
 855	8.4973e+01	8.4927	7.448666	0.000172	1.719964	0.291370	0.000017
 856	8.5073e+01	8.5020	7.467811	0.000192	1.924721	0.326057	0.000019
 857	8.5172e+01	8.5163	7.488178	0.000205	2.047576	0.346869	0.000020
 858	8.5272e+01	8.5219	7.505287	0.000172	1.719964	0.291370	0.000017
 859	8.5371e+01	8.5345	7.521988	0.000168	1.679012	0.284432	0.000017
 860	8.5471e+01	8.5441	7.542762	0.000209	2.088527	0.353806	0.000021
 861	8.5570e+01	8.5537	7.558648	0.000160	1.597109	0.270558	0.000016
 862	8.5669e+01	8.5620	7.579016	0.000205	2.047576	0.346869	0.000020
 863	8.5769e+01	8.5714	7.594087	0.000152	1.515206	0.256683	0.000015
 864	8.5868e+01	8.5812	7.610381	0.000164	1.638061	0.277495	0.000016
 865	8.5968e+01	8.5948	7.629526	0.000192	1.924721	0.326057	0.000019
 866	8.6067e+01	8.6046	7.647042	0.000176	1.760915	0.298307	0.000018
 867	8.6167e+01	8.6126	7.663743	0.000168	1.679012	0.284432	0.000017
 868	8.6266e+01	8.6216	7.687776	0.000242	2.416140	0.409305	0.000024
 869	8.6366e+01	8.6301	7.703255	0.000156	1.556158	0.263620	0.000016
 870	8.6466e+01	8.6429	7.718734	0.000156	1.556158	0.263620	0.000016
 871	8.6565e+01	8.6500	7.737879	0.000192	1.924721	0.326057	0.000019
 872	8.6665e+01	8.6617	7.754580	0.000168	1.679012	0.284432	0.000017
 873	8.6764e+01	8.6710	7.775762	0.000213	2.129479	0.360743	0.000021
 874	8.6864e+01	8.6817	7.793278	0.000176	1.760915	0.298307	0.000018
 875	8.6963e+01	8.6922	7.812015	0.000188	1.883770	0.319119	0.000019
 876	8.7063e+01	8.7016	7.828716	0.000168	1.679012	0.284432	0.000017
 877	8.7162e+01	8.7116	7.848676	0.000201	2.006624	0.339931	0.000020
 878	8.7261e+01	8.7202	7.864563	0.000160	1.597109	0.270558	0.000016
 879	8.7361e+01	8.7299	7.882078	0.000176	1.760915	0.298307	0.000018
 880	8.7460e+01	8.7418	7.903260	0.000213	2.129479	0.360743	0.000021
 881	8.7560e+01	8.7533	7.919147	0.000160	1.597109	0.270558	0.000016
 882	8.7659e+01	8.7586	7.937884	0.000188	1.883770	0.319119	0.000019
 883	8.7759e+01	8.7720	7.954993	0.000172	1.719964	0.291370	0.000017
 884	8.7859e+01	8.7811	7.975360	0.000205	2.047576	0.346869	0.000020
 885	8.7958e+01	8.7913	7.993690	0.000184	1.842818	0.312182	0.000018
 886	8.8058e+01	8.8009	8.015687	0.000221	2.211382	0.374618	0.000022
 887	8.8157e+01	8.8094	8.033610	0.000180	1.801867	0.305244	0.000018
 888	8.8257e+01	8.8203	8.051533	0.000180	1.801867	0.305244	0.000018
 889	8.8356e+01	8.8297	8.064975	0.000135	1.351400	0.228933	0.000014
 890	8.8456e+01	8.8407	8.086972	0.000221	2.211382	0.374618	0.000022
 891	8.8555e+01	8.8528	8.103265	0.000164	1.638061	0.277495	0.000016
 892	8.8654e+01	8.8593	8.119966	0.000168	1.679012	0.284432	0.000017
 893	8.8754e+01	8.8698	8.135038	0.000152	1.515206	0.256683	0.000015
 894	8.8853e+01	8.8800	8.155405	0.000205	2.047576	0.346869	0.000020
 895	8.8953e+01	8.8917	8.171292	0.000160	1.597109	0.270558	0.000016
 896	8.9052e+01	8.9015	8.187178	0.000160	1.597109	0.270558	0.000016
 897	8.9152e+01	8.9101	8.205916	0.000188	1.883770	0.319119	0.000019
 898	8.9251e+01	8.9178	8.217729	0.000119	1.187594	0.201184	0.000012
 899	8.9351e+01	8.9288	8.240540	0.000229	2.293285	0.388493	0.000023
 900	8.9451e+01	8.9374	8.257241	0.000168	1.679012	0.284432	0.000017
 901	8.9550e+01	8.9530	8.273942	0.000168	1.679012	0.284432	0.000017
 902	8.9650e+01	8.9616	8.290643	0.000168	1.679012	0.284432	0.000017
 903	8.9749e+01	8.9697	8.309788	0.000192	1.924721	0.326057	0.000019
 904	8.9849e+01	8.9817	8.325674	0.000160	1.597109	0.270558	0.000016
 905	8.9948e+01	8.9922	8.342783	0.000172	1.719964	0.291370	0.000017
 906	9.0047e+01	8.9990	8.359891	0.000172	1.719964	0.291370	0.000017
 907	9.0147e+01	9.0137	8.378222	0.000184	1.842818	0.312182	0.000018
 908	9.0246e+01	9.0186	8.393701	0.000156	1.556158	0.263620	0.000016
 909	9.0346e+01	9.0311	8.412031	0.000184	1.842818	0.312182	0.000018
 910	9.0445e+01	9.0394	8.431991	0.000201	2.006624	0.339931	0.000020
 911	9.0545e+01	9.0479	8.452358	0.000205	2.047576	0.346869	0.000020
 912	9.0644e+01	9.0591	8.464578	0.000123	1.228546	0.208121	0.000012
 913	9.0744e+01	9.0691	8.488611	0.000242	2.416140	0.409305	0.000024
 914	9.0844e+01	9.0784	8.509386	0.000209	2.088527	0.353806	0.000021
 915	9.0943e+01	9.0878	8.526494	0.000172	1.719964	0.291370	0.000017
 916	9.1043e+01	9.1022	8.549713	0.000233	2.334236	0.395430	0.000023
 917	9.1142e+01	9.1056	8.570080	0.000205	2.047576	0.346869	0.000020
 918	9.1242e+01	9.1184	8.589225	0.000192	1.924721	0.326057	0.000019
 919	9.1341e+01	9.1303	8.610000	0.000209	2.088527	0.353806	0.000021
 920	9.1441e+01	9.1401	8.629145	0.000192	1.924721	0.326057	0.000019
 921	9.1540e+01	9.1479	8.648697	0.000197	1.965673	0.332994	0.000020
 922	9.1639e+01	9.1610	8.667435	0.000188	1.883770	0.319119	0.000019
 923	9.1739e+01	9.1682	8.687395	0.000201	2.006624	0.339931	0.000020
 924	9.1838e+01	9.1763	8.708169	0.000209	2.088527	0.353806	0.000021
 925	9.1938e+01	9.1885	8.731795	0.000238	2.375188	0.402368	0.000024
 926	9.2037e+01	9.1986	8.755421	0.000238	2.375188	0.402368	0.000024
 927	9.2137e+01	9.2104	8.774159	0.000188	1.883770	0.319119	0.000019
 928	9.2237e+01	9.2188	8.794526	0.000205	2.047576	0.346869	0.000020
 929	9.2336e+01	9.2294	8.815707	0.000213	2.129479	0.360743	0.000021
 930	9.2436e+01	9.2405	8.836482	0.000209	2.088527	0.353806	0.000021
 931	9.2535e+01	9.2480	8.853590	0.000172	1.719964	0.291370	0.000017
 932	9.2635e+01	9.2572	8.873957	0.000205	2.047576	0.346869	0.000020
 933	9.2734e+01	9.2676	8.890659	0.000168	1.679012	0.284432	0.000017
 934	9.2834e+01	9.2775	8.912248	0.000217	2.170430	0.367681	0.000022
 935	9.2933e+01	9.2879	8.931393	0.000192	1.924721	0.326057	0.000019
 936	9.3032e+01	9.2950	8.949316	0.000180	1.801867	0.305244	0.000018
 937	9.3132e+01	9.3066	8.970498	0.000213	2.129479	0.360743	0.000021
 938	9.3231e+01	9.3167	8.989643	0.000192	1.924721	0.326057	0.000019
 939	9.3331e+01	9.3295	9.007158	0.000176	1.760915	0.298307	0.000018
 940	9.3430e+01	9.3390	9.027526	0.000205	2.047576	0.346869	0.000020
 941	9.3530e+01	9.3485	9.045449	0.000180	1.801867	0.305244	0.000018
 942	9.3629e+01	9.3591	9.064186	0.000188	1.883770	0.319119	0.000019
 943	9.3729e+01	9.3677	9.083739	0.000197	1.965673	0.332994	0.000020
 944	9.3829e+01	9.3765	9.104513	0.000209	2.088527	0.353806	0.000021
 945	9.3928e+01	9.3860	9.122436	0.000180	1.801867	0.305244	0.000018
 946	9.4028e+01	9.3964	9.141582	0.000192	1.924721	0.326057	0.000019
 947	9.4127e+01	9.4067	9.162763	0.000213	2.129479	0.360743	0.000021
 948	9.4227e+01	9.4184	9.185982	0.000233	2.334236	0.395430	0.000023
 949	9.4326e+01	9.4273	9.199017	0.000131	1.310449	0.221996	0.000013
 950	9.4425e+01	9.4385	9.219791	0.000209	2.088527	0.353806	0.000021
 951	9.4525e+01	9.4470	9.238529	0.000188	1.883770	0.319119	0.000019
 952	9.4624e+01	9.4592	9.258896	0.000205	2.047576	0.346869	0.000020
 953	9.4724e+01	9.4654	9.273153	0.000143	1.433303	0.242808	0.000014
 954	9.4823e+01	9.4764	9.300445	0.000274	2.743752	0.464804	0.000027
 955	9.4923e+01	9.4861	9.315517	0.000152	1.515206	0.256683	0.000015
 956	9.5022e+01	9.4976	9.333033	0.000176	1.760915	0.298307	0.000018
 957	9.5122e+01	9.5054	9.351363	0.000184	1.842818	0.312182	0.000018
 958	9.5222e+01	9.5158	9.369693	0.000184	1.842818	0.312182	0.000018
 959	9.5321e+01	9.5264	9.389653	0.000201	2.006624	0.339931	0.000020
 960	9.5421e+01	9.5361	9.411242	0.000217	2.170430	0.367681	0.000022
 961	9.5520e+01	9.5466	9.428351	0.000172	1.719964	0.291370	0.000017
 962	9.5620e+01	9.5572	9.447496	0.000192	1.924721	0.326057	0.000019
 963	9.5719e+01	9.5661	9.467456	0.000201	2.006624	0.339931	0.000020
 964	9.5819e+01	9.5753	9.491489	0.000242	2.416140	0.409305	0.000024
 965	9.5918e+01	9.5867	9.505746	0.000143	1.433303	0.242808	0.000014
 966	9.6017e+01	9.5972	9.523262	0.000176	1.760915	0.298307	0.000018
 967	9.6117e+01	9.6033	9.541592	0.000184	1.842818	0.312182	0.000018
 968	9.6216e+01	9.6153	9.557478	0.000160	1.597109	0.270558	0.000016
 969	9.6316e+01	9.6252	9.574179	0.000168	1.679012	0.284432	0.000017
 970	9.6415e+01	9.6375	9.595768	0.000217	2.170430	0.367681	0.000022
 971	9.6515e+01	9.6455	9.611655	0.000160	1.597109	0.270558	0.000016
 972	9.6615e+01	9.6561	9.634059	0.000225	2.252333	0.381556	0.000023
 973	9.6714e+01	9.6644	9.654018	0.000201	2.006624	0.339931	0.000020
 974	9.6814e+01	9.6743	9.673978	0.000201	2.006624	0.339931	0.000020
 975	9.6913e+01	9.6861	9.692716	0.000188	1.883770	0.319119	0.000019
 976	9.7013e+01	9.6938	9.712268	0.000197	1.965673	0.332994	0.000020
 977	9.7112e+01	9.7060	9.733043	0.000209	2.088527	0.353806	0.000021
 978	9.7212e+01	9.7192	9.754225	0.000213	2.129479	0.360743	0.000021
 979	9.7311e+01	9.7257	9.777036	0.000229	2.293285	0.388493	0.000023
 980	9.7410e+01	9.7353	9.796588	0.000197	1.965673	0.332994	0.000020
 981	9.7510e+01	9.7477	9.813289	0.000168	1.679012	0.284432	0.000017
 982	9.7609e+01	9.7565	9.836101	0.000229	2.293285	0.388493	0.000023
 983	9.7709e+01	9.7665	9.851172	0.000152	1.515206	0.256683	0.000015
 984	9.7808e+01	9.7756	9.872761	0.000217	2.170430	0.367681	0.000022
 985	9.7908e+01	9.7852	9.893536	0.000209	2.088527	0.353806	0.000021
 986	9.8007e+01	9.7961	9.918384	0.000250	2.498043	0.423180	0.000025
 987	9.8107e+01	9.8047	9.935492	0.000172	1.719964	0.291370	0.000017
 988	9.8207e+01	9.8154	9.955452	0.000201	2.006624	0.339931	0.000020
 989	9.8306e+01	9.8256	9.976226	0.000209	2.088527	0.353806	0.000021
 990	9.8406e+01	9.8331	9.997001	0.000209	2.088527	0.353806	0.000021
 991	9.8505e+01	9.8446	10.016961	0.000201	2.006624	0.339931	0.000020
 992	9.8605e+01	9.8575	10.038550	0.000217	2.170430	0.367681	0.000022
 993	9.8704e+01	9.8663	10.058102	0.000197	1.965673	0.332994	0.000020
 994	9.8803e+01	9.8767	10.076025	0.000180	1.801867	0.305244	0.000018
 995	9.8903e+01	9.8842	10.095578	0.000197	1.965673	0.332994	0.000020
 996	9.9002e+01	9.8953	10.112279	0.000168	1.679012	0.284432	0.000017
 997	9.9102e+01	9.9052	10.133461	0.000213	2.129479	0.360743	0.000021
 998	9.9201e+01	9.9126	10.151791	0.000184	1.842818	0.312182	0.000018
 999	9.9301e+01	9.9244	10.164826	0.000131	1.310449	0.221996	0.000013
1000	9.9400e+01	9.9338	10.180712	0.000160	1.597109	0.270558	0.000016
1001	9.9500e+01	9.9442	10.200672	0.000201	2.006624	0.339931	0.000020
1002	9.9600e+01	9.9536	10.219410	0.000188	1.883770	0.319119	0.000019
1003	9.9699e+01	9.9658	10.234482	0.000152	1.515206	0.256683	0.000015
1004	9.9799e+01	9.9741	10.249553	0.000152	1.515206	0.256683	0.000015
1005	9.9898e+01	9.9860	10.269106	0.000197	1.965673	0.332994	0.000020
1006	9.9998e+01	9.9928	10.285807	0.000168	1.679012	0.284432	0.000017
1007	1.0010e+02	9.9832	10.275623	0.000102	1.023788	0.173434	-0.000010
1008	1.0020e+02	9.9716	10.256885	0.000188	1.883770	0.319119	-0.000019
1009	1.0030e+02	9.9634	10.243850	0.000131	1.310449	0.221996	-0.000013
1010	1.0040e+02	9.9548	10.230408	0.000135	1.351400	0.228933	-0.000014
1011	1.0050e+02	9.9457	10.213707	0.000168	1.679012	0.284432	-0.000017
1012	1.0059e+02	9.9337	10.200672	0.000131	1.310449	0.221996	-0.000013
1013	1.0069e+02	9.9252	10.185600	0.000152	1.515206	0.256683	-0.000015
1014	1.0079e+02	9.9142	10.168085	0.000176	1.760915	0.298307	-0.000018
1015	1.0089e+02	9.9054	10.156272	0.000119	1.187594	0.201184	-0.000012
1016	1.0099e+02	9.8950	10.143237	0.000131	1.310449	0.221996	-0.000013
1017	1.0109e+02	9.8841	10.127351	0.000160	1.597109	0.270558	-0.000016
1018	1.0119e+02	9.8765	10.113501	0.000139	1.392352	0.235871	-0.000014
1019	1.0129e+02	9.8640	10.098429	0.000152	1.515206	0.256683	-0.000015
1020	1.0139e+02	9.8535	10.083358	0.000152	1.515206	0.256683	-0.000015
1021	1.0149e+02	9.8462	10.071545	0.000119	1.187594	0.201184	-0.000012
1022	1.0159e+02	9.8340	10.058102	0.000135	1.351400	0.228933	-0.000014
1023	1.0169e+02	9.8242	10.043845	0.000143	1.433303	0.242808	-0.000014
1024	1.0179e+02	9.8156	10.031625	0.000123	1.228546	0.208121	-0.000012
1025	1.0189e+02	9.8026	10.017775	0.000139	1.392352	0.235871	-0.000014
1026	1.0199e+02	9.7951	10.006777	0.000111	1.105691	0.187309	-0.000011
1027	1.0209e+02	9.7856	9.992927	0.000139	1.392352	0.235871	-0.000014
1028	1.0219e+02	9.7738	9.975819	0.000172	1.719964	0.291370	-0.000017
1029	1.0229e+02	9.7656	9.961969	0.000139	1.392352	0.235871	-0.000014
1030	1.0239e+02	9.7542	9.953008	0.000090	0.900933	0.152622	-0.000009
1031	1.0248e+02	9.7463	9.928975	0.000242	2.416140	0.409305	-0.000024
1032	1.0258e+02	9.7382	9.915940	0.000131	1.310449	0.221996	-0.000013
1033	1.0268e+02	9.7262	9.902497	0.000135	1.351400	0.228933	-0.000014
1034	1.0278e+02	9.7158	9.886204	0.000164	1.638061	0.277495	-0.000016
1035	1.0288e+02	9.7054	9.871132	0.000152	1.515206	0.256683	-0.000015
1036	1.0298e+02	9.6974	9.858912	0.000123	1.228546	0.208121	-0.000012
1037	1.0308e+02	9.6870	9.845877	0.000131	1.310449	0.221996	-0.000013
1038	1.0318e+02	9.6754	9.832435	0.000135	1.351400	0.228933	-0.000014
1039	1.0328e+02	9.6661	9.816141	0.000164	1.638061	0.277495	-0.000016
1040	1.0338e+02	9.6564	9.799440	0.000168	1.679012	0.284432	-0.000017
1041	1.0348e+02	9.6449	9.787219	0.000123	1.228546	0.208121	-0.000012
1042	1.0358e+02	9.6397	9.774185	0.000131	1.310449	0.221996	-0.000013
1043	1.0368e+02	9.6283	9.759520	0.000147	1.474255	0.249745	-0.000015
1044	1.0378e+02	9.6145	9.743226	0.000164	1.638061	0.277495	-0.000016
1045	1.0388e+02	9.6057	9.726525	0.000168	1.679012	0.284432	-0.000017
1046	1.0398e+02	9.5965	9.715527	0.000111	1.105691	0.187309	-0.000011
1047	1.0408e+02	9.5850	9.698011	0.000176	1.760915	0.298307	-0.000018
1048	1.0418e+02	9.5767	9.684569	0.000135	1.351400	0.228933	-0.000014
1049	1.0428e+02	9.5654	9.667868	0.000168	1.679012	0.284432	-0.000017
1050	1.0438e+02	9.5581	9.655648	0.000123	1.228546	0.208121	-0.000012
1051	1.0447e+02	9.5477	9.639354	0.000164	1.638061	0.277495	-0.000016
1052	1.0457e+02	9.5361	9.629578	0.000098	0.982836	0.166497	-0.000010
1053	1.0467e+02	9.5288	9.612877	0.000168	1.679012	0.284432	-0.000017
1054	1.0477e+02	9.5170	9.600249	0.000127	1.269497	0.215059	-0.000013
1055	1.0487e+02	9.5075	9.585178	0.000152	1.515206	0.256683	-0.000015
1056	1.0497e+02	9.4973	9.567662	0.000176	1.760915	0.298307	-0.000018
1057	1.0507e+02	9.4888	9.557478	0.000102	1.023788	0.173434	-0.000010
1058	1.0517e+02	9.4778	9.541592	0.000160	1.597109	0.270558	-0.000016
1059	1.0527e+02	9.4657	9.522039	0.000197	1.965673	0.332994	-0.000020
1060	1.0537e+02	9.4558	9.505338	0.000168	1.679012	0.284432	-0.000017
1061	1.0547e+02	9.4465	9.489859	0.000156	1.556158	0.263620	-0.000016
1062	1.0557e+02	9.4385	9.473158	0.000168	1.679012	0.284432	-0.000017
1063	1.0567e+02	9.4247	9.456050	0.000172	1.719964	0.291370	-0.000017
1064	1.0577e+02	9.4154	9.437720	0.000184	1.842818	0.312182	-0.000018
1065	1.0587e+02	9.4065	9.423463	0.000143	1.433303	0.242808	-0.000014
1066	1.0597e+02	9.3996	9.410020	0.000135	1.351400	0.228933	-0.000014
1067	1.0607e+02	9.3867	9.394949	0.000152	1.515206	0.256683	-0.000015
1068	1.0617e+02	9.3768	9.377840	0.000172	1.719964	0.291370	-0.000017
1069	1.0627e+02	9.3661	9.362361	0.000156	1.556158	0.263620	-0.000016
1070	1.0637e+02	9.3575	9.346475	0.000160	1.597109	0.270558	-0.000016
1071	1.0647e+02	9.3478	9.328144	0.000184	1.842818	0.312182	-0.000018
1072	1.0656e+02	9.3397	9.310629	0.000176	1.760915	0.298307	-0.000018
1073	1.0666e+02	9.3268	9.291891	0.000188	1.883770	0.319119	-0.000019
1074	1.0676e+02	9.3185	9.276412	0.000156	1.556158	0.263620	-0.000016
1075	1.0686e+02	9.3091	9.263377	0.000131	1.310449	0.221996	-0.000013
1076	1.0696e+02	9.2991	9.246269	0.000172	1.719964	0.291370	-0.000017
1077	1.0706e+02	9.2880	9.230790	0.000156	1.556158	0.263620	-0.000016
1078	1.0716e+02	9.2789	9.216125	0.000147	1.474255	0.249745	-0.000015
1079	1.0726e+02	9.2711	9.201868	0.000143	1.433303	0.242808	-0.000014
1080	1.0736e+02	9.2573	9.188833	0.000131	1.310449	0.221996	-0.000013
1081	1.0746e+02	9.2481	9.172540	0.000164	1.638061	0.277495	-0.000016
1082	1.0756e+02	9.2371	9.157875	0.000147	1.474255	0.249745	-0.000015
1083	1.0766e+02	9.2274	9.146877	0.000111	1.105691	0.187309	-0.000011
1084	1.0776e+02	9.2188	9.129361	0.000176	1.760915	0.298307	-0.000018
1085	1.0786e+02	9.2090	9.117141	0.000123	1.228546	0.208121	-0.000012
1086	1.0796e+02	9.1983	9.107772	0.000094	0.941885	0.159560	-0.000009
1087	1.0806e+02	9.1875	9.091478	0.000164	1.638061	0.277495	-0.000016
1088	1.0816e+02	9.1761	9.076407	0.000152	1.515206	0.256683	-0.000015
1089	1.0826e+02	9.1714	9.062150	0.000143	1.433303	0.242808	-0.000014
1090	1.0836e+02	9.1583	9.051966	0.000102	1.023788	0.173434	-0.000010
1091	1.0845e+02	9.1491	9.035672	0.000164	1.638061	0.277495	-0.000016
1092	1.0855e+02	9.1419	9.024267	0.000115	1.146642	0.194246	-0.000011
1093	1.0865e+02	9.1273	9.010010	0.000143	1.433303	0.242808	-0.000014
1094	1.0875e+02	9.1171	8.998604	0.000115	1.146642	0.194246	-0.000011
1095	1.0885e+02	9.1060	8.982718	0.000160	1.597109	0.270558	-0.000016
1096	1.0895e+02	9.0981	8.972942	0.000098	0.982836	0.166497	-0.000010
1097	1.0905e+02	9.0903	8.958277	0.000147	1.474255	0.249745	-0.000015
1098	1.0915e+02	9.0791	8.944428	0.000139	1.392352	0.235871	-0.000014
1099	1.0925e+02	9.0706	8.927319	0.000172	1.719964	0.291370	-0.000017
1100	1.0935e+02	9.0590	8.913877	0.000135	1.351400	0.228933	-0.000014
1101	1.0945e+02	9.0466	8.897176	0.000168	1.679012	0.284432	-0.000017
1102	1.0955e+02	9.0361	8.884548	0.000127	1.269497	0.215059	-0.000013
1103	1.0965e+02	9.0302	8.871513	0.000131	1.310449	0.221996	-0.000013
1104	1.0975e+02	9.0221	8.851146	0.000205	2.047576	0.346869	-0.000020
1105	1.0985e+02	9.0088	8.840555	0.000106	1.064739	0.180372	-0.000011
1106	1.0995e+02	9.0000	8.823447	0.000172	1.719964	0.291370	-0.000017
1107	1.1005e+02	8.9912	8.806339	0.000172	1.719964	0.291370	-0.000017
1108	1.1015e+02	8.9786	8.790452	0.000160	1.597109	0.270558	-0.000016
1109	1.1025e+02	8.9686	8.778232	0.000123	1.228546	0.208121	-0.000012
1110	1.1035e+02	8.9588	8.760716	0.000176	1.760915	0.298307	-0.000018
1111	1.1044e+02	8.9503	8.748903	0.000119	1.187594	0.201184	-0.000012
1112	1.1054e+02	8.9382	8.733017	0.000160	1.597109	0.270558	-0.000016
1113	1.1064e+02	8.9315	8.722426	0.000106	1.064739	0.180372	-0.000011
1114	1.1074e+02	8.9187	8.705318	0.000172	1.719964	0.291370	-0.000017
1115	1.1084e+02	8.9106	8.691875	0.000135	1.351400	0.228933	-0.000014
1116	1.1094e+02	8.9017	8.673952	0.000180	1.801867	0.305244	-0.000018
1117	1.1104e+02	8.8916	8.656029	0.000180	1.801867	0.305244	-0.000018
1118	1.1114e+02	8.8806	8.642587	0.000135	1.351400	0.228933	-0.000014
1119	1.1124e+02	8.8708	8.627515	0.000152	1.515206	0.256683	-0.000015
1120	1.1134e+02	8.8619	8.614073	0.000135	1.351400	0.228933	-0.000014
1121	1.1144e+02	8.8510	8.592484	0.000217	2.170430	0.367681	-0.000022
1122	1.1154e+02	8.8393	8.583522	0.000090	0.900933	0.152622	-0.000009
1123	1.1164e+02	8.8287	8.566821	0.000168	1.679012	0.284432	-0.000017
1124	1.1174e+02	8.8224	8.551342	0.000156	1.556158	0.263620	-0.000016
1125	1.1184e+02	8.8110	8.535456	0.000160	1.597109	0.270558	-0.000016
1126	1.1194e+02	8.8026	8.518755	0.000168	1.679012	0.284432	-0.000017
1127	1.1204e+02	8.7907	8.506127	0.000127	1.269497	0.215059	-0.000013
1128	1.1214e+02	8.7793	8.490241	0.000160	1.597109	0.270558	-0.000016
1129	1.1224e+02	8.7704	8.473540	0.000168	1.679012	0.284432	-0.000017
1130	1.1234e+02	8.7611	8.460912	0.000127	1.269497	0.215059	-0.000013
1131	1.1244e+02	8.7527	8.440138	0.000209	2.088527	0.353806	-0.000021
1132	1.1253e+02	8.7422	8.428732	0.000115	1.146642	0.194246	-0.000011
1133	1.1263e+02	8.7341	8.411216	0.000176	1.760915	0.298307	-0.000018
1134	1.1273e+02	8.7220	8.395330	0.000160	1.597109	0.270558	-0.000016
1135	1.1283e+02	8.7098	8.379851	0.000156	1.556158	0.263620	-0.000016
1136	1.1293e+02	8.7012	8.361113	0.000188	1.883770	0.319119	-0.000019
1137	1.1303e+02	8.6914	8.345227	0.000160	1.597109	0.270558	-0.000016
1138	1.1313e+02	8.6823	8.325674	0.000197	1.965673	0.332994	-0.000020
1139	1.1323e+02	8.6723	8.309788	0.000160	1.597109	0.270558	-0.000016
1140	1.1333e+02	8.6618	8.298382	0.000115	1.146642	0.194246	-0.000011
1141	1.1343e+02	8.6527	8.278830	0.000197	1.965673	0.332994	-0.000020
1142	1.1353e+02	8.6426	8.262129	0.000168	1.679012	0.284432	-0.000017
1143	1.1363e+02	8.6320	8.249501	0.000127	1.269497	0.215059	-0.000013
1144	1.1373e+02	8.6198	8.235244	0.000143	1.433303	0.242808	-0.000014
1145	1.1383e+02	8.6101	8.219765	0.000156	1.556158	0.263620	-0.000016
1146	1.1393e+02	8.6015	8.208767	0.000111	1.105691	0.187309	-0.000011
1147	1.1403e+02	8.5914	8.187585	0.000213	2.129479	0.360743	-0.000021
1148	1.1413e+02	8.5819	8.177402	0.000102	1.023788	0.173434	-0.000010
1149	1.1423e+02	8.5722	8.164367	0.000131	1.310449	0.221996	-0.000013
1150	1.1433e+02	8.5613	8.147258	0.000172	1.719964	0.291370	-0.000017
1151	1.1442e+02	8.5523	8.133409	0.000139	1.392352	0.235871	-0.000014
1152	1.1452e+02	8.5438	8.113449	0.000201	2.006624	0.339931	-0.000020
1153	1.1462e+02	8.5331	8.100414	0.000131	1.310449	0.221996	-0.000013
1154	1.1472e+02	8.5244	8.086972	0.000135	1.351400	0.228933	-0.000014
1155	1.1482e+02	8.5139	8.070271	0.000168	1.679012	0.284432	-0.000017
1156	1.1492e+02	8.5011	8.056828	0.000135	1.351400	0.228933	-0.000014
1157	1.1502e+02	8.4933	8.046645	0.000102	1.023788	0.173434	-0.000010
1158	1.1512e+02	8.4824	8.031980	0.000147	1.474255	0.249745	-0.000015
1159	1.1522e+02	8.4723	8.014465	0.000176	1.760915	0.298307	-0.000018
1160	1.1532e+02	8.4630	8.000615	0.000139	1.392352	0.235871	-0.000014
1161	1.1542e+02	8.4542	7.982692	0.000180	1.801867	0.305244	-0.000018
1162	1.1552e+02	8.4430	7.965176	0.000176	1.760915	0.298307	-0.000018
1163	1.1562e+02	8.4351	7.950105	0.000152	1.515206	0.256683	-0.000015
1164	1.1572e+02	8.4219	7.933811	0.000164	1.638061	0.277495	-0.000016
1165	1.1582e+02	8.4139	7.915888	0.000180	1.801867	0.305244	-0.000018
1166	1.1592e+02	8.4003	7.896335	0.000197	1.965673	0.332994	-0.000020
1167	1.1602e+02	8.3939	7.878820	0.000176	1.760915	0.298307	-0.000018
1168	1.1612e+02	8.3842	7.862526	0.000164	1.638061	0.277495	-0.000016
1169	1.1622e+02	8.3742	7.839307	0.000233	2.334236	0.395430	-0.000023
1170	1.1632e+02	8.3624	7.825865	0.000135	1.351400	0.228933	-0.000014
1171	1.1642e+02	8.3537	7.805091	0.000209	2.088527	0.353806	-0.000021
1172	1.1651e+02	8.3437	7.787982	0.000172	1.719964	0.291370	-0.000017
1173	1.1661e+02	8.3325	7.770874	0.000172	1.719964	0.291370	-0.000017
1174	1.1671e+02	8.3203	7.751729	0.000192	1.924721	0.326057	-0.000019
1175	1.1681e+02	8.3155	7.734213	0.000176	1.760915	0.298307	-0.000018
1176	1.1691e+02	8.3061	7.713439	0.000209	2.088527	0.353806	-0.000021
1177	1.1701e+02	8.2906	7.695515	0.000180	1.801867	0.305244	-0.000018
1178	1.1711e+02	8.2829	7.676370	0.000192	1.924721	0.326057	-0.000019
1179	1.1721e+02	8.2772	7.658040	0.000184	1.842818	0.312182	-0.000018
1180	1.1731e+02	8.2631	7.638488	0.000197	1.965673	0.332994	-0.000020
1181	1.1741e+02	8.2529	7.621786	0.000168	1.679012	0.284432	-0.000017
1182	1.1751e+02	8.2434	7.603456	0.000184	1.842818	0.312182	-0.000018
1183	1.1761e+02	8.2343	7.585940	0.000176	1.760915	0.298307	-0.000018
1184	1.1771e+02	8.2246	7.569239	0.000168	1.679012	0.284432	-0.000017
1185	1.1781e+02	8.2158	7.553353	0.000160	1.597109	0.270558	-0.000016
1186	1.1791e+02	8.2038	7.532578	0.000209	2.088527	0.353806	-0.000021
1187	1.1801e+02	8.1927	7.516692	0.000160	1.597109	0.270558	-0.000016
1188	1.1811e+02	8.1849	7.500806	0.000160	1.597109	0.270558	-0.000016
1189	1.1821e+02	8.1755	7.482068	0.000188	1.883770	0.319119	-0.000019
1190	1.1831e+02	8.1615	7.465774	0.000164	1.638061	0.277495	-0.000016
1191	1.1841e+02	8.1545	7.446222	0.000197	1.965673	0.332994	-0.000020
1192	1.1850e+02	8.1433	7.429521	0.000168	1.679012	0.284432	-0.000017
1193	1.1860e+02	8.1348	7.412820	0.000168	1.679012	0.284432	-0.000017
1194	1.1870e+02	8.1219	7.397748	0.000152	1.515206	0.256683	-0.000015
1195	1.1880e+02	8.1158	7.378196	0.000197	1.965673	0.332994	-0.000020
1196	1.1890e+02	8.1055	7.363124	0.000152	1.515206	0.256683	-0.000015
1197	1.1900e+02	8.0962	7.345608	0.000176	1.760915	0.298307	-0.000018
1198	1.1910e+02	8.0860	7.326056	0.000197	1.965673	0.332994	-0.000020
1199	1.1920e+02	8.0757	7.308133	0.000180	1.801867	0.305244	-0.000018
1200	1.1930e+02	8.0651	7.289802	0.000184	1.842818	0.312182	-0.000018
1201	1.1940e+02	8.0546	7.276360	0.000135	1.351400	0.228933	-0.000014
1202	1.1950e+02	8.0444	7.255178	0.000213	2.129479	0.360743	-0.000021
1203	1.1960e+02	8.0363	7.240921	0.000143	1.433303	0.242808	-0.000014
1204	1.1970e+02	8.0264	7.225442	0.000156	1.556158	0.263620	-0.000016
1205	1.1980e+02	8.0150	7.202224	0.000233	2.334236	0.395430	-0.000023
1206	1.1990e+02	8.0044	7.186745	0.000156	1.556158	0.263620	-0.000016
1207	1.2000e+02	7.9961	7.171673	0.000152	1.515206	0.256683	-0.000015
1208	1.2010e+02	7.9873	7.150898	0.000209	2.088527	0.353806	-0.000021
1209	1.2020e+02	7.9751	7.137456	0.000135	1.351400	0.228933	-0.000014
1210	1.2030e+02	7.9674	7.120348	0.000172	1.719964	0.291370	-0.000017
1211	1.2039e+02	7.9543	7.102017	0.000184	1.842818	0.312182	-0.000018
1212	1.2049e+02	7.9436	7.084909	0.000172	1.719964	0.291370	-0.000017
1213	1.2059e+02	7.9359	7.068208	0.000168	1.679012	0.284432	-0.000017
1214	1.2069e+02	7.9261	7.050692	0.000176	1.760915	0.298307	-0.000018
1215	1.2079e+02	7.9147	7.033176	0.000176	1.760915	0.298307	-0.000018
1216	1.2089e+02	7.9070	7.017290	0.000160	1.597109	0.270558	-0.000016
1217	1.2099e+02	7.8947	6.998960	0.000184	1.842818	0.312182	-0.000018
1218	1.2109e+02	7.8846	6.981037	0.000180	1.801867	0.305244	-0.000018
1219	1.2119e+02	7.8760	6.967187	0.000139	1.392352	0.235871	-0.000014
1220	1.2129e+02	7.8663	6.951708	0.000156	1.556158	0.263620	-0.000016
1221	1.2139e+02	7.8578	6.935822	0.000160	1.597109	0.270558	-0.000016
1222	1.2149e+02	7.8457	6.915047	0.000209	2.088527	0.353806	-0.000021
1223	1.2159e+02	7.8350	6.899975	0.000152	1.515206	0.256683	-0.000015
1224	1.2169e+02	7.8252	6.881238	0.000188	1.883770	0.319119	-0.000019
1225	1.2179e+02	7.8167	6.864944	0.000164	1.638061	0.277495	-0.000016
1226	1.2189e+02	7.8062	6.842133	0.000229	2.293285	0.388493	-0.000023
1227	1.2199e+02	7.7966	6.826654	0.000156	1.556158	0.263620	-0.000016
1228	1.2209e+02	7.7848	6.809953	0.000168	1.679012	0.284432	-0.000017
1229	1.2219e+02	7.7755	6.788364	0.000217	2.170430	0.367681	-0.000022
1230	1.2229e+02	7.7654	6.769219	0.000192	1.924721	0.326057	-0.000019
1231	1.2239e+02	7.7583	6.752517	0.000168	1.679012	0.284432	-0.000017
1232	1.2248e+02	7.7451	6.735409	0.000172	1.719964	0.291370	-0.000017
1233	1.2258e+02	7.7377	6.717486	0.000180	1.801867	0.305244	-0.000018
1234	1.2268e+02	7.7280	6.694675	0.000229	2.293285	0.388493	-0.000023
1235	1.2278e+02	7.7163	6.682455	0.000123	1.228546	0.208121	-0.000012
1236	1.2288e+02	7.7065	6.658829	0.000238	2.375188	0.402368	-0.000024
1237	1.2298e+02	7.6984	6.646608	0.000123	1.228546	0.208121	-0.000012
1238	1.2308e+02	7.6871	6.626649	0.000201	2.006624	0.339931	-0.000020
1239	1.2318e+02	7.6777	6.604245	0.000225	2.252333	0.381556	-0.000023
1240	1.2328e+02	7.6655	6.587544	0.000168	1.679012	0.284432	-0.000017
1241	1.2338e+02	7.6583	6.570435	0.000172	1.719964	0.291370	-0.000017
1242	1.2348e+02	7.6473	6.550476	0.000201	2.006624	0.339931	-0.000020
1243	1.2358e+02	7.6384	6.530923	0.000197	1.965673	0.332994	-0.000020
1244	1.2368e+02	7.6285	6.510963	0.000201	2.006624	0.339931	-0.000020
1245	1.2378e+02	7.6167	6.495077	0.000160	1.597109	0.270558	-0.000016
1246	1.2388e+02	7.6104	6.476339	0.000188	1.883770	0.319119	-0.000019
1247	1.2398e+02	7.5977	6.460860	0.000156	1.556158	0.263620	-0.000016
1248	1.2408e+02	7.5867	6.448233	0.000127	1.269497	0.215059	-0.000013
1249	1.2418e+02	7.5774	6.431939	0.000164	1.638061	0.277495	-0.000016
1250	1.2428e+02	7.5656	6.415645	0.000164	1.638061	0.277495	-0.000016
1251	1.2438e+02	7.5591	6.400981	0.000147	1.474255	0.249745	-0.000015
1252	1.2447e+02	7.5502	6.385502	0.000156	1.556158	0.263620	-0.000016
1253	1.2457e+02	7.5361	6.369208	0.000164	1.638061	0.277495	-0.000016
1254	1.2467e+02	7.5278	6.350878	0.000184	1.842818	0.312182	-0.000018
1255	1.2477e+02	7.5185	6.340287	0.000106	1.064739	0.180372	-0.000011
1256	1.2487e+02	7.5073	6.320734	0.000197	1.965673	0.332994	-0.000020
1257	1.2497e+02	7.4995	6.302404	0.000184	1.842818	0.312182	-0.000018
1258	1.2507e+02	7.4873	6.289776	0.000127	1.269497	0.215059	-0.000013
1259	1.2517e+02	7.4763	6.272668	0.000172	1.719964	0.291370	-0.000017
1260	1.2527e+02	7.4668	6.258818	0.000139	1.392352	0.235871	-0.000014
1261	1.2537e+02	7.4606	6.244561	0.000143	1.433303	0.242808	-0.000014
1262	1.2547e+02	7.4483	6.230304	0.000143	1.433303	0.242808	-0.000014
1263	1.2557e+02	7.4380	6.214011	0.000164	1.638061	0.277495	-0.000016
1264	1.2567e+02	7.4255	6.194051	0.000201	2.006624	0.339931	-0.000020
1265	1.2577e+02	7.4187	6.183460	0.000106	1.064739	0.180372	-0.000011
1266	1.2587e+02	7.4102	6.166352	0.000172	1.719964	0.291370	-0.000017
1267	1.2597e+02	7.3975	6.152095	0.000143	1.433303	0.242808	-0.000014
1268	1.2607e+02	7.3895	6.136208	0.000160	1.597109	0.270558	-0.000016
1269	1.2617e+02	7.3779	6.117878	0.000184	1.842818	0.312182	-0.000018
1270	1.2627e+02	7.3694	6.100362	0.000176	1.760915	0.298307	-0.000018
1271	1.2636e+02	7.3624	6.083661	0.000168	1.679012	0.284432	-0.000017
1272	1.2646e+02	7.3483	6.066145	0.000176	1.760915	0.298307	-0.000018
1273	1.2656e+02	7.3383	6.049037	0.000172	1.719964	0.291370	-0.000017
1274	1.2666e+02	7.3305	6.030706	0.000184	1.842818	0.312182	-0.000018
1275	1.2676e+02	7.3186	6.014820	0.000160	1.597109	0.270558	-0.000016
1276	1.2686e+02	7.3083	5.998934	0.000160	1.597109	0.270558	-0.000016
1277	1.2696e+02	7.2987	5.979789	0.000192	1.924721	0.326057	-0.000019
1278	1.2706e+02	7.2906	5.963902	0.000160	1.597109	0.270558	-0.000016
1279	1.2716e+02	7.2784	5.948016	0.000160	1.597109	0.270558	-0.000016
1280	1.2726e+02	7.2681	5.934574	0.000135	1.351400	0.228933	-0.000014
1281	1.2736e+02	7.2603	5.912984	0.000217	2.170430	0.367681	-0.000022
1282	1.2746e+02	7.2503	5.899542	0.000135	1.351400	0.228933	-0.000014
1283	1.2756e+02	7.2402	5.878768	0.000209	2.088527	0.353806	-0.000021
1284	1.2766e+02	7.2301	5.864103	0.000147	1.474255	0.249745	-0.000015
1285	1.2776e+02	7.2189	5.846588	0.000176	1.760915	0.298307	-0.000018
1286	1.2786e+02	7.2099	5.831923	0.000147	1.474255	0.249745	-0.000015
1287	1.2796e+02	7.2005	5.809927	0.000221	2.211382	0.374618	-0.000022
1288	1.2806e+02	7.1878	5.795262	0.000147	1.474255	0.249745	-0.000015
1289	1.2816e+02	7.1844	5.781820	0.000135	1.351400	0.228933	-0.000014
1290	1.2826e+02	7.1687	5.760638	0.000213	2.129479	0.360743	-0.000021
1291	1.2835e+02	7.1586	5.745567	0.000152	1.515206	0.256683	-0.000015
1292	1.2845e+02	7.1473	5.725200	0.000205	2.047576	0.346869	-0.000020
1293	1.2855e+02	7.1392	5.709721	0.000156	1.556158	0.263620	-0.000016
1294	1.2865e+02	7.1293	5.690575	0.000192	1.924721	0.326057	-0.000019
1295	1.2875e+02	7.1198	5.674282	0.000164	1.638061	0.277495	-0.000016
1296	1.2885e+02	7.1124	5.659617	0.000147	1.474255	0.249745	-0.000015
1297	1.2895e+02	7.0993	5.642102	0.000176	1.760915	0.298307	-0.000018
1298	1.2905e+02	7.0919	5.624586	0.000176	1.760915	0.298307	-0.000018
1299	1.2915e+02	7.0809	5.606256	0.000184	1.842818	0.312182	-0.000018
1300	1.2925e+02	7.0733	5.589554	0.000168	1.679012	0.284432	-0.000017
1301	1.2935e+02	7.0589	5.568373	0.000213	2.129479	0.360743	-0.000021
1302	1.2945e+02	7.0501	5.550450	0.000180	1.801867	0.305244	-0.000018
1303	1.2955e+02	7.0398	5.536193	0.000143	1.433303	0.242808	-0.000014
1304	1.2965e+02	7.0303	5.514603	0.000217	2.170430	0.367681	-0.000022
1305	1.2975e+02	7.0197	5.495458	0.000192	1.924721	0.326057	-0.000019
1306	1.2985e+02	7.0106	5.477943	0.000176	1.760915	0.298307	-0.000018
1307	1.2995e+02	7.0008	5.461649	0.000164	1.638061	0.277495	-0.000016
1308	1.3005e+02	6.9918	5.445355	0.000164	1.638061	0.277495	-0.000016
1309	1.3015e+02	6.9794	5.427839	0.000176	1.760915	0.298307	-0.000018
1310	1.3025e+02	6.9701	5.410731	0.000172	1.719964	0.291370	-0.000017
1311	1.3034e+02	6.9603	5.394845	0.000160	1.597109	0.270558	-0.000016
1312	1.3044e+02	6.9500	5.378958	0.000160	1.597109	0.270558	-0.000016
1313	1.3054e+02	6.9415	5.361443	0.000176	1.760915	0.298307	-0.000018
1314	1.3064e+02	6.9322	5.345964	0.000156	1.556158	0.263620	-0.000016
1315	1.3074e+02	6.9244	5.330892	0.000152	1.515206	0.256683	-0.000015
1316	1.3084e+02	6.9112	5.317042	0.000139	1.392352	0.235871	-0.000014
1317	1.3094e+02	6.9013	5.295046	0.000221	2.211382	0.374618	-0.000022
1318	1.3104e+02	6.8890	5.279974	0.000152	1.515206	0.256683	-0.000015
1319	1.3114e+02	6.8826	5.262051	0.000180	1.801867	0.305244	-0.000018
1320	1.3124e+02	6.8729	5.244535	0.000176	1.760915	0.298307	-0.000018
1321	1.3134e+02	6.8606	5.227834	0.000168	1.679012	0.284432	-0.000017
1322	1.3144e+02	6.8506	5.210726	0.000172	1.719964	0.291370	-0.000017
1323	1.3154e+02	6.8439	5.195247	0.000156	1.556158	0.263620	-0.000016
1324	1.3164e+02	6.8325	5.181397	0.000139	1.392352	0.235871	-0.000014
1325	1.3174e+02	6.8227	5.165511	0.000160	1.597109	0.270558	-0.000016
1326	1.3184e+02	6.8078	5.148403	0.000172	1.719964	0.291370	-0.000017
1327	1.3194e+02	6.8009	5.130072	0.000184	1.842818	0.312182	-0.000018
1328	1.3204e+02	6.7927	5.114593	0.000156	1.556158	0.263620	-0.000016
1329	1.3214e+02	6.7810	5.097892	0.000168	1.679012	0.284432	-0.000017
1330	1.3224e+02	6.7730	5.080376	0.000176	1.760915	0.298307	-0.000018
1331	1.3234e+02	6.7599	5.062046	0.000184	1.842818	0.312182	-0.000018
1332	1.3243e+02	6.7519	5.040864	0.000213	2.129479	0.360743	-0.000021
1333	1.3253e+02	6.7440	5.022941	0.000180	1.801867	0.305244	-0.000018
1334	1.3263e+02	6.7306	5.000537	0.000225	2.252333	0.381556	-0.000023
1335	1.3273e+02	6.7209	4.980985	0.000197	1.965673	0.332994	-0.000020
1336	1.3283e+02	6.7095	4.961840	0.000192	1.924721	0.326057	-0.000019
1337	1.3293e+02	6.7001	4.942287	0.000197	1.965673	0.332994	-0.000020
1338	1.3303e+02	6.6882	4.918254	0.000242	2.416140	0.409305	-0.000024
1339	1.3313e+02	6.6790	4.900738	0.000176	1.760915	0.298307	-0.000018
1340	1.3323e+02	6.6712	4.879964	0.000209	2.088527	0.353806	-0.000021
1341	1.3333e+02	6.6597	4.865299	0.000147	1.474255	0.249745	-0.000015
1342	1.3343e+02	6.6553	4.843710	0.000217	2.170430	0.367681	-0.000022
1343	1.3353e+02	6.6433	4.823343	0.000205	2.047576	0.346869	-0.000020
1344	1.3363e+02	6.6314	4.802569	0.000209	2.088527	0.353806	-0.000021
1345	1.3373e+02	6.6225	4.780165	0.000225	2.252333	0.381556	-0.000023
1346	1.3383e+02	6.6105	4.761020	0.000192	1.924721	0.326057	-0.000019
1347	1.3393e+02	6.6011	4.741875	0.000192	1.924721	0.326057	-0.000019
1348	1.3403e+02	6.5937	4.720285	0.000217	2.170430	0.367681	-0.000022
1349	1.3413e+02	6.5810	4.705214	0.000152	1.515206	0.256683	-0.000015
1350	1.3423e+02	6.5713	4.681181	0.000242	2.416140	0.409305	-0.000024
1351	1.3432e+02	6.5618	4.662036	0.000192	1.924721	0.326057	-0.000019
1352	1.3442e+02	6.5559	4.642890	0.000192	1.924721	0.326057	-0.000019
1353	1.3452e+02	6.5430	4.623745	0.000192	1.924721	0.326057	-0.000019
1354	1.3462e+02	6.5307	4.605415	0.000184	1.842818	0.312182	-0.000018
1355	1.3472e+02	6.5246	4.586270	0.000192	1.924721	0.326057	-0.000019
1356	1.3482e+02	6.5118	4.568754	0.000176	1.760915	0.298307	-0.000018
1357	1.3492e+02	6.5020	4.549609	0.000192	1.924721	0.326057	-0.000019
1358	1.3502e+02	6.4922	4.528020	0.000217	2.170430	0.367681	-0.000022
1359	1.3512e+02	6.4806	4.511726	0.000164	1.638061	0.277495	-0.000016
1360	1.3522e+02	6.4729	4.493396	0.000184	1.842818	0.312182	-0.000018
1361	1.3532e+02	6.4620	4.475473	0.000180	1.801867	0.305244	-0.000018
1362	1.3542e+02	6.4516	4.457142	0.000184	1.842818	0.312182	-0.000018
1363	1.3552e+02	6.4422	4.439626	0.000176	1.760915	0.298307	-0.000018
1364	1.3562e+02	6.4320	4.418037	0.000217	2.170430	0.367681	-0.000022
1365	1.3572e+02	6.4252	4.397670	0.000205	2.047576	0.346869	-0.000020
1366	1.3582e+02	6.4131	4.381784	0.000160	1.597109	0.270558	-0.000016
1367	1.3592e+02	6.4031	4.361417	0.000205	2.047576	0.346869	-0.000020
1368	1.3602e+02	6.3931	4.341457	0.000201	2.006624	0.339931	-0.000020
1369	1.3612e+02	6.3824	4.325163	0.000164	1.638061	0.277495	-0.000016
1370	1.3622e+02	6.3721	4.304796	0.000205	2.047576	0.346869	-0.000020
1371	1.3631e+02	6.3648	4.284836	0.000201	2.006624	0.339931	-0.000020
1372	1.3641e+02	6.3534	4.267728	0.000172	1.719964	0.291370	-0.000017
1373	1.3651e+02	6.3444	4.246546	0.000213	2.129479	0.360743	-0.000021
1374	1.3661e+02	6.3343	4.228623	0.000180	1.801867	0.305244	-0.000018
1375	1.3671e+02	6.3235	4.215588	0.000131	1.310449	0.221996	-0.000013
1376	1.3681e+02	6.3149	4.191962	0.000238	2.375188	0.402368	-0.000024
1377	1.3691e+02	6.3030	4.173632	0.000184	1.842818	0.312182	-0.000018
1378	1.3701e+02	6.2946	4.157338	0.000164	1.638061	0.277495	-0.000016
1379	1.3711e+02	6.2843	4.139008	0.000184	1.842818	0.312182	-0.000018
1380	1.3721e+02	6.2769	4.116196	0.000229	2.293285	0.388493	-0.000023
1381	1.3731e+02	6.2641	4.100310	0.000160	1.597109	0.270558	-0.000016
1382	1.3741e+02	6.2521	4.079536	0.000209	2.088527	0.353806	-0.000021
1383	1.3751e+02	6.2435	4.059983	0.000197	1.965673	0.332994	-0.000020
1384	1.3761e+02	6.2322	4.044912	0.000152	1.515206	0.256683	-0.000015
1385	1.3771e+02	6.2225	4.024137	0.000209	2.088527	0.353806	-0.000021
1386	1.3781e+02	6.2176	4.007436	0.000168	1.679012	0.284432	-0.000017
1387	1.3791e+02	6.2052	3.988698	0.000188	1.883770	0.319119	-0.000019
1388	1.3801e+02	6.1939	3.969961	0.000188	1.883770	0.319119	-0.000019
1389	1.3811e+02	6.1843	3.953667	0.000164	1.638061	0.277495	-0.000016
1390	1.3821e+02	6.1747	3.936151	0.000176	1.760915	0.298307	-0.000018
1391	1.3831e+02	6.1650	3.913340	0.000229	2.293285	0.388493	-0.000023
1392	1.3840e+02	6.1561	3.893380	0.000201	2.006624	0.339931	-0.000020
1393	1.3850e+02	6.1456	3.875864	0.000176	1.760915	0.298307	-0.000018
1394	1.3860e+02	6.1366	3.857127	0.000188	1.883770	0.319119	-0.000019
1395	1.3870e+02	6.1256	3.839204	0.000180	1.801867	0.305244	-0.000018
1396	1.3880e+02	6.1141	3.814763	0.000246	2.457091	0.416242	-0.000025
1397	1.3890e+02	6.1060	3.794803	0.000201	2.006624	0.339931	-0.000020
1398	1.3900e+02	6.0963	3.778510	0.000164	1.638061	0.277495	-0.000016
1399	1.3910e+02	6.0868	3.756920	0.000217	2.170430	0.367681	-0.000022
1400	1.3920e+02	6.0750	3.736961	0.000201	2.006624	0.339931	-0.000020
1401	1.3930e+02	6.0656	3.717001	0.000201	2.006624	0.339931	-0.000020
1402	1.3940e+02	6.0551	3.698670	0.000184	1.842818	0.312182	-0.000018
1403	1.3950e+02	6.0485	3.680340	0.000184	1.842818	0.312182	-0.000018
1404	1.3960e+02	6.0332	3.657121	0.000233	2.334236	0.395430	-0.000023
1405	1.3970e+02	6.0259	3.640013	0.000172	1.719964	0.291370	-0.000017
1406	1.3980e+02	6.0154	3.618831	0.000213	2.129479	0.360743	-0.000021
1407	1.3990e+02	6.0062	3.596427	0.000225	2.252333	0.381556	-0.000023
1408	1.4000e+02	5.9951	3.578504	0.000180	1.801867	0.305244	-0.000018
1409	1.4010e+02	5.9863	3.557323	0.000213	2.129479	0.360743	-0.000021
1410	1.4020e+02	5.9753	3.536141	0.000213	2.129479	0.360743	-0.000021
1411	1.4029e+02	5.9679	3.514959	0.000213	2.129479	0.360743	-0.000021
1412	1.4039e+02	5.9548	3.498258	0.000168	1.679012	0.284432	-0.000017
1413	1.4049e+02	5.9461	3.482371	0.000160	1.597109	0.270558	-0.000016
1414	1.4059e+02	5.9353	3.461597	0.000209	2.088527	0.353806	-0.000021
1415	1.4069e+02	5.9263	3.440008	0.000217	2.170430	0.367681	-0.000022
1416	1.4079e+02	5.9148	3.428195	0.000119	1.187594	0.201184	-0.000012
1417	1.4089e+02	5.9082	3.408235	0.000201	2.006624	0.339931	-0.000020
1418	1.4099e+02	5.8950	3.391127	0.000172	1.719964	0.291370	-0.000017
1419	1.4109e+02	5.8865	3.375648	0.000156	1.556158	0.263620	-0.000016
1420	1.4119e+02	5.8765	3.359354	0.000164	1.638061	0.277495	-0.000016
1421	1.4129e+02	5.8681	3.338580	0.000209	2.088527	0.353806	-0.000021
1422	1.4139e+02	5.8570	3.323101	0.000156	1.556158	0.263620	-0.000016
1423	1.4149e+02	5.8504	3.307622	0.000156	1.556158	0.263620	-0.000016
1424	1.4159e+02	5.8361	3.292550	0.000152	1.515206	0.256683	-0.000015
1425	1.4169e+02	5.8265	3.274219	0.000184	1.842818	0.312182	-0.000018
1426	1.4179e+02	5.8180	3.256296	0.000180	1.801867	0.305244	-0.000018
1427	1.4189e+02	5.8045	3.239188	0.000172	1.719964	0.291370	-0.000017
1428	1.4199e+02	5.7966	3.224116	0.000152	1.515206	0.256683	-0.000015
1429	1.4209e+02	5.7870	3.207008	0.000172	1.719964	0.291370	-0.000017
1430	1.4219e+02	5.7760	3.188677	0.000184	1.842818	0.312182	-0.000018
1431	1.4228e+02	5.7691	3.171162	0.000176	1.760915	0.298307	-0.000018
1432	1.4238e+02	5.7574	3.152424	0.000188	1.883770	0.319119	-0.000019
1433	1.4248e+02	5.7476	3.134094	0.000184	1.842818	0.312182	-0.000018
1434	1.4258e+02	5.7351	3.119837	0.000143	1.433303	0.242808	-0.000014
1435	1.4268e+02	5.7259	3.101506	0.000184	1.842818	0.312182	-0.000018
1436	1.4278e+02	5.7174	3.085212	0.000164	1.638061	0.277495	-0.000016
1437	1.4288e+02	5.7067	3.064845	0.000205	2.047576	0.346869	-0.000020
1438	1.4298e+02	5.6991	3.046108	0.000188	1.883770	0.319119	-0.000019
1439	1.4308e+02	5.6873	3.024111	0.000221	2.211382	0.374618	-0.000022
1440	1.4318e+02	5.6780	3.007003	0.000172	1.719964	0.291370	-0.000017
1441	1.4328e+02	5.6680	2.992338	0.000147	1.474255	0.249745	-0.000015
1442	1.4338e+02	5.6570	2.972786	0.000197	1.965673	0.332994	-0.000020
1443	1.4348e+02	5.6469	2.956900	0.000160	1.597109	0.270558	-0.000016
1444	1.4358e+02	5.6371	2.932866	0.000242	2.416140	0.409305	-0.000024
1445	1.4368e+02	5.6260	2.917387	0.000156	1.556158	0.263620	-0.000016
1446	1.4378e+02	5.6178	2.898650	0.000188	1.883770	0.319119	-0.000019
1447	1.4388e+02	5.6057	2.880727	0.000180	1.801867	0.305244	-0.000018
1448	1.4398e+02	5.5964	2.864433	0.000164	1.638061	0.277495	-0.000016
1449	1.4408e+02	5.5868	2.847732	0.000168	1.679012	0.284432	-0.000017
1450	1.4418e+02	5.5785	2.826143	0.000217	2.170430	0.367681	-0.000022
1451	1.4428e+02	5.5679	2.810664	0.000156	1.556158	0.263620	-0.000016
1452	1.4437e+02	5.5571	2.791926	0.000188	1.883770	0.319119	-0.000019
1453	1.4447e+02	5.5511	2.771966	0.000201	2.006624	0.339931	-0.000020
1454	1.4457e+02	5.5373	2.758931	0.000131	1.310449	0.221996	-0.000013
1455	1.4467e+02	5.5280	2.734898	0.000242	2.416140	0.409305	-0.000024
1456	1.4477e+02	5.5175	2.714938	0.000201	2.006624	0.339931	-0.000020
1457	1.4487e+02	5.5073	2.697830	0.000172	1.719964	0.291370	-0.000017
1458	1.4497e+02	5.4996	2.677055	0.000209	2.088527	0.353806	-0.000021
1459	1.4507e+02	5.4902	2.657910	0.000192	1.924721	0.326057	-0.000019
1460	1.4517e+02	5.4778	2.640802	0.000172	1.719964	0.291370	-0.000017
1461	1.4527e+02	5.4676	2.616361	0.000246	2.457091	0.416242	-0.000025
1462	1.4537e+02	5.4565	2.600475	0.000160	1.597109	0.270558	-0.000016
1463	1.4547e+02	5.4514	2.584588	0.000160	1.597109	0.270558	-0.000016
1464	1.4557e+02	5.4382	2.568295	0.000164	1.638061	0.277495	-0.000016
1465	1.4567e+02	5.4266	2.545891	0.000225	2.252333	0.381556	-0.000023
1466	1.4577e+02	5.4163	2.529597	0.000164	1.638061	0.277495	-0.000016
1467	1.4587e+02	5.4102	2.510452	0.000192	1.924721	0.326057	-0.000019
1468	1.4597e+02	5.3989	2.492122	0.000184	1.842818	0.312182	-0.000018
1469	1.4607e+02	5.3902	2.469311	0.000229	2.293285	0.388493	-0.000023
1470	1.4617e+02	5.3811	2.447314	0.000221	2.211382	0.374618	-0.000022
1471	1.4626e+02	5.3683	2.428984	0.000184	1.842818	0.312182	-0.000018
1472	1.4636e+02	5.3574	2.409431	0.000197	1.965673	0.332994	-0.000020
1473	1.4646e+02	5.3472	2.390693	0.000188	1.883770	0.319119	-0.000019
1474	1.4656e+02	5.3391	2.371956	0.000188	1.883770	0.319119	-0.000019
1475	1.4666e+02	5.3336	2.352403	0.000197	1.965673	0.332994	-0.000020
1476	1.4676e+02	5.3179	2.336110	0.000164	1.638061	0.277495	-0.000016
1477	1.4686e+02	5.3100	2.315742	0.000205	2.047576	0.346869	-0.000020
1478	1.4696e+02	5.3002	2.299449	0.000164	1.638061	0.277495	-0.000016
1479	1.4706e+02	5.2883	2.282340	0.000172	1.719964	0.291370	-0.000017
1480	1.4716e+02	5.2792	2.261566	0.000209	2.088527	0.353806	-0.000021
1481	1.4726e+02	5.2676	2.242421	0.000192	1.924721	0.326057	-0.000019
1482	1.4736e+02	5.2581	2.229386	0.000131	1.310449	0.221996	-0.000013
1483	1.4746e+02	5.2493	2.211870	0.000176	1.760915	0.298307	-0.000018
1484	1.4756e+02	5.2405	2.188652	0.000233	2.334236	0.395430	-0.000023
1485	1.4766e+02	5.2320	2.173580	0.000152	1.515206	0.256683	-0.000015
1486	1.4776e+02	5.2186	2.152805	0.000209	2.088527	0.353806	-0.000021
1487	1.4786e+02	5.2100	2.133253	0.000197	1.965673	0.332994	-0.000020
1488	1.4796e+02	5.1990	2.116959	0.000164	1.638061	0.277495	-0.000016
1489	1.4806e+02	5.1882	2.099851	0.000172	1.719964	0.291370	-0.000017
1490	1.4816e+02	5.1765	2.084372	0.000156	1.556158	0.263620	-0.000016
1491	1.4825e+02	5.1698	2.066856	0.000176	1.760915	0.298307	-0.000018
1492	1.4835e+02	5.1604	2.049340	0.000176	1.760915	0.298307	-0.000018
1493	1.4845e+02	5.1501	2.029788	0.000197	1.965673	0.332994	-0.000020
1494	1.4855e+02	5.1386	2.012680	0.000172	1.719964	0.291370	-0.000017
1495	1.4865e+02	5.1297	1.995571	0.000172	1.719964	0.291370	-0.000017
1496	1.4875e+02	5.1189	1.972353	0.000233	2.334236	0.395430	-0.000023
1497	1.4885e+02	5.1118	1.954837	0.000176	1.760915	0.298307	-0.000018
1498	1.4895e+02	5.1012	1.934470	0.000205	2.047576	0.346869	-0.000020
1499	1.4905e+02	5.0909	1.914510	0.000201	2.006624	0.339931	-0.000020
1500	1.4915e+02	5.0800	1.893736	0.000209	2.088527	0.353806	-0.000021
1501	1.4925e+02	5.0710	1.872961	0.000209	2.088527	0.353806	-0.000021
1502	1.4935e+02	5.0605	1.852187	0.000209	2.088527	0.353806	-0.000021
1503	1.4945e+02	5.0491	1.830597	0.000217	2.170430	0.367681	-0.000022
1504	1.4955e+02	5.0419	1.810638	0.000201	2.006624	0.339931	-0.000020
1505	1.4965e+02	5.0310	1.789456	0.000213	2.129479	0.360743	-0.000021
1506	1.4975e+02	5.0204	1.767459	0.000221	2.211382	0.374618	-0.000022
1507	1.4985e+02	5.0095	1.743019	0.000246	2.457091	0.416242	-0.000025
1508	1.4995e+02	4.9993	1.724688	0.000184	1.842818	0.312182	-0.000018
1509	1.5005e+02	4.9905	1.704321	0.000205	2.047576	0.346869	-0.000020
1510	1.5015e+02	4.9804	1.683954	0.000205	2.047576	0.346869	-0.000020
1511	1.5025e+02	4.9711	1.660736	0.000233	2.334236	0.395430	-0.000023
1512	1.5034e+02	4.9609	1.639146	0.000217	2.170430	0.367681	-0.000022
1513	1.5044e+02	4.9538	1.613891	0.000254	2.538994	0.430117	-0.000025
1514	1.5054e+02	4.9422	1.594339	0.000197	1.965673	0.332994	-0.000020
1515	1.5064e+02	4.9300	1.572750	0.000217	2.170430	0.367681	-0.000022
1516	1.5074e+02	4.9218	1.555234	0.000176	1.760915	0.298307	-0.000018
1517	1.5084e+02	4.9117	1.531608	0.000238	2.375188	0.402368	-0.000024
1518	1.5094e+02	4.8992	1.510426	0.000213	2.129479	0.360743	-0.000021
1519	1.5104e+02	4.8947	1.490874	0.000197	1.965673	0.332994	-0.000020
1520	1.5114e+02	4.8820	1.470099	0.000209	2.088527	0.353806	-0.000021
1521	1.5124e+02	4.8734	1.450547	0.000197	1.965673	0.332994	-0.000020
1522	1.5134e+02	4.8615	1.429772	0.000209	2.088527	0.353806	-0.000021
1523	1.5144e+02	4.8530	1.406146	0.000238	2.375188	0.402368	-0.000024
1524	1.5154e+02	4.8420	1.386187	0.000201	2.006624	0.339931	-0.000020
1525	1.5164e+02	4.8312	1.364598	0.000217	2.170430	0.367681	-0.000022
1526	1.5174e+02	4.8237	1.347489	0.000172	1.719964	0.291370	-0.000017
1527	1.5184e+02	4.8117	1.330381	0.000172	1.719964	0.291370	-0.000017
1528	1.5194e+02	4.8003	1.309199	0.000213	2.129479	0.360743	-0.000021
1529	1.5204e+02	4.7919	1.285980	0.000233	2.334236	0.395430	-0.000023
1530	1.5214e+02	4.7824	1.266835	0.000192	1.924721	0.326057	-0.000019
1531	1.5224e+02	4.7717	1.247283	0.000197	1.965673	0.332994	-0.000020
1532	1.5233e+02	4.7616	1.224879	0.000225	2.252333	0.381556	-0.000023
1533	1.5243e+02	4.7541	1.205734	0.000192	1.924721	0.326057	-0.000019
1534	1.5253e+02	4.7438	1.186182	0.000197	1.965673	0.332994	-0.000020
1535	1.5263e+02	4.7305	1.165814	0.000205	2.047576	0.346869	-0.000020
1536	1.5273e+02	4.7250	1.145040	0.000209	2.088527	0.353806	-0.000021
1537	1.5283e+02	4.7128	1.126302	0.000188	1.883770	0.319119	-0.000019
1538	1.5293e+02	4.7033	1.105935	0.000205	2.047576	0.346869	-0.000020
1539	1.5303e+02	4.6944	1.083939	0.000221	2.211382	0.374618	-0.000022
1540	1.5313e+02	4.6809	1.063571	0.000205	2.047576	0.346869	-0.000020
1541	1.5323e+02	4.6733	1.044019	0.000197	1.965673	0.332994	-0.000020
1542	1.5333e+02	4.6629	1.026503	0.000176	1.760915	0.298307	-0.000018
1543	1.5343e+02	4.6549	1.004507	0.000221	2.211382	0.374618	-0.000022
1544	1.5353e+02	4.6436	0.982918	0.000217	2.170430	0.367681	-0.000022
1545	1.5363e+02	4.6320	0.962143	0.000209	2.088527	0.353806	-0.000021
1546	1.5373e+02	4.6232	0.942183	0.000201	2.006624	0.339931	-0.000020
1547	1.5383e+02	4.6136	0.920594	0.000217	2.170430	0.367681	-0.000022
1548	1.5393e+02	4.6014	0.898598	0.000221	2.211382	0.374618	-0.000022
1549	1.5403e+02	4.5924	0.881082	0.000176	1.760915	0.298307	-0.000018
1550	1.5413e+02	4.5834	0.862752	0.000184	1.842818	0.312182	-0.000018
1551	1.5422e+02	4.5753	0.839126	0.000238	2.375188	0.402368	-0.000024
1552	1.5432e+02	4.5635	0.819981	0.000192	1.924721	0.326057	-0.000019
1553	1.5442e+02	4.5531	0.803687	0.000164	1.638061	0.277495	-0.000016
1554	1.5452e+02	4.5442	0.779654	0.000242	2.416140	0.409305	-0.000024
1555	1.5462e+02	4.5325	0.762138	0.000176	1.760915	0.298307	-0.000018
1556	1.5472e+02	4.5248	0.742993	0.000192	1.924721	0.326057	-0.000019
1557	1.5482e+02	4.5134	0.726699	0.000164	1.638061	0.277495	-0.000016
1558	1.5492e+02	4.5026	0.703481	0.000233	2.334236	0.395430	-0.000023
1559	1.5502e+02	4.4955	0.679447	0.000242	2.416140	0.409305	-0.000024
1560	1.5512e+02	4.4857	0.657858	0.000217	2.170430	0.367681	-0.000022
1561	1.5522e+02	4.4732	0.641972	0.000160	1.597109	0.270558	-0.000016
1562	1.5532e+02	4.4637	0.619975	0.000221	2.211382	0.374618	-0.000022
1563	1.5542e+02	4.4530	0.596757	0.000233	2.334236	0.395430	-0.000023
1564	1.5552e+02	4.4437	0.573538	0.000233	2.334236	0.395430	-0.000023
1565	1.5562e+02	4.4332	0.553986	0.000197	1.965673	0.332994	-0.000020
1566	1.5572e+02	4.4250	0.531989	0.000221	2.211382	0.374618	-0.000022
1567	1.5582e+02	4.4151	0.512844	0.000192	1.924721	0.326057	-0.000019
1568	1.5592e+02	4.4061	0.487589	0.000254	2.538994	0.430117	-0.000025
1569	1.5602e+02	4.3945	0.470073	0.000176	1.760915	0.298307	-0.000018
1570	1.5612e+02	4.3842	0.444818	0.000254	2.538994	0.430117	-0.000025
1571	1.5622e+02	4.3736	0.425673	0.000192	1.924721	0.326057	-0.000019
1572	1.5631e+02	4.3642	0.406528	0.000192	1.924721	0.326057	-0.000019
1573	1.5641e+02	4.3530	0.387383	0.000192	1.924721	0.326057	-0.000019
1574	1.5651e+02	4.3446	0.362942	0.000246	2.457091	0.416242	-0.000025
1575	1.5661e+02	4.3327	0.340946	0.000221	2.211382	0.374618	-0.000022
1576	1.5671e+02	4.3257	0.318542	0.000225	2.252333	0.381556	-0.000023
1577	1.5681e+02	4.3137	0.294916	0.000238	2.375188	0.402368	-0.000024
1578	1.5691e+02	4.3044	0.275771	0.000192	1.924721	0.326057	-0.000019
1579	1.5701e+02	4.2931	0.254182	0.000217	2.170430	0.367681	-0.000022
1580	1.5711e+02	4.2853	0.235037	0.000192	1.924721	0.326057	-0.000019
1581	1.5721e+02	4.2748	0.213855	0.000213	2.129479	0.360743	-0.000021
1582	1.5731e+02	4.2664	0.193080	0.000209	2.088527	0.353806	-0.000021
1583	1.5741e+02	4.2538	0.172306	0.000209	2.088527	0.353806	-0.000021
1584	1.5751e+02	4.2446	0.159271	0.000131	1.310449	0.221996	-0.000013
1585	1.5761e+02	4.2369	0.137274	0.000221	2.211382	0.374618	-0.000022
1586	1.5771e+02	4.2246	0.120981	0.000164	1.638061	0.277495	-0.000016
1587	1.5781e+02	4.2159	0.101836	0.000192	1.924721	0.326057	-0.000019
1588	1.5791e+02	4.2055	0.083505	0.000184	1.842818	0.312182	-0.000018
1589	1.5801e+02	4.1935	0.064767	0.000188	1.883770	0.319119	-0.000019
1590	1.5811e+02	4.1833	0.043993	0.000209	2.088527	0.353806	-0.000021
1591	1.5821e+02	4.1761	0.026477	0.000176	1.760915	0.298307	-0.000018
1592	1.5830e+02	4.1648	0.007332	0.000192	1.924721	0.326057	-0.000019
1593	1.5840e+02	4.1546	-0.012628	0.000201	2.006624	0.339931	-0.000020
1594	1.5850e+02	4.1458	-0.030958	0.000184	1.842818	0.312182	-0.000018
1595	1.5860e+02	4.1364	-0.048474	0.000176	1.760915	0.298307	-0.000018
1596	1.5870e+02	4.1264	-0.063953	0.000156	1.556158	0.263620	-0.000016
1597	1.5880e+02	4.1161	-0.086764	0.000229	2.293285	0.388493	-0.000023
1598	1.5890e+02	4.1072	-0.100206	0.000135	1.351400	0.228933	-0.000014
1599	1.5900e+02	4.0974	-0.121795	0.000217	2.170430	0.367681	-0.000022
1600	1.5910e+02	4.0827	-0.137274	0.000156	1.556158	0.263620	-0.000016
1601	1.5920e+02	4.0750	-0.160086	0.000229	2.293285	0.388493	-0.000023
1602	1.5930e+02	4.0665	-0.175972	0.000160	1.597109	0.270558	-0.000016
1603	1.5940e+02	4.0560	-0.194710	0.000188	1.883770	0.319119	-0.000019
1604	1.5950e+02	4.0453	-0.214670	0.000201	2.006624	0.339931	-0.000020
1605	1.5960e+02	4.0363	-0.237888	0.000233	2.334236	0.395430	-0.000023
1606	1.5970e+02	4.0244	-0.254182	0.000164	1.638061	0.277495	-0.000016
1607	1.5980e+02	4.0142	-0.277400	0.000233	2.334236	0.395430	-0.000023
1608	1.5990e+02	4.0043	-0.296953	0.000197	1.965673	0.332994	-0.000020
1609	1.6000e+02	3.9963	-0.317727	0.000209	2.088527	0.353806	-0.000021
1610	1.6010e+02	3.9841	-0.336465	0.000188	1.883770	0.319119	-0.000019
1611	1.6019e+02	3.9764	-0.355610	0.000192	1.924721	0.326057	-0.000019
1612	1.6029e+02	3.9668	-0.377607	0.000221	2.211382	0.374618	-0.000022
1613	1.6039e+02	3.9570	-0.396752	0.000192	1.924721	0.326057	-0.000019
1614	1.6049e+02	3.9465	-0.413045	0.000164	1.638061	0.277495	-0.000016
1615	1.6059e+02	3.9374	-0.430154	0.000172	1.719964	0.291370	-0.000017
1616	1.6069e+02	3.9231	-0.455002	0.000250	2.498043	0.423180	-0.000025
1617	1.6079e+02	3.9193	-0.476183	0.000213	2.129479	0.360743	-0.000021
1618	1.6089e+02	3.9071	-0.493292	0.000172	1.719964	0.291370	-0.000017
1619	1.6099e+02	3.8961	-0.513252	0.000201	2.006624	0.339931	-0.000020
1620	1.6109e+02	3.8874	-0.533619	0.000205	2.047576	0.346869	-0.000020
1621	1.6119e+02	3.8747	-0.553986	0.000205	2.047576	0.346869	-0.000020
1622	1.6129e+02	3.8662	-0.572724	0.000188	1.883770	0.319119	-0.000019
1623	1.6139e+02	3.8563	-0.593091	0.000205	2.047576	0.346869	-0.000020
1624	1.6149e+02	3.8467	-0.613051	0.000201	2.006624	0.339931	-0.000020
1625	1.6159e+02	3.8374	-0.637084	0.000242	2.416140	0.409305	-0.000024
1626	1.6169e+02	3.8258	-0.658266	0.000213	2.129479	0.360743	-0.000021
1627	1.6179e+02	3.8156	-0.678225	0.000201	2.006624	0.339931	-0.000020
1628	1.6189e+02	3.8041	-0.696148	0.000180	1.801867	0.305244	-0.000018
1629	1.6199e+02	3.7971	-0.718552	0.000225	2.252333	0.381556	-0.000023
1630	1.6209e+02	3.7852	-0.736883	0.000184	1.842818	0.312182	-0.000018
1631	1.6219e+02	3.7779	-0.754806	0.000180	1.801867	0.305244	-0.000018
1632	1.6228e+02	3.7637	-0.777210	0.000225	2.252333	0.381556	-0.000023
1633	1.6238e+02	3.7576	-0.796355	0.000192	1.924721	0.326057	-0.000019
1634	1.6248e+02	3.7460	-0.817129	0.000209	2.088527	0.353806	-0.000021
1635	1.6258e+02	3.7368	-0.839126	0.000221	2.211382	0.374618	-0.000022
1636	1.6268e+02	3.7266	-0.857456	0.000184	1.842818	0.312182	-0.000018
1637	1.6278e+02	3.7186	-0.880675	0.000233	2.334236	0.395430	-0.000023
1638	1.6288e+02	3.7081	-0.900634	0.000201	2.006624	0.339931	-0.000020
1639	1.6298e+02	3.6964	-0.923038	0.000225	2.252333	0.381556	-0.000023
1640	1.6308e+02	3.6878	-0.941776	0.000188	1.883770	0.319119	-0.000019
1641	1.6318e+02	3.6790	-0.965809	0.000242	2.416140	0.409305	-0.000024
1642	1.6328e+02	3.6675	-0.987398	0.000217	2.170430	0.367681	-0.000022
1643	1.6338e+02	3.6588	-1.009395	0.000221	2.211382	0.374618	-0.000022
1644	1.6348e+02	3.6485	-1.027725	0.000184	1.842818	0.312182	-0.000018
1645	1.6358e+02	3.6355	-1.047278	0.000197	1.965673	0.332994	-0.000020
1646	1.6368e+02	3.6268	-1.065201	0.000180	1.801867	0.305244	-0.000018
1647	1.6378e+02	3.6187	-1.083531	0.000184	1.842818	0.312182	-0.000018
1648	1.6388e+02	3.6071	-1.103491	0.000201	2.006624	0.339931	-0.000020
1649	1.6398e+02	3.5982	-1.120599	0.000172	1.719964	0.291370	-0.000017
1650	1.6408e+02	3.5848	-1.141781	0.000213	2.129479	0.360743	-0.000021
1651	1.6418e+02	3.5767	-1.160519	0.000188	1.883770	0.319119	-0.000019
1652	1.6427e+02	3.5661	-1.181701	0.000213	2.129479	0.360743	-0.000021
1653	1.6437e+02	3.5561	-1.201253	0.000197	1.965673	0.332994	-0.000020
1654	1.6447e+02	3.5496	-1.220806	0.000197	1.965673	0.332994	-0.000020
1655	1.6457e+02	3.5378	-1.242802	0.000221	2.211382	0.374618	-0.000022
1656	1.6467e+02	3.5277	-1.258281	0.000156	1.556158	0.263620	-0.000016
1657	1.6477e+02	3.5181	-1.278648	0.000205	2.047576	0.346869	-0.000020
1658	1.6487e+02	3.5081	-1.301867	0.000233	2.334236	0.395430	-0.000023
1659	1.6497e+02	3.4990	-1.315716	0.000139	1.392352	0.235871	-0.000014
1660	1.6507e+02	3.4886	-1.336491	0.000209	2.088527	0.353806	-0.000021
1661	1.6517e+02	3.4780	-1.354414	0.000180	1.801867	0.305244	-0.000018
1662	1.6527e+02	3.4686	-1.378447	0.000242	2.416140	0.409305	-0.000024
1663	1.6537e+02	3.4584	-1.395963	0.000176	1.760915	0.298307	-0.000018
1664	1.6547e+02	3.4496	-1.414293	0.000184	1.842818	0.312182	-0.000018
1665	1.6557e+02	3.4396	-1.435882	0.000217	2.170430	0.367681	-0.000022
1666	1.6567e+02	3.4283	-1.456657	0.000209	2.088527	0.353806	-0.000021
1667	1.6577e+02	3.4198	-1.482727	0.000262	2.620897	0.443992	-0.000026
1668	1.6587e+02	3.4081	-1.504316	0.000217	2.170430	0.367681	-0.000022
1669	1.6597e+02	3.3984	-1.526313	0.000221	2.211382	0.374618	-0.000022
1670	1.6607e+02	3.3879	-1.552790	0.000266	2.661849	0.450929	-0.000027
1671	1.6616e+02	3.3785	-1.571120	0.000184	1.842818	0.312182	-0.000018
1672	1.6626e+02	3.3665	-1.596783	0.000258	2.579946	0.437055	-0.000026
1673	1.6636e+02	3.3581	-1.621223	0.000246	2.457091	0.416242	-0.000025
1674	1.6646e+02	3.3495	-1.637517	0.000164	1.638061	0.277495	-0.000016
1675	1.6656e+02	3.3387	-1.661143	0.000238	2.375188	0.402368	-0.000024
1676	1.6666e+02	3.3285	-1.686398	0.000254	2.538994	0.430117	-0.000025
1677	1.6676e+02	3.3199	-1.709209	0.000229	2.293285	0.388493	-0.000023
1678	1.6686e+02	3.3109	-1.732428	0.000233	2.334236	0.395430	-0.000023
1679	1.6696e+02	3.2983	-1.757683	0.000254	2.538994	0.430117	-0.000025
1680	1.6706e+02	3.2873	-1.780087	0.000225	2.252333	0.381556	-0.000023
1681	1.6716e+02	3.2826	-1.804935	0.000250	2.498043	0.423180	-0.000025
1682	1.6726e+02	3.2709	-1.828561	0.000238	2.375188	0.402368	-0.000024
1683	1.6736e+02	3.2584	-1.848113	0.000197	1.965673	0.332994	-0.000020
1684	1.6746e+02	3.2485	-1.872146	0.000242	2.416140	0.409305	-0.000024
1685	1.6756e+02	3.2389	-1.897402	0.000254	2.538994	0.430117	-0.000025
1686	1.6766e+02	3.2295	-1.914510	0.000172	1.719964	0.291370	-0.000017
1687	1.6776e+02	3.2175	-1.938543	0.000242	2.416140	0.409305	-0.000024
1688	1.6786e+02	3.2110	-1.959725	0.000213	2.129479	0.360743	-0.000021
1689	1.6796e+02	3.1989	-1.981722	0.000221	2.211382	0.374618	-0.000022
1690	1.6806e+02	3.1888	-2.003718	0.000221	2.211382	0.374618	-0.000022
1691	1.6816e+02	3.1808	-2.028159	0.000246	2.457091	0.416242	-0.000025
1692	1.6825e+02	3.1688	-2.047304	0.000192	1.924721	0.326057	-0.000019
1693	1.6835e+02	3.1580	-2.070115	0.000229	2.293285	0.388493	-0.000023
1694	1.6845e+02	3.1477	-2.090075	0.000201	2.006624	0.339931	-0.000020
1695	1.6855e+02	3.1425	-2.112478	0.000225	2.252333	0.381556	-0.000023
1696	1.6865e+02	3.1296	-2.136104	0.000238	2.375188	0.402368	-0.000024
1697	1.6875e+02	3.1215	-2.156471	0.000205	2.047576	0.346869	-0.000020
1698	1.6885e+02	3.1108	-2.178468	0.000221	2.211382	0.374618	-0.000022
1699	1.6895e+02	3.1009	-2.201279	0.000229	2.293285	0.388493	-0.000023
1700	1.6905e+02	3.0920	-2.222054	0.000209	2.088527	0.353806	-0.000021
1701	1.6915e+02	3.0789	-2.246087	0.000242	2.416140	0.409305	-0.000024
1702	1.6925e+02	3.0707	-2.266047	0.000201	2.006624	0.339931	-0.000020
1703	1.6935e+02	3.0579	-2.288450	0.000225	2.252333	0.381556	-0.000023
1704	1.6945e+02	3.0502	-2.311262	0.000229	2.293285	0.388493	-0.000023
1705	1.6955e+02	3.0398	-2.332851	0.000217	2.170430	0.367681	-0.000022
1706	1.6965e+02	3.0277	-2.355255	0.000225	2.252333	0.381556	-0.000023
1707	1.6975e+02	3.0220	-2.374400	0.000192	1.924721	0.326057	-0.000019
1708	1.6985e+02	3.0124	-2.395582	0.000213	2.129479	0.360743	-0.000021
1709	1.6995e+02	3.0013	-2.420429	0.000250	2.498043	0.423180	-0.000025
1710	1.7005e+02	2.9909	-2.437945	0.000176	1.760915	0.298307	-0.000018
1711	1.7015e+02	2.9794	-2.462793	0.000250	2.498043	0.423180	-0.000025
1712	1.7024e+02	2.9712	-2.484790	0.000221	2.211382	0.374618	-0.000022
1713	1.7034e+02	2.9625	-2.505564	0.000209	2.088527	0.353806	-0.000021
1714	1.7044e+02	2.9497	-2.525524	0.000201	2.006624	0.339931	-0.000020
1715	1.7054e+02	2.9395	-2.550779	0.000254	2.538994	0.430117	-0.000025
1716	1.7064e+02	2.9308	-2.572368	0.000217	2.170430	0.367681	-0.000022
1717	1.7074e+02	2.9229	-2.595587	0.000233	2.334236	0.395430	-0.000023
1718	1.7084e+02	2.9097	-2.618805	0.000233	2.334236	0.395430	-0.000023
1719	1.7094e+02	2.9034	-2.636728	0.000180	1.801867	0.305244	-0.000018
1720	1.7104e+02	2.8916	-2.660762	0.000242	2.416140	0.409305	-0.000024
1721	1.7114e+02	2.8805	-2.682351	0.000217	2.170430	0.367681	-0.000022
1722	1.7124e+02	2.8703	-2.703125	0.000209	2.088527	0.353806	-0.000021
1723	1.7134e+02	2.8600	-2.720234	0.000172	1.719964	0.291370	-0.000017
1724	1.7144e+02	2.8527	-2.745896	0.000258	2.579946	0.437055	-0.000026
1725	1.7154e+02	2.8420	-2.763412	0.000176	1.760915	0.298307	-0.000018
1726	1.7164e+02	2.8320	-2.787038	0.000238	2.375188	0.402368	-0.000024
1727	1.7174e+02	2.8216	-2.806998	0.000201	2.006624	0.339931	-0.000020
1728	1.7184e+02	2.8113	-2.831438	0.000246	2.457091	0.416242	-0.000025
1729	1.7194e+02	2.8019	-2.853027	0.000217	2.170430	0.367681	-0.000022
1730	1.7204e+02	2.7938	-2.879504	0.000266	2.661849	0.450929	-0.000027
1731	1.7213e+02	2.7814	-2.900686	0.000213	2.129479	0.360743	-0.000021
1732	1.7223e+02	2.7709	-2.927571	0.000270	2.702800	0.457867	-0.000027
1733	1.7233e+02	2.7621	-2.943050	0.000156	1.556158	0.263620	-0.000016
1734	1.7243e+02	2.7531	-2.969935	0.000270	2.702800	0.457867	-0.000027
1735	1.7253e+02	2.7410	-2.992338	0.000225	2.252333	0.381556	-0.000023
1736	1.7263e+02	2.7316	-3.011483	0.000192	1.924721	0.326057	-0.000019
1737	1.7273e+02	2.7236	-3.036739	0.000254	2.538994	0.430117	-0.000025
1738	1.7283e+02	2.7122	-3.058735	0.000221	2.211382	0.374618	-0.000022
1739	1.7293e+02	2.7026	-3.083990	0.000254	2.538994	0.430117	-0.000025
1740	1.7303e+02	2.6904	-3.107209	0.000233	2.334236	0.395430	-0.000023
1741	1.7313e+02	2.6805	-3.127983	0.000209	2.088527	0.353806	-0.000021
1742	1.7323e+02	2.6717	-3.153239	0.000254	2.538994	0.430117	-0.000025
1743	1.7333e+02	2.6609	-3.178494	0.000254	2.538994	0.430117	-0.000025
1744	1.7343e+02	2.6527	-3.202527	0.000242	2.416140	0.409305	-0.000024
1745	1.7353e+02	2.6412	-3.225338	0.000229	2.293285	0.388493	-0.000023
1746	1.7363e+02	2.6317	-3.245298	0.000201	2.006624	0.339931	-0.000020
1747	1.7373e+02	2.6242	-3.267295	0.000221	2.211382	0.374618	-0.000022
1748	1.7383e+02	2.6128	-3.290513	0.000233	2.334236	0.395430	-0.000023
1749	1.7393e+02	2.6029	-3.311695	0.000213	2.129479	0.360743	-0.000021
1750	1.7403e+02	2.5930	-3.334099	0.000225	2.252333	0.381556	-0.000023
1751	1.7413e+02	2.5830	-3.351207	0.000172	1.719964	0.291370	-0.000017
1752	1.7422e+02	2.5719	-3.374833	0.000238	2.375188	0.402368	-0.000024
1753	1.7432e+02	2.5610	-3.394793	0.000201	2.006624	0.339931	-0.000020
1754	1.7442e+02	2.5524	-3.414345	0.000197	1.965673	0.332994	-0.000020
1755	1.7452e+02	2.5410	-3.433083	0.000188	1.883770	0.319119	-0.000019
1756	1.7462e+02	2.5318	-3.454265	0.000213	2.129479	0.360743	-0.000021
1757	1.7472e+02	2.5224	-3.475039	0.000209	2.088527	0.353806	-0.000021
1758	1.7482e+02	2.5130	-3.492962	0.000180	1.801867	0.305244	-0.000018
1759	1.7492e+02	2.5039	-3.515774	0.000229	2.293285	0.388493	-0.000023
1760	1.7502e+02	2.4934	-3.536548	0.000209	2.088527	0.353806	-0.000021
1761	1.7512e+02	2.4828	-3.555693	0.000192	1.924721	0.326057	-0.000019
1762	1.7522e+02	2.4736	-3.574431	0.000188	1.883770	0.319119	-0.000019
1763	1.7532e+02	2.4609	-3.594798	0.000205	2.047576	0.346869	-0.000020
1764	1.7542e+02	2.4529	-3.610684	0.000160	1.597109	0.270558	-0.000016
1765	1.7552e+02	2.4451	-3.633088	0.000225	2.252333	0.381556	-0.000023
1766	1.7562e+02	2.4339	-3.656307	0.000233	2.334236	0.395430	-0.000023
1767	1.7572e+02	2.4245	-3.672600	0.000164	1.638061	0.277495	-0.000016
1768	1.7582e+02	2.4124	-3.695412	0.000229	2.293285	0.388493	-0.000023
1769	1.7592e+02	2.4032	-3.714149	0.000188	1.883770	0.319119	-0.000019
1770	1.7602e+02	2.3925	-3.734109	0.000201	2.006624	0.339931	-0.000020
1771	1.7612e+02	2.3811	-3.757328	0.000233	2.334236	0.395430	-0.000023
1772	1.7621e+02	2.3708	-3.782583	0.000254	2.538994	0.430117	-0.000025
1773	1.7631e+02	2.3643	-3.800913	0.000184	1.842818	0.312182	-0.000018
1774	1.7641e+02	2.3556	-3.820873	0.000201	2.006624	0.339931	-0.000020
1775	1.7651e+02	2.3444	-3.841240	0.000205	2.047576	0.346869	-0.000020
1776	1.7661e+02	2.3330	-3.865681	0.000246	2.457091	0.416242	-0.000025
1777	1.7671e+02	2.3230	-3.887270	0.000217	2.170430	0.367681	-0.000022
1778	1.7681e+02	2.3145	-3.908452	0.000213	2.129479	0.360743	-0.000021
1779	1.7691e+02	2.3042	-3.929634	0.000213	2.129479	0.360743	-0.000021
1780	1.7701e+02	2.2949	-3.952445	0.000229	2.293285	0.388493	-0.000023
1781	1.7711e+02	2.2865	-3.972812	0.000205	2.047576	0.346869	-0.000020
1782	1.7721e+02	2.2730	-3.993586	0.000209	2.088527	0.353806	-0.000021
1783	1.7731e+02	2.2668	-4.017212	0.000238	2.375188	0.402368	-0.000024
1784	1.7741e+02	2.2565	-4.035950	0.000188	1.883770	0.319119	-0.000019
1785	1.7751e+02	2.2454	-4.057946	0.000221	2.211382	0.374618	-0.000022
1786	1.7761e+02	2.2350	-4.081572	0.000238	2.375188	0.402368	-0.000024
1787	1.7771e+02	2.2269	-4.098681	0.000172	1.719964	0.291370	-0.000017
1788	1.7781e+02	2.2147	-4.122307	0.000238	2.375188	0.402368	-0.000024
1789	1.7791e+02	2.2031	-4.143081	0.000209	2.088527	0.353806	-0.000021
1790	1.7801e+02	2.1947	-4.165078	0.000221	2.211382	0.374618	-0.000022
1791	1.7810e+02	2.1871	-4.183815	0.000188	1.883770	0.319119	-0.000019
1792	1.7820e+02	2.1760	-4.205812	0.000221	2.211382	0.374618	-0.000022
1793	1.7830e+02	2.1656	-4.235548	0.000299	2.989461	0.506428	-0.000030
1794	1.7840e+02	2.1535	-4.257137	0.000217	2.170430	0.367681	-0.000022
1795	1.7850e+02	2.1468	-4.276282	0.000192	1.924721	0.326057	-0.000019
1796	1.7860e+02	2.1345	-4.297057	0.000209	2.088527	0.353806	-0.000021
1797	1.7870e+02	2.1262	-4.321904	0.000250	2.498043	0.423180	-0.000025
1798	1.7880e+02	2.1159	-4.342272	0.000205	2.047576	0.346869	-0.000020
1799	1.7890e+02	2.1044	-4.364268	0.000221	2.211382	0.374618	-0.000022
1800	1.7900e+02	2.0946	-4.385450	0.000213	2.129479	0.360743	-0.000021
1801	1.7910e+02	2.0872	-4.404595	0.000192	1.924721	0.326057	-0.000019
1802	1.7920e+02	2.0676	-4.431480	0.000270	2.702800	0.457867	-0.000027
1803	1.7930e+02	2.0666	-4.449403	0.000180	1.801867	0.305244	-0.000018
1804	1.7940e+02	2.0544	-4.475880	0.000266	2.661849	0.450929	-0.000027
1805	1.7950e+02	2.0457	-4.494618	0.000188	1.883770	0.319119	-0.000019
1806	1.7960e+02	2.0347	-4.519873	0.000254	2.538994	0.430117	-0.000025
1807	1.7970e+02	2.0255	-4.544721	0.000250	2.498043	0.423180	-0.000025
1808	1.7980e+02	2.0129	-4.565088	0.000205	2.047576	0.346869	-0.000020
1809	1.7990e+02	2.0051	-4.587084	0.000221	2.211382	0.374618	-0.000022
1810	1.8000e+02	1.9958	-4.610710	0.000238	2.375188	0.402368	-0.000024
1811	1.8009e+02	1.9849	-4.630263	0.000197	1.965673	0.332994	-0.000020
1812	1.8019e+02	1.9765	-4.653481	0.000233	2.334236	0.395430	-0.000023
1813	1.8029e+02	1.9640	-4.675478	0.000221	2.211382	0.374618	-0.000022
1814	1.8039e+02	1.9565	-4.697067	0.000217	2.170430	0.367681	-0.000022
1815	1.8049e+02	1.9470	-4.714990	0.000180	1.801867	0.305244	-0.000018
1816	1.8059e+02	1.9366	-4.734950	0.000201	2.006624	0.339931	-0.000020
1817	1.8069e+02	1.9224	-4.759390	0.000246	2.457091	0.416242	-0.000025
1818	1.8079e+02	1.9147	-4.782202	0.000229	2.293285	0.388493	-0.000023
1819	1.8089e+02	1.9061	-4.802161	0.000201	2.006624	0.339931	-0.000020
1820	1.8099e+02	1.8944	-4.824565	0.000225	2.252333	0.381556	-0.000023
1821	1.8109e+02	1.8857	-4.842081	0.000176	1.760915	0.298307	-0.000018
1822	1.8119e+02	1.8765	-4.864485	0.000225	2.252333	0.381556	-0.000023
1823	1.8129e+02	1.8678	-4.889740	0.000254	2.538994	0.430117	-0.000025
1824	1.8139e+02	1.8510	-4.909700	0.000201	2.006624	0.339931	-0.000020
1825	1.8149e+02	1.8468	-4.930474	0.000209	2.088527	0.353806	-0.000021
1826	1.8159e+02	1.8360	-4.948397	0.000180	1.801867	0.305244	-0.000018
1827	1.8169e+02	1.8256	-4.971616	0.000233	2.334236	0.395430	-0.000023
1828	1.8179e+02	1.8166	-4.993612	0.000221	2.211382	0.374618	-0.000022
1829	1.8189e+02	1.8098	-5.010721	0.000172	1.719964	0.291370	-0.000017
1830	1.8199e+02	1.7966	-5.035161	0.000246	2.457091	0.416242	-0.000025
1831	1.8209e+02	1.7890	-5.058787	0.000238	2.375188	0.402368	-0.000024
1832	1.8218e+02	1.7753	-5.076710	0.000180	1.801867	0.305244	-0.000018
1833	1.8228e+02	1.7664	-5.104002	0.000274	2.743752	0.464804	-0.000027
1834	1.8238e+02	1.7562	-5.124777	0.000209	2.088527	0.353806	-0.000021
1835	1.8248e+02	1.7483	-5.151661	0.000270	2.702800	0.457867	-0.000027
1836	1.8258e+02	1.7379	-5.175287	0.000238	2.375188	0.402368	-0.000024
1837	1.8268e+02	1.7265	-5.200950	0.000258	2.579946	0.437055	-0.000026
1838	1.8278e+02	1.7188	-5.226612	0.000258	2.579946	0.437055	-0.000026
1839	1.8288e+02	1.7083	-5.249831	0.000233	2.334236	0.395430	-0.000023
1840	1.8298e+02	1.6958	-5.271013	0.000213	2.129479	0.360743	-0.000021
1841	1.8308e+02	1.6869	-5.298712	0.000278	2.784703	0.471741	-0.000028
1842	1.8318e+02	1.6792	-5.322745	0.000242	2.416140	0.409305	-0.000024
1843	1.8328e+02	1.6673	-5.345556	0.000229	2.293285	0.388493	-0.000023
1844	1.8338e+02	1.6583	-5.367960	0.000225	2.252333	0.381556	-0.000023
1845	1.8348e+02	1.6480	-5.396881	0.000291	2.907558	0.492554	-0.000029
1846	1.8358e+02	1.6407	-5.416841	0.000201	2.006624	0.339931	-0.000020
1847	1.8368e+02	1.6277	-5.444133	0.000274	2.743752	0.464804	-0.000027
1848	1.8378e+02	1.6142	-5.470610	0.000266	2.661849	0.450929	-0.000027
1849	1.8388e+02	1.6070	-5.495866	0.000254	2.538994	0.430117	-0.000025
1850	1.8398e+02	1.5981	-5.520306	0.000246	2.457091	0.416242	-0.000025
1851	1.8407e+02	1.5868	-5.543525	0.000233	2.334236	0.395430	-0.000023
1852	1.8417e+02	1.5760	-5.572039	0.000287	2.866606	0.485616	-0.000029
1853	1.8427e+02	1.5651	-5.592813	0.000209	2.088527	0.353806	-0.000021
1854	1.8437e+02	1.5560	-5.619698	0.000270	2.702800	0.457867	-0.000027
1855	1.8447e+02	1.5464	-5.641694	0.000221	2.211382	0.374618	-0.000022
1856	1.8457e+02	1.5372	-5.665320	0.000238	2.375188	0.402368	-0.000024
1857	1.8467e+02	1.5282	-5.683651	0.000184	1.842818	0.312182	-0.000018
1858	1.8477e+02	1.5163	-5.712572	0.000291	2.907558	0.492554	-0.000029
1859	1.8487e+02	1.5071	-5.735383	0.000229	2.293285	0.388493	-0.000023
1860	1.8497e+02	1.4989	-5.757787	0.000225	2.252333	0.381556	-0.000023
1861	1.8507e+02	1.4856	-5.781820	0.000242	2.416140	0.409305	-0.000024
1862	1.8517e+02	1.4778	-5.806261	0.000246	2.457091	0.416242	-0.000025
1863	1.8527e+02	1.4663	-5.826628	0.000205	2.047576	0.346869	-0.000020
1864	1.8537e+02	1.4596	-5.853512	0.000270	2.702800	0.457867	-0.000027
1865	1.8547e+02	1.4484	-5.874694	0.000213	2.129479	0.360743	-0.000021
1866	1.8557e+02	1.4384	-5.899135	0.000246	2.457091	0.416242	-0.000025
1867	1.8567e+02	1.4284	-5.925205	0.000262	2.620897	0.443992	-0.000026
1868	1.8577e+02	1.4164	-5.948831	0.000238	2.375188	0.402368	-0.000024
1869	1.8587e+02	1.4120	-5.972049	0.000233	2.334236	0.395430	-0.000023
1870	1.8597e+02	1.3990	-5.993638	0.000217	2.170430	0.367681	-0.000022
1871	1.8606e+02	1.3885	-6.018079	0.000246	2.457091	0.416242	-0.000025
1872	1.8616e+02	1.3765	-6.042519	0.000246	2.457091	0.416242	-0.000025
1873	1.8626e+02	1.3683	-6.067775	0.000254	2.538994	0.430117	-0.000025
1874	1.8636e+02	1.3583	-6.087734	0.000201	2.006624	0.339931	-0.000020
1875	1.8646e+02	1.3479	-6.110546	0.000229	2.293285	0.388493	-0.000023
1876	1.8656e+02	1.3408	-6.139060	0.000287	2.866606	0.485616	-0.000029
1877	1.8666e+02	1.3274	-6.158205	0.000192	1.924721	0.326057	-0.000019
1878	1.8676e+02	1.3177	-6.184682	0.000266	2.661849	0.450929	-0.000027
1879	1.8686e+02	1.3082	-6.203827	0.000192	1.924721	0.326057	-0.000019
1880	1.8696e+02	1.3011	-6.229082	0.000254	2.538994	0.430117	-0.000025
1881	1.8706e+02	1.2868	-6.252708	0.000238	2.375188	0.402368	-0.000024
1882	1.8716e+02	1.2801	-6.277149	0.000246	2.457091	0.416242	-0.000025
1883	1.8726e+02	1.2681	-6.304848	0.000278	2.784703	0.471741	-0.000028
1884	1.8736e+02	1.2578	-6.327659	0.000229	2.293285	0.388493	-0.000023
1885	1.8746e+02	1.2485	-6.345990	0.000184	1.842818	0.312182	-0.000018
1886	1.8756e+02	1.2408	-6.367986	0.000221	2.211382	0.374618	-0.000022
1887	1.8766e+02	1.2286	-6.392834	0.000250	2.498043	0.423180	-0.000025
1888	1.8776e+02	1.2215	-6.417275	0.000246	2.457091	0.416242	-0.000025
1889	1.8786e+02	1.2109	-6.435605	0.000184	1.842818	0.312182	-0.000018
1890	1.8796e+02	1.2022	-6.461268	0.000258	2.579946	0.437055	-0.000026
1891	1.8806e+02	1.1895	-6.482449	0.000213	2.129479	0.360743	-0.000021
1892	1.8815e+02	1.1786	-6.508519	0.000262	2.620897	0.443992	-0.000026
1893	1.8825e+02	1.1682	-6.532145	0.000238	2.375188	0.402368	-0.000024
1894	1.8835e+02	1.1604	-6.558215	0.000262	2.620897	0.443992	-0.000026
1895	1.8845e+02	1.1497	-6.577768	0.000197	1.965673	0.332994	-0.000020
1896	1.8855e+02	1.1379	-6.601801	0.000242	2.416140	0.409305	-0.000024
1897	1.8865e+02	1.1292	-6.630315	0.000287	2.866606	0.485616	-0.000029
1898	1.8875e+02	1.1204	-6.652311	0.000221	2.211382	0.374618	-0.000022
1899	1.8885e+02	1.1122	-6.676752	0.000246	2.457091	0.416242	-0.000025
1900	1.8895e+02	1.0999	-6.702414	0.000258	2.579946	0.437055	-0.000026
1901	1.8905e+02	1.0912	-6.726855	0.000246	2.457091	0.416242	-0.000025
1902	1.8915e+02	1.0805	-6.750481	0.000238	2.375188	0.402368	-0.000024
1903	1.8925e+02	1.0719	-6.776551	0.000262	2.620897	0.443992	-0.000026
1904	1.8935e+02	1.0617	-6.799769	0.000233	2.334236	0.395430	-0.000023
1905	1.8945e+02	1.0507	-6.822988	0.000233	2.334236	0.395430	-0.000023
1906	1.8955e+02	1.0409	-6.849058	0.000262	2.620897	0.443992	-0.000026
1907	1.8965e+02	1.0311	-6.874720	0.000258	2.579946	0.437055	-0.000026
1908	1.8975e+02	1.0204	-6.898753	0.000242	2.416140	0.409305	-0.000024
1909	1.8985e+02	1.0110	-6.924416	0.000258	2.579946	0.437055	-0.000026
1910	1.8995e+02	1.0005	-6.951708	0.000274	2.743752	0.464804	-0.000027
1911	1.9004e+02	0.9913	-6.977371	0.000258	2.579946	0.437055	-0.000026
1912	1.9014e+02	0.9805	-7.000996	0.000238	2.375188	0.402368	-0.000024
1913	1.9024e+02	0.9708	-7.025437	0.000246	2.457091	0.416242	-0.000025
1914	1.9034e+02	0.9589	-7.047841	0.000225	2.252333	0.381556	-0.000023
1915	1.9044e+02	0.9518	-7.071467	0.000238	2.375188	0.402368	-0.000024
1916	1.9054e+02	0.9410	-7.099166	0.000278	2.784703	0.471741	-0.000028
1917	1.9064e+02	0.9332	-7.119126	0.000201	2.006624	0.339931	-0.000020
1918	1.9074e+02	0.9222	-7.142344	0.000233	2.334236	0.395430	-0.000023
1919	1.9084e+02	0.9089	-7.163933	0.000217	2.170430	0.367681	-0.000022
1920	1.9094e+02	0.9005	-7.183893	0.000201	2.006624	0.339931	-0.000020
1921	1.9104e+02	0.8899	-7.207519	0.000238	2.375188	0.402368	-0.000024
1922	1.9114e+02	0.8816	-7.227072	0.000197	1.965673	0.332994	-0.000020
1923	1.9124e+02	0.8723	-7.251105	0.000242	2.416140	0.409305	-0.000024
1924	1.9134e+02	0.8607	-7.270250	0.000192	1.924721	0.326057	-0.000019
1925	1.9144e+02	0.8521	-7.297542	0.000274	2.743752	0.464804	-0.000027
1926	1.9154e+02	0.8412	-7.320353	0.000229	2.293285	0.388493	-0.000023
1927	1.9164e+02	0.8318	-7.339091	0.000188	1.883770	0.319119	-0.000019
1928	1.9174e+02	0.8206	-7.362309	0.000233	2.334236	0.395430	-0.000023
1929	1.9184e+02	0.8116	-7.380640	0.000184	1.842818	0.312182	-0.000018
1930	1.9194e+02	0.8027	-7.405080	0.000246	2.457091	0.416242	-0.000025
1931	1.9203e+02	0.7913	-7.421781	0.000168	1.679012	0.284432	-0.000017
1932	1.9213e+02	0.7808	-7.443778	0.000221	2.211382	0.374618	-0.000022
1933	1.9223e+02	0.7712	-7.469440	0.000258	2.579946	0.437055	-0.000026
1934	1.9233e+02	0.7599	-7.489400	0.000201	2.006624	0.339931	-0.000020
1935	1.9243e+02	0.7531	-7.514248	0.000250	2.498043	0.423180	-0.000025
1936	1.9253e+02	0.7418	-7.534615	0.000205	2.047576	0.346869	-0.000020
1937	1.9263e+02	0.7330	-7.558241	0.000238	2.375188	0.402368	-0.000024
1938	1.9273e+02	0.7197	-7.579016	0.000209	2.088527	0.353806	-0.000021
1939	1.9283e+02	0.7106	-7.604271	0.000254	2.538994	0.430117	-0.000025
1940	1.9293e+02	0.7001	-7.625045	0.000209	2.088527	0.353806	-0.000021
1941	1.9303e+02	0.6928	-7.648264	0.000233	2.334236	0.395430	-0.000023
1942	1.9313e+02	0.6828	-7.670668	0.000225	2.252333	0.381556	-0.000023
1943	1.9323e+02	0.6725	-7.695108	0.000246	2.457091	0.416242	-0.000025
1944	1.9333e+02	0.6630	-7.721585	0.000266	2.661849	0.450929	-0.000027
1945	1.9343e+02	0.6521	-7.746841	0.000254	2.538994	0.430117	-0.000025
1946	1.9353e+02	0.6454	-7.765986	0.000192	1.924721	0.326057	-0.000019
1947	1.9363e+02	0.6334	-7.789612	0.000238	2.375188	0.402368	-0.000024
1948	1.9373e+02	0.6232	-7.813645	0.000242	2.416140	0.409305	-0.000024
1949	1.9383e+02	0.6120	-7.836049	0.000225	2.252333	0.381556	-0.000023
1950	1.9393e+02	0.6017	-7.856416	0.000205	2.047576	0.346869	-0.000020
1951	1.9403e+02	0.5933	-7.883708	0.000274	2.743752	0.464804	-0.000027
1952	1.9412e+02	0.5804	-7.904890	0.000213	2.129479	0.360743	-0.000021
1953	1.9422e+02	0.5743	-7.931367	0.000266	2.661849	0.450929	-0.000027
1954	1.9432e+02	0.5616	-7.950512	0.000192	1.924721	0.326057	-0.000019
1955	1.9442e+02	0.5513	-7.976989	0.000266	2.661849	0.450929	-0.000027
1956	1.9452e+02	0.5431	-8.000615	0.000238	2.375188	0.402368	-0.000024
1957	1.9462e+02	0.5328	-8.019760	0.000192	1.924721	0.326057	-0.000019
1958	1.9472e+02	0.5248	-8.048274	0.000287	2.866606	0.485616	-0.000029
1959	1.9482e+02	0.5106	-8.072307	0.000242	2.416140	0.409305	-0.000024
1960	1.9492e+02	0.5013	-8.089416	0.000172	1.719964	0.291370	-0.000017
1961	1.9502e+02	0.4929	-8.119559	0.000303	3.030412	0.513366	-0.000030
1962	1.9512e+02	0.4866	-8.142370	0.000229	2.293285	0.388493	-0.000023
1963	1.9522e+02	0.4721	-8.163959	0.000217	2.170430	0.367681	-0.000022
1964	1.9532e+02	0.4626	-8.185549	0.000217	2.170430	0.367681	-0.000022
1965	1.9542e+02	0.4536	-8.211211	0.000258	2.579946	0.437055	-0.000026
1966	1.9552e+02	0.4436	-8.233208	0.000221	2.211382	0.374618	-0.000022
1967	1.9562e+02	0.4346	-8.256426	0.000233	2.334236	0.395430	-0.000023
1968	1.9572e+02	0.4226	-8.283311	0.000270	2.702800	0.457867	-0.000027
1969	1.9582e+02	0.4143	-8.306937	0.000238	2.375188	0.402368	-0.000024
1970	1.9592e+02	0.4014	-8.328526	0.000217	2.170430	0.367681	-0.000022
1971	1.9601e+02	0.3947	-8.352966	0.000246	2.457091	0.416242	-0.000025
1972	1.9611e+02	0.3825	-8.379444	0.000266	2.661849	0.450929	-0.000027
1973	1.9621e+02	0.3732	-8.403477	0.000242	2.416140	0.409305	-0.000024
1974	1.9631e+02	0.3656	-8.428325	0.000250	2.498043	0.423180	-0.000025
1975	1.9641e+02	0.3546	-8.453173	0.000250	2.498043	0.423180	-0.000025
1976	1.9651e+02	0.3433	-8.477613	0.000246	2.457091	0.416242	-0.000025
1977	1.9661e+02	0.3329	-8.503683	0.000262	2.620897	0.443992	-0.000026
1978	1.9671e+02	0.3230	-8.528124	0.000246	2.457091	0.416242	-0.000025
1979	1.9681e+02	0.3130	-8.546861	0.000188	1.883770	0.319119	-0.000019
1980	1.9691e+02	0.3027	-8.570895	0.000242	2.416140	0.409305	-0.000024
1981	1.9701e+02	0.2978	-8.599001	0.000283	2.825655	0.478679	-0.000028
1982	1.9711e+02	0.2843	-8.621405	0.000225	2.252333	0.381556	-0.000023
1983	1.9721e+02	0.2754	-8.640550	0.000192	1.924721	0.326057	-0.000019
1984	1.9731e+02	0.2617	-8.661732	0.000213	2.129479	0.360743	-0.000021
1985	1.9741e+02	0.2587	-8.684951	0.000233	2.334236	0.395430	-0.000023
1986	1.9751e+02	0.2442	-8.706947	0.000221	2.211382	0.374618	-0.000022
1987	1.9761e+02	0.2338	-8.730166	0.000233	2.334236	0.395430	-0.000023
1988	1.9771e+02	0.2258	-8.754606	0.000246	2.457091	0.416242	-0.000025
1989	1.9781e+02	0.2148	-8.777417	0.000229	2.293285	0.388493	-0.000023
1990	1.9791e+02	0.2023	-8.802673	0.000254	2.538994	0.430117	-0.000025
1991	1.9800e+02	0.1933	-8.826298	0.000238	2.375188	0.402368	-0.000024
1992	1.9810e+02	0.1838	-8.849517	0.000233	2.334236	0.395430	-0.000023
1993	1.9820e+02	0.1772	-8.869884	0.000205	2.047576	0.346869	-0.000020
1994	1.9830e+02	0.1648	-8.891066	0.000213	2.129479	0.360743	-0.000021
1995	1.9840e+02	0.1550	-8.916321	0.000254	2.538994	0.430117	-0.000025
1996	1.9850e+02	0.1458	-8.936688	0.000205	2.047576	0.346869	-0.000020
1997	1.9860e+02	0.1339	-8.962758	0.000262	2.620897	0.443992	-0.000026
1998	1.9870e+02	0.1235	-8.985977	0.000233	2.334236	0.395430	-0.000023
1999	1.9880e+02	0.1165	-9.007973	0.000221	2.211382	0.374618	-0.000022
2000	1.9890e+02	0.1024	-9.033636	0.000258	2.579946	0.437055	-0.000026
2001	1.9900e+02	0.0974	-9.060113	0.000266	2.661849	0.450929	-0.000027
2002	1.9910e+02	0.0830	-9.080888	0.000209	2.088527	0.353806	-0.000021
2003	1.9920e+02	0.0751	-9.109809	0.000291	2.907558	0.492554	-0.000029
2004	1.9930e+02	0.0664	-9.140360	0.000307	3.071364	0.520303	-0.000031
2005	1.9940e+02	0.0549	-9.166022	0.000258	2.579946	0.437055	-0.000026
2006	1.9950e+02	0.0452	-9.190463	0.000246	2.457091	0.416242	-0.000025
2007	1.9960e+02	0.0358	-9.216125	0.000258	2.579946	0.437055	-0.000026
2008	1.9970e+02	0.0237	-9.244232	0.000283	2.825655	0.478679	-0.000028
2009	1.9980e+02	0.0159	-9.267043	0.000229	2.293285	0.388493	-0.000023
2010	1.9990e+02	0.0055	-9.295557	0.000287	2.866606	0.485616	-0.000029
2011	2.0000e+02	-0.0041	-9.321627	0.000287	2.866606	0.485616	-0.000026

PMax (uC/cm2):	2.06e+01
Pr (uC/cm2):	9.51e-01
-Pr (uC/cm2):	0.00e+00
PLoss (uC/cm2):	0.00e+00
C (Max-Eff) (nF):	2.06e-01
K (Eff):	3.49e+02
Vert. (+/-Pr) Shift (uC/cm2):	4.75e-01
Offset (uC/cm2):	1.03e+01

A (Loop Area - uC/cm2·Volts):	-9.76e-03



Hysteresis Version: 5.48.1 - Radiant Technologies, Inc., 1999 - 9/12/24

