»»»»»»»»»»»»»»»»»»»»»»»»»»»»»»»»»»»» Hysteresis ««««««««««««««««««««««««««««««««««««
»»»  Executed Version:	5.48.1
»»»  Vision Version:	5.48.4 (R)
»»»  Vision Compiled:	9/18/24
»»»  Driver Version:	5.47.0
»»»  Windows Version:	Windows 8 or 8.1
»»»  Processor Information:	x86 (AMD or Intel) - 32 Processors
»»»  Tester Name:	PMF21124-494 (100V)
»»»  Tester S/N:	PMF21124-494
»»»  Internal Amp Type:	100V RevK 270k
»»»  Internal Amp S/N:	iAB2-596/K     
»»»  Execution Count:	1
»»»»»»»»»»»»»»»»»»»»»»»»»»»»»»»»»»»»»»»»»»««««««««««««««««««««««««««««««««««««««««««

Stored:	6/26/2025 - 16:8:59
Configured:	06/26/25 10:24:47 AM
Executed:	06/26/25 04:08:30 PM

»»»»»»»»»»»»»»»»»»»»»»»»»»»»»»»»»»» Sample Info ««««««««««««««««««««««««««««««««««««
Sample Name:	
Lot Name:	
Wafer Name:	
Die Row/Column:	0/0
Capacitor Number:	0
Sample Area (cm2):	1.00e-04
Sample Thickness (microns):	1.50e-01

Amplifier:	Internal

»»»»»»»»»»»»»»»»»»»»»»»»»»»»»»»»»»» Tester Info «««««««««««««««««««««««««««««««««««
Tester Name:	PMF21124-494 (100V)
Tester Serial Number:	PMF21124-494
Return Signal Amp. Level:	1.9 [Index: 2]

»»»»»»»»»»»»»»»»»»»»»»»»»»»»»»»» Hysteresis Info ««««««««««««««««««««««««««««««««««
Task Name:	Hyst-562
Volts:	10.00
Field:	666.67 (kV/cm)
DCBias:	0.00
DCField:	0.00 (kV/cm)
Hysteresis Period (ms):	2.00e+02
Preset:	Enabled
Preset Delay (ms):	1.00e+03
Profile:	Standard Monopolar

»»»»»»»»»»»»»»»»»»»»»»»»»»»»»»»»»»»»»» Data «««««««««««««««««««««««««««««««««««««««
Points:	2011

Valid Data

Point	Time (ms)	Drive Voltage	Measured Polarization (uC/cm2)	Capacitance (uF)	Normalized Capacitance (uF/cm2)	Dielectric Constant	Instantaneous Current (mA)
   1	0.0000e+00	-0.0046	-14.880020	0.000201	2.006387	0.339891	0.000020
   2	9.9500e-02	0.0027	-14.860060	0.000201	2.006387	0.339891	0.000020
   3	1.9900e-01	0.0147	-14.839693	0.000205	2.047334	0.346828	0.000020
   4	2.9850e-01	0.0254	-14.816067	0.000237	2.374907	0.402320	0.000024
   5	3.9800e-01	0.0349	-14.793256	0.000229	2.293014	0.388447	0.000023
   6	4.9750e-01	0.0441	-14.770445	0.000229	2.293014	0.388447	0.000023
   7	5.9700e-01	0.0562	-14.752114	0.000184	1.842600	0.312145	0.000018
   8	6.9650e-01	0.0657	-14.727266	0.000250	2.497747	0.423130	0.000025
   9	7.9600e-01	0.0744	-14.706492	0.000209	2.088280	0.353764	0.000021
  10	8.9550e-01	0.0874	-14.681644	0.000250	2.497747	0.423130	0.000025
  11	9.9500e-01	0.0941	-14.657611	0.000242	2.415854	0.409257	0.000024
  12	1.0945e+00	0.1044	-14.635614	0.000221	2.211120	0.374574	0.000022
  13	1.1940e+00	0.1173	-14.614432	0.000213	2.129227	0.360701	0.000021
  14	1.2935e+00	0.1250	-14.591621	0.000229	2.293014	0.388447	0.000023
  15	1.3930e+00	0.1361	-14.565959	0.000258	2.579640	0.437003	0.000026
  16	1.4925e+00	0.1429	-14.544777	0.000213	2.129227	0.360701	0.000021
  17	1.5920e+00	0.1530	-14.521151	0.000237	2.374907	0.402320	0.000024
  18	1.6915e+00	0.1675	-14.502006	0.000192	1.924494	0.326018	0.000019
  19	1.7910e+00	0.1741	-14.481639	0.000205	2.047334	0.346828	0.000020
  20	1.8905e+00	0.1861	-14.456791	0.000250	2.497747	0.423130	0.000025
  21	1.9900e+00	0.1962	-14.437646	0.000192	1.924494	0.326018	0.000019
  22	2.0895e+00	0.2049	-14.417686	0.000201	2.006387	0.339891	0.000020
  23	2.1890e+00	0.2151	-14.399356	0.000184	1.842600	0.312145	0.000018
  24	2.2885e+00	0.2232	-14.373693	0.000258	2.579640	0.437003	0.000026
  25	2.3880e+00	0.2321	-14.356585	0.000172	1.719760	0.291335	0.000017
  26	2.4875e+00	0.2438	-14.335810	0.000209	2.088280	0.353764	0.000021
  27	2.5870e+00	0.2538	-14.317072	0.000188	1.883547	0.319081	0.000019
  28	2.6865e+00	0.2654	-14.298742	0.000184	1.842600	0.312145	0.000018
  29	2.7860e+00	0.2730	-14.278782	0.000201	2.006387	0.339891	0.000020
  30	2.8855e+00	0.2870	-14.260044	0.000188	1.883547	0.319081	0.000019
  31	2.9850e+00	0.2937	-14.239270	0.000209	2.088280	0.353764	0.000021
  32	3.0845e+00	0.3064	-14.218088	0.000213	2.129227	0.360701	0.000021
  33	3.1840e+00	0.3156	-14.198943	0.000192	1.924494	0.326018	0.000019
  34	3.2835e+00	0.3241	-14.176946	0.000221	2.211120	0.374574	0.000022
  35	3.3830e+00	0.3338	-14.153321	0.000237	2.374907	0.402320	0.000024
  36	3.4825e+00	0.3442	-14.136212	0.000172	1.719760	0.291335	0.000017
  37	3.5820e+00	0.3545	-14.116660	0.000197	1.965440	0.332955	0.000020
  38	3.6815e+00	0.3644	-14.096293	0.000205	2.047334	0.346828	0.000020
  39	3.7810e+00	0.3745	-14.074296	0.000221	2.211120	0.374574	0.000022
  40	3.8805e+00	0.3826	-14.051485	0.000229	2.293014	0.388447	0.000023
  41	3.9800e+00	0.3951	-14.030711	0.000209	2.088280	0.353764	0.000021
  42	4.0795e+00	0.4010	-14.008714	0.000221	2.211120	0.374574	0.000022
  43	4.1790e+00	0.4153	-13.985088	0.000237	2.374907	0.402320	0.000024
  44	4.2785e+00	0.4211	-13.964721	0.000205	2.047334	0.346828	0.000020
  45	4.3780e+00	0.4311	-13.938244	0.000266	2.661534	0.450876	0.000027
  46	4.4775e+00	0.4440	-13.916247	0.000221	2.211120	0.374574	0.000022
  47	4.5770e+00	0.4533	-13.892214	0.000242	2.415854	0.409257	0.000024
  48	4.6765e+00	0.4628	-13.865329	0.000270	2.702480	0.457813	0.000027
  49	4.7760e+00	0.4706	-13.844555	0.000209	2.088280	0.353764	0.000021
  50	4.8755e+00	0.4802	-13.823373	0.000213	2.129227	0.360701	0.000021
  51	4.9750e+00	0.4919	-13.799747	0.000237	2.374907	0.402320	0.000024
  52	5.0745e+00	0.5038	-13.776121	0.000237	2.374907	0.402320	0.000024
  53	5.1740e+00	0.5106	-13.753310	0.000229	2.293014	0.388447	0.000023
  54	5.2735e+00	0.5268	-13.727240	0.000262	2.620587	0.443939	0.000026
  55	5.3730e+00	0.5328	-13.701578	0.000258	2.579640	0.437003	0.000026
  56	5.4725e+00	0.5428	-13.675915	0.000258	2.579640	0.437003	0.000026
  57	5.5720e+00	0.5510	-13.652697	0.000233	2.333960	0.395384	0.000023
  58	5.6715e+00	0.5643	-13.628256	0.000246	2.456800	0.416193	0.000025
  59	5.7710e+00	0.5710	-13.603816	0.000246	2.456800	0.416193	0.000025
  60	5.8705e+00	0.5824	-13.579782	0.000242	2.415854	0.409257	0.000024
  61	5.9700e+00	0.5936	-13.556564	0.000233	2.333960	0.395384	0.000023
  62	6.0695e+00	0.6010	-13.530901	0.000258	2.579640	0.437003	0.000026
  63	6.1690e+00	0.6099	-13.507275	0.000237	2.374907	0.402320	0.000024
  64	6.2685e+00	0.6217	-13.483242	0.000242	2.415854	0.409257	0.000024
  65	6.3680e+00	0.6306	-13.457580	0.000258	2.579640	0.437003	0.000026
  66	6.4675e+00	0.6441	-13.428658	0.000291	2.907214	0.492495	0.000029
  67	6.5670e+00	0.6559	-13.409513	0.000192	1.924494	0.326018	0.000019
  68	6.6665e+00	0.6615	-13.382221	0.000274	2.743427	0.464749	0.000027
  69	6.7660e+00	0.6744	-13.357373	0.000250	2.497747	0.423130	0.000025
  70	6.8655e+00	0.6817	-13.332933	0.000246	2.456800	0.416193	0.000025
  71	6.9650e+00	0.6935	-13.308085	0.000250	2.497747	0.423130	0.000025
  72	7.0645e+00	0.7032	-13.281200	0.000270	2.702480	0.457813	0.000027
  73	7.1640e+00	0.7143	-13.254723	0.000266	2.661534	0.450876	0.000027
  74	7.2635e+00	0.7204	-13.233541	0.000213	2.129227	0.360701	0.000021
  75	7.3630e+00	0.7307	-13.207064	0.000266	2.661534	0.450876	0.000027
  76	7.4625e+00	0.7429	-13.182216	0.000250	2.497747	0.423130	0.000025
  77	7.5620e+00	0.7521	-13.154924	0.000274	2.743427	0.464749	0.000027
  78	7.6615e+00	0.7626	-13.134964	0.000201	2.006387	0.339891	0.000020
  79	7.7610e+00	0.7697	-13.108080	0.000270	2.702480	0.457813	0.000027
  80	7.8605e+00	0.7836	-13.082010	0.000262	2.620587	0.443939	0.000026
  81	7.9600e+00	0.7928	-13.055125	0.000270	2.702480	0.457813	0.000027
  82	8.0595e+00	0.8006	-13.029055	0.000262	2.620587	0.443939	0.000026
  83	8.1590e+00	0.8117	-13.005022	0.000242	2.415854	0.409257	0.000024
  84	8.2585e+00	0.8212	-12.983025	0.000221	2.211120	0.374574	0.000022
  85	8.3580e+00	0.8313	-12.952067	0.000311	3.111947	0.527178	0.000031
  86	8.4575e+00	0.8436	-12.928849	0.000233	2.333960	0.395384	0.000023
  87	8.5570e+00	0.8497	-12.904816	0.000242	2.415854	0.409257	0.000024
  88	8.6565e+00	0.8615	-12.879153	0.000258	2.579640	0.437003	0.000026
  89	8.7560e+00	0.8724	-12.853083	0.000262	2.620587	0.443939	0.000026
  90	8.8555e+00	0.8813	-12.826606	0.000266	2.661534	0.450876	0.000027
  91	8.9550e+00	0.8901	-12.803387	0.000233	2.333960	0.395384	0.000023
  92	9.0545e+00	0.9010	-12.776095	0.000274	2.743427	0.464749	0.000027
  93	9.1540e+00	0.9121	-12.750840	0.000254	2.538694	0.430066	0.000025
  94	9.2535e+00	0.9195	-12.724770	0.000262	2.620587	0.443939	0.000026
  95	9.3530e+00	0.9315	-12.702366	0.000225	2.252067	0.381510	0.000023
  96	9.4525e+00	0.9382	-12.676297	0.000262	2.620587	0.443939	0.000026
  97	9.5520e+00	0.9486	-12.653078	0.000233	2.333960	0.395384	0.000023
  98	9.6515e+00	0.9621	-12.626193	0.000270	2.702480	0.457813	0.000027
  99	9.7510e+00	0.9703	-12.598901	0.000274	2.743427	0.464749	0.000027
 100	9.8505e+00	0.9788	-12.576498	0.000225	2.252067	0.381510	0.000023
 101	9.9500e+00	0.9917	-12.549613	0.000270	2.702480	0.457813	0.000027
 102	1.0050e+01	0.9985	-12.527616	0.000221	2.211120	0.374574	0.000022
 103	1.0149e+01	1.0123	-12.495436	0.000323	3.234787	0.547988	0.000032
 104	1.0248e+01	1.0234	-12.468144	0.000274	2.743427	0.464749	0.000027
 105	1.0348e+01	1.0306	-12.442075	0.000262	2.620587	0.443939	0.000026
 106	1.0447e+01	1.0374	-12.414375	0.000278	2.784374	0.471686	0.000028
 107	1.0547e+01	1.0455	-12.385454	0.000291	2.907214	0.492495	0.000029
 108	1.0646e+01	1.0581	-12.362643	0.000229	2.293014	0.388447	0.000023
 109	1.0746e+01	1.0685	-12.329648	0.000332	3.316681	0.561861	0.000033
 110	1.0845e+01	1.0814	-12.304393	0.000254	2.538694	0.430066	0.000025
 111	1.0945e+01	1.0894	-12.277101	0.000274	2.743427	0.464749	0.000027
 112	1.1044e+01	1.0983	-12.247772	0.000295	2.948160	0.499432	0.000029
 113	1.1144e+01	1.1115	-12.217221	0.000307	3.071001	0.520242	0.000031
 114	1.1243e+01	1.1213	-12.190744	0.000266	2.661534	0.450876	0.000027
 115	1.1343e+01	1.1298	-12.163045	0.000278	2.784374	0.471686	0.000028
 116	1.1443e+01	1.1378	-12.137382	0.000258	2.579640	0.437003	0.000026
 117	1.1542e+01	1.1507	-12.110905	0.000266	2.661534	0.450876	0.000027
 118	1.1642e+01	1.1608	-12.075874	0.000352	3.521414	0.596544	0.000035
 119	1.1741e+01	1.1685	-12.050211	0.000258	2.579640	0.437003	0.000026
 120	1.1841e+01	1.1795	-12.024548	0.000258	2.579640	0.437003	0.000026
 121	1.1940e+01	1.1903	-11.995627	0.000291	2.907214	0.492495	0.000029
 122	1.2040e+01	1.2014	-11.967113	0.000287	2.866267	0.485559	0.000029
 123	1.2139e+01	1.2096	-11.943895	0.000233	2.333960	0.395384	0.000023
 124	1.2239e+01	1.2200	-11.916603	0.000274	2.743427	0.464749	0.000027
 125	1.2338e+01	1.2285	-11.888496	0.000283	2.825320	0.478622	0.000028
 126	1.2438e+01	1.2383	-11.864870	0.000237	2.374907	0.402320	0.000024
 127	1.2537e+01	1.2482	-11.837986	0.000270	2.702480	0.457813	0.000027
 128	1.2636e+01	1.2574	-11.816396	0.000217	2.170174	0.367637	0.000022
 129	1.2736e+01	1.2700	-11.792363	0.000242	2.415854	0.409257	0.000024
 130	1.2835e+01	1.2782	-11.766293	0.000262	2.620587	0.443939	0.000026
 131	1.2935e+01	1.2878	-11.742667	0.000237	2.374907	0.402320	0.000024
 132	1.3034e+01	1.2989	-11.719042	0.000237	2.374907	0.402320	0.000024
 133	1.3134e+01	1.3123	-11.693379	0.000258	2.579640	0.437003	0.000026
 134	1.3233e+01	1.3189	-11.667309	0.000262	2.620587	0.443939	0.000026
 135	1.3333e+01	1.3290	-11.645313	0.000221	2.211120	0.374574	0.000022
 136	1.3432e+01	1.3405	-11.619650	0.000258	2.579640	0.437003	0.000026
 137	1.3532e+01	1.3485	-11.597653	0.000221	2.211120	0.374574	0.000022
 138	1.3632e+01	1.3582	-11.574028	0.000237	2.374907	0.402320	0.000024
 139	1.3731e+01	1.3689	-11.552438	0.000217	2.170174	0.367637	0.000022
 140	1.3831e+01	1.3783	-11.524332	0.000283	2.825320	0.478622	0.000028
 141	1.3930e+01	1.3907	-11.504779	0.000197	1.965440	0.332955	0.000020
 142	1.4030e+01	1.3960	-11.473821	0.000311	3.111947	0.527178	0.000031
 143	1.4129e+01	1.4079	-11.454269	0.000197	1.965440	0.332955	0.000020
 144	1.4229e+01	1.4156	-11.431458	0.000229	2.293014	0.388447	0.000023
 145	1.4328e+01	1.4274	-11.404166	0.000274	2.743427	0.464749	0.000027
 146	1.4428e+01	1.4370	-11.381762	0.000225	2.252067	0.381510	0.000023
 147	1.4527e+01	1.4487	-11.359765	0.000221	2.211120	0.374574	0.000022
 148	1.4627e+01	1.4582	-11.335732	0.000242	2.415854	0.409257	0.000024
 149	1.4726e+01	1.4680	-11.314958	0.000209	2.088280	0.353764	0.000021
 150	1.4825e+01	1.4789	-11.287666	0.000274	2.743427	0.464749	0.000027
 151	1.4925e+01	1.4887	-11.266484	0.000213	2.129227	0.360701	0.000021
 152	1.5024e+01	1.4994	-11.237563	0.000291	2.907214	0.492495	0.000029
 153	1.5124e+01	1.5089	-11.218825	0.000188	1.883547	0.319081	0.000019
 154	1.5223e+01	1.5160	-11.196828	0.000221	2.211120	0.374574	0.000022
 155	1.5323e+01	1.5272	-11.169129	0.000278	2.784374	0.471686	0.000028
 156	1.5422e+01	1.5402	-11.152021	0.000172	1.719760	0.291335	0.000017
 157	1.5522e+01	1.5489	-11.125951	0.000262	2.620587	0.443939	0.000026
 158	1.5621e+01	1.5581	-11.101918	0.000242	2.415854	0.409257	0.000024
 159	1.5721e+01	1.5685	-11.082772	0.000192	1.924494	0.326018	0.000019
 160	1.5820e+01	1.5787	-11.061998	0.000209	2.088280	0.353764	0.000021
 161	1.5920e+01	1.5894	-11.036335	0.000258	2.579640	0.437003	0.000026
 162	1.6020e+01	1.5973	-11.012302	0.000242	2.415854	0.409257	0.000024
 163	1.6119e+01	1.6080	-10.988676	0.000237	2.374907	0.402320	0.000024
 164	1.6218e+01	1.6145	-10.967902	0.000209	2.088280	0.353764	0.000021
 165	1.6318e+01	1.6293	-10.945905	0.000221	2.211120	0.374574	0.000022
 166	1.6418e+01	1.6367	-10.924724	0.000213	2.129227	0.360701	0.000021
 167	1.6517e+01	1.6440	-10.898246	0.000266	2.661534	0.450876	0.000027
 168	1.6616e+01	1.6574	-10.877064	0.000213	2.129227	0.360701	0.000021
 169	1.6716e+01	1.6676	-10.850995	0.000262	2.620587	0.443939	0.000026
 170	1.6816e+01	1.6776	-10.832257	0.000188	1.883547	0.319081	0.000019
 171	1.6915e+01	1.6864	-10.810260	0.000221	2.211120	0.374574	0.000022
 172	1.7015e+01	1.6955	-10.787042	0.000233	2.333960	0.395384	0.000023
 173	1.7114e+01	1.7089	-10.765453	0.000217	2.170174	0.367637	0.000022
 174	1.7213e+01	1.7165	-10.743049	0.000225	2.252067	0.381510	0.000023
 175	1.7313e+01	1.7284	-10.717794	0.000254	2.538694	0.430066	0.000025
 176	1.7413e+01	1.7374	-10.698648	0.000192	1.924494	0.326018	0.000019
 177	1.7512e+01	1.7466	-10.674208	0.000246	2.456800	0.416193	0.000025
 178	1.7611e+01	1.7569	-10.648545	0.000258	2.579640	0.437003	0.000026
 179	1.7711e+01	1.7655	-10.628586	0.000201	2.006387	0.339891	0.000020
 180	1.7811e+01	1.7767	-10.606996	0.000217	2.170174	0.367637	0.000022
 181	1.7910e+01	1.7876	-10.582148	0.000250	2.497747	0.423130	0.000025
 182	1.8009e+01	1.7927	-10.559745	0.000225	2.252067	0.381510	0.000023
 183	1.8109e+01	1.8048	-10.536119	0.000237	2.374907	0.402320	0.000024
 184	1.8209e+01	1.8150	-10.516974	0.000192	1.924494	0.326018	0.000019
 185	1.8308e+01	1.8250	-10.494570	0.000225	2.252067	0.381510	0.000023
 186	1.8407e+01	1.8369	-10.472981	0.000217	2.170174	0.367637	0.000022
 187	1.8507e+01	1.8468	-10.451392	0.000217	2.170174	0.367637	0.000022
 188	1.8607e+01	1.8569	-10.434283	0.000172	1.719760	0.291335	0.000017
 189	1.8706e+01	1.8664	-10.411065	0.000233	2.333960	0.395384	0.000023
 190	1.8805e+01	1.8769	-10.389475	0.000217	2.170174	0.367637	0.000022
 191	1.8905e+01	1.8865	-10.369516	0.000201	2.006387	0.339891	0.000020
 192	1.9005e+01	1.8935	-10.351593	0.000180	1.801654	0.305208	0.000018
 193	1.9104e+01	1.9021	-10.327967	0.000237	2.374907	0.402320	0.000024
 194	1.9203e+01	1.9166	-10.309636	0.000184	1.842600	0.312145	0.000018
 195	1.9303e+01	1.9241	-10.290491	0.000192	1.924494	0.326018	0.000019
 196	1.9402e+01	1.9366	-10.269717	0.000209	2.088280	0.353764	0.000021
 197	1.9502e+01	1.9437	-10.250572	0.000192	1.924494	0.326018	0.000019
 198	1.9602e+01	1.9573	-10.233871	0.000168	1.678814	0.284399	0.000017
 199	1.9701e+01	1.9648	-10.210652	0.000233	2.333960	0.395384	0.000023
 200	1.9800e+01	1.9765	-10.189878	0.000209	2.088280	0.353764	0.000021
 201	1.9900e+01	1.9862	-10.169510	0.000205	2.047334	0.346828	0.000020
 202	2.0000e+01	1.9953	-10.153624	0.000160	1.596920	0.270526	0.000016
 203	2.0099e+01	2.0063	-10.132442	0.000213	2.129227	0.360701	0.000021
 204	2.0198e+01	2.0125	-10.112890	0.000197	1.965440	0.332955	0.000020
 205	2.0298e+01	2.0238	-10.089264	0.000237	2.374907	0.402320	0.000024
 206	2.0398e+01	2.0381	-10.074192	0.000152	1.515027	0.256653	0.000015
 207	2.0497e+01	2.0452	-10.051381	0.000229	2.293014	0.388447	0.000023
 208	2.0596e+01	2.0570	-10.028163	0.000233	2.333960	0.395384	0.000023
 209	2.0696e+01	2.0654	-10.009018	0.000192	1.924494	0.326018	0.000019
 210	2.0796e+01	2.0768	-9.982133	0.000270	2.702480	0.457813	0.000027
 211	2.0895e+01	2.0868	-9.961358	0.000209	2.088280	0.353764	0.000021
 212	2.0994e+01	2.0934	-9.937733	0.000237	2.374907	0.402320	0.000024
 213	2.1094e+01	2.1066	-9.914514	0.000233	2.333960	0.395384	0.000023
 214	2.1194e+01	2.1140	-9.896998	0.000176	1.760707	0.298272	0.000018
 215	2.1293e+01	2.1251	-9.870928	0.000262	2.620587	0.443939	0.000026
 216	2.1392e+01	2.1346	-9.848932	0.000221	2.211120	0.374574	0.000022
 217	2.1492e+01	2.1458	-9.823677	0.000254	2.538694	0.430066	0.000025
 218	2.1591e+01	2.1529	-9.804124	0.000197	1.965440	0.332955	0.000020
 219	2.1691e+01	2.1623	-9.778869	0.000254	2.538694	0.430066	0.000025
 220	2.1791e+01	2.1764	-9.754021	0.000250	2.497747	0.423130	0.000025
 221	2.1890e+01	2.1842	-9.735691	0.000184	1.842600	0.312145	0.000018
 222	2.1989e+01	2.1922	-9.706769	0.000291	2.907214	0.492495	0.000029
 223	2.2089e+01	2.2065	-9.685995	0.000209	2.088280	0.353764	0.000021
 224	2.2189e+01	2.2145	-9.658703	0.000274	2.743427	0.464749	0.000027
 225	2.2288e+01	2.2243	-9.636706	0.000221	2.211120	0.374574	0.000022
 226	2.2387e+01	2.2381	-9.613081	0.000237	2.374907	0.402320	0.000024
 227	2.2487e+01	2.2429	-9.591491	0.000217	2.170174	0.367637	0.000022
 228	2.2587e+01	2.2546	-9.565014	0.000266	2.661534	0.450876	0.000027
 229	2.2686e+01	2.2666	-9.541796	0.000233	2.333960	0.395384	0.000023
 230	2.2785e+01	2.2725	-9.517762	0.000242	2.415854	0.409257	0.000024
 231	2.2885e+01	2.2803	-9.494137	0.000237	2.374907	0.402320	0.000024
 232	2.2985e+01	2.2939	-9.471325	0.000229	2.293014	0.388447	0.000023
 233	2.3084e+01	2.3036	-9.449329	0.000221	2.211120	0.374574	0.000022
 234	2.3183e+01	2.3122	-9.423259	0.000262	2.620587	0.443939	0.000026
 235	2.3283e+01	2.3244	-9.398004	0.000254	2.538694	0.430066	0.000025
 236	2.3383e+01	2.3333	-9.375600	0.000225	2.252067	0.381510	0.000023
 237	2.3482e+01	2.3431	-9.352381	0.000233	2.333960	0.395384	0.000023
 238	2.3581e+01	2.3547	-9.327941	0.000246	2.456800	0.416193	0.000025
 239	2.3681e+01	2.3647	-9.304315	0.000237	2.374907	0.402320	0.000024
 240	2.3780e+01	2.3744	-9.279467	0.000250	2.497747	0.423130	0.000025
 241	2.3880e+01	2.3845	-9.255434	0.000242	2.415854	0.409257	0.000024
 242	2.3980e+01	2.3980	-9.230179	0.000254	2.538694	0.430066	0.000025
 243	2.4079e+01	2.4008	-9.203701	0.000266	2.661534	0.450876	0.000027
 244	2.4178e+01	2.4150	-9.182519	0.000213	2.129227	0.360701	0.000021
 245	2.4278e+01	2.4235	-9.154413	0.000283	2.825320	0.478622	0.000028
 246	2.4378e+01	2.4332	-9.128343	0.000262	2.620587	0.443939	0.000026
 247	2.4477e+01	2.4454	-9.104310	0.000242	2.415854	0.409257	0.000024
 248	2.4576e+01	2.4557	-9.081906	0.000225	2.252067	0.381510	0.000023
 249	2.4676e+01	2.4629	-9.056651	0.000254	2.538694	0.430066	0.000025
 250	2.4776e+01	2.4765	-9.030988	0.000258	2.579640	0.437003	0.000026
 251	2.4875e+01	2.4831	-9.007770	0.000233	2.333960	0.395384	0.000023
 252	2.4974e+01	2.4896	-8.981700	0.000262	2.620587	0.443939	0.000026
 253	2.5074e+01	2.5036	-8.959296	0.000225	2.252067	0.381510	0.000023
 254	2.5174e+01	2.5112	-8.933633	0.000258	2.579640	0.437003	0.000026
 255	2.5273e+01	2.5211	-8.910007	0.000237	2.374907	0.402320	0.000024
 256	2.5372e+01	2.5320	-8.885159	0.000250	2.497747	0.423130	0.000025
 257	2.5472e+01	2.5444	-8.861941	0.000233	2.333960	0.395384	0.000023
 258	2.5572e+01	2.5536	-8.836686	0.000254	2.538694	0.430066	0.000025
 259	2.5671e+01	2.5631	-8.809394	0.000274	2.743427	0.464749	0.000027
 260	2.5770e+01	2.5718	-8.787397	0.000221	2.211120	0.374574	0.000022
 261	2.5870e+01	2.5819	-8.762549	0.000250	2.497747	0.423130	0.000025
 262	2.5970e+01	2.5915	-8.735257	0.000274	2.743427	0.464749	0.000027
 263	2.6069e+01	2.6031	-8.714890	0.000205	2.047334	0.346828	0.000020
 264	2.6169e+01	2.6102	-8.686784	0.000283	2.825320	0.478622	0.000028
 265	2.6268e+01	2.6225	-8.667231	0.000197	1.965440	0.332955	0.000020
 266	2.6367e+01	2.6334	-8.639125	0.000283	2.825320	0.478622	0.000028
 267	2.6467e+01	2.6419	-8.615091	0.000242	2.415854	0.409257	0.000024
 268	2.6567e+01	2.6538	-8.593095	0.000221	2.211120	0.374574	0.000022
 269	2.6666e+01	2.6637	-8.568247	0.000250	2.497747	0.423130	0.000025
 270	2.6765e+01	2.6713	-8.541362	0.000270	2.702480	0.457813	0.000027
 271	2.6865e+01	2.6820	-8.514478	0.000270	2.702480	0.457813	0.000027
 272	2.6965e+01	2.6945	-8.488815	0.000258	2.579640	0.437003	0.000026
 273	2.7064e+01	2.7002	-8.462338	0.000266	2.661534	0.450876	0.000027
 274	2.7163e+01	2.7110	-8.436675	0.000258	2.579640	0.437003	0.000026
 275	2.7263e+01	2.7218	-8.408569	0.000283	2.825320	0.478622	0.000028
 276	2.7363e+01	2.7319	-8.382091	0.000266	2.661534	0.450876	0.000027
 277	2.7462e+01	2.7422	-8.354799	0.000274	2.743427	0.464749	0.000027
 278	2.7561e+01	2.7531	-8.327507	0.000274	2.743427	0.464749	0.000027
 279	2.7661e+01	2.7618	-8.298586	0.000291	2.907214	0.492495	0.000029
 280	2.7761e+01	2.7711	-8.273738	0.000250	2.497747	0.423130	0.000025
 281	2.7860e+01	2.7824	-8.246039	0.000278	2.784374	0.471686	0.000028
 282	2.7959e+01	2.7917	-8.217932	0.000283	2.825320	0.478622	0.000028
 283	2.8059e+01	2.8052	-8.192270	0.000258	2.579640	0.437003	0.000026
 284	2.8159e+01	2.8111	-8.163756	0.000287	2.866267	0.485559	0.000029
 285	2.8258e+01	2.8236	-8.140537	0.000233	2.333960	0.395384	0.000023
 286	2.8358e+01	2.8318	-8.112838	0.000278	2.784374	0.471686	0.000028
 287	2.8457e+01	2.8414	-8.082695	0.000303	3.030054	0.513305	0.000030
 288	2.8556e+01	2.8497	-8.058254	0.000246	2.456800	0.416193	0.000025
 289	2.8656e+01	2.8619	-8.029740	0.000287	2.866267	0.485559	0.000029
 290	2.8756e+01	2.8700	-8.002855	0.000270	2.702480	0.457813	0.000027
 291	2.8855e+01	2.8812	-7.977193	0.000258	2.579640	0.437003	0.000026
 292	2.8954e+01	2.8912	-7.956011	0.000213	2.129227	0.360701	0.000021
 293	2.9054e+01	2.9018	-7.927904	0.000283	2.825320	0.478622	0.000028
 294	2.9154e+01	2.9099	-7.903464	0.000246	2.456800	0.416193	0.000025
 295	2.9253e+01	2.9221	-7.880653	0.000229	2.293014	0.388447	0.000023
 296	2.9352e+01	2.9290	-7.859471	0.000213	2.129227	0.360701	0.000021
 297	2.9452e+01	2.9410	-7.832179	0.000274	2.743427	0.464749	0.000027
 298	2.9552e+01	2.9483	-7.808960	0.000233	2.333960	0.395384	0.000023
 299	2.9651e+01	2.9599	-7.787371	0.000217	2.170174	0.367637	0.000022
 300	2.9750e+01	2.9697	-7.763745	0.000237	2.374907	0.402320	0.000024
 301	2.9850e+01	2.9821	-7.739712	0.000242	2.415854	0.409257	0.000024
 302	2.9950e+01	2.9919	-7.716086	0.000237	2.374907	0.402320	0.000024
 303	3.0049e+01	2.9998	-7.692460	0.000237	2.374907	0.402320	0.000024
 304	3.0148e+01	3.0087	-7.670871	0.000217	2.170174	0.367637	0.000022
 305	3.0248e+01	3.0221	-7.648467	0.000225	2.252067	0.381510	0.000023
 306	3.0348e+01	3.0318	-7.626471	0.000221	2.211120	0.374574	0.000022
 307	3.0447e+01	3.0395	-7.599586	0.000270	2.702480	0.457813	0.000027
 308	3.0547e+01	3.0507	-7.575146	0.000246	2.456800	0.416193	0.000025
 309	3.0646e+01	3.0569	-7.551927	0.000233	2.333960	0.395384	0.000023
 310	3.0745e+01	3.0713	-7.533597	0.000184	1.842600	0.312145	0.000018
 311	3.0845e+01	3.0807	-7.509564	0.000242	2.415854	0.409257	0.000024
 312	3.0945e+01	3.0895	-7.487160	0.000225	2.252067	0.381510	0.000023
 313	3.1044e+01	3.1030	-7.463127	0.000242	2.415854	0.409257	0.000024
 314	3.1143e+01	3.1091	-7.437464	0.000258	2.579640	0.437003	0.000026
 315	3.1243e+01	3.1185	-7.419134	0.000184	1.842600	0.312145	0.000018
 316	3.1343e+01	3.1297	-7.398766	0.000205	2.047334	0.346828	0.000020
 317	3.1442e+01	3.1406	-7.374326	0.000246	2.456800	0.416193	0.000025
 318	3.1541e+01	3.1503	-7.349885	0.000246	2.456800	0.416193	0.000025
 319	3.1641e+01	3.1575	-7.330333	0.000197	1.965440	0.332955	0.000020
 320	3.1741e+01	3.1690	-7.306707	0.000237	2.374907	0.402320	0.000024
 321	3.1840e+01	3.1807	-7.285933	0.000209	2.088280	0.353764	0.000021
 322	3.1939e+01	3.1898	-7.265158	0.000209	2.088280	0.353764	0.000021
 323	3.2039e+01	3.1991	-7.240718	0.000246	2.456800	0.416193	0.000025
 324	3.2139e+01	3.2119	-7.216684	0.000242	2.415854	0.409257	0.000024
 325	3.2238e+01	3.2181	-7.200391	0.000164	1.637867	0.277462	0.000016
 326	3.2337e+01	3.2294	-7.175543	0.000250	2.497747	0.423130	0.000025
 327	3.2437e+01	3.2378	-7.153546	0.000221	2.211120	0.374574	0.000022
 328	3.2536e+01	3.2482	-7.131957	0.000217	2.170174	0.367637	0.000022
 329	3.2636e+01	3.2591	-7.111997	0.000201	2.006387	0.339891	0.000020
 330	3.2736e+01	3.2691	-7.089593	0.000225	2.252067	0.381510	0.000023
 331	3.2835e+01	3.2777	-7.066782	0.000229	2.293014	0.388447	0.000023
 332	3.2934e+01	3.2894	-7.046822	0.000201	2.006387	0.339891	0.000020
 333	3.3034e+01	3.3002	-7.026048	0.000209	2.088280	0.353764	0.000021
 334	3.3133e+01	3.3089	-7.005274	0.000209	2.088280	0.353764	0.000021
 335	3.3233e+01	3.3208	-6.979611	0.000258	2.579640	0.437003	0.000026
 336	3.3333e+01	3.3285	-6.960873	0.000188	1.883547	0.319081	0.000019
 337	3.3432e+01	3.3395	-6.937247	0.000237	2.374907	0.402320	0.000024
 338	3.3532e+01	3.3482	-6.915251	0.000221	2.211120	0.374574	0.000022
 339	3.3631e+01	3.3628	-6.897735	0.000176	1.760707	0.298272	0.000018
 340	3.3730e+01	3.3718	-6.873295	0.000246	2.456800	0.416193	0.000025
 341	3.3830e+01	3.3789	-6.852113	0.000213	2.129227	0.360701	0.000021
 342	3.3929e+01	3.3896	-6.831338	0.000209	2.088280	0.353764	0.000021
 343	3.4029e+01	3.4017	-6.812193	0.000192	1.924494	0.326018	0.000019
 344	3.4129e+01	3.4072	-6.786938	0.000254	2.538694	0.430066	0.000025
 345	3.4228e+01	3.4154	-6.767385	0.000197	1.965440	0.332955	0.000020
 346	3.4328e+01	3.4280	-6.742538	0.000250	2.497747	0.423130	0.000025
 347	3.4427e+01	3.4394	-6.721763	0.000209	2.088280	0.353764	0.000021
 348	3.4526e+01	3.4479	-6.700174	0.000217	2.170174	0.367637	0.000022
 349	3.4626e+01	3.4586	-6.678992	0.000213	2.129227	0.360701	0.000021
 350	3.4725e+01	3.4690	-6.654144	0.000250	2.497747	0.423130	0.000025
 351	3.4825e+01	3.4782	-6.636221	0.000180	1.801654	0.305208	0.000018
 352	3.4925e+01	3.4873	-6.609337	0.000270	2.702480	0.457813	0.000027
 353	3.5024e+01	3.4988	-6.595487	0.000139	1.392187	0.235843	0.000014
 354	3.5123e+01	3.5077	-6.576342	0.000192	1.924494	0.326018	0.000019
 355	3.5223e+01	3.5180	-6.558826	0.000176	1.760707	0.298272	0.000018
 356	3.5322e+01	3.5291	-6.535200	0.000237	2.374907	0.402320	0.000024
 357	3.5422e+01	3.5369	-6.517684	0.000176	1.760707	0.298272	0.000018
 358	3.5522e+01	3.5447	-6.496910	0.000209	2.088280	0.353764	0.000021
 359	3.5621e+01	3.5593	-6.475728	0.000213	2.129227	0.360701	0.000021
 360	3.5721e+01	3.5665	-6.462286	0.000135	1.351240	0.228906	0.000014
 361	3.5820e+01	3.5798	-6.437845	0.000246	2.456800	0.416193	0.000025
 362	3.5919e+01	3.5895	-6.421552	0.000164	1.637867	0.277462	0.000016
 363	3.6019e+01	3.6012	-6.404443	0.000172	1.719760	0.291335	0.000017
 364	3.6118e+01	3.6045	-6.384891	0.000197	1.965440	0.332955	0.000020
 365	3.6218e+01	3.6190	-6.364931	0.000201	2.006387	0.339891	0.000020
 366	3.6318e+01	3.6277	-6.347415	0.000176	1.760707	0.298272	0.000018
 367	3.6417e+01	3.6355	-6.328678	0.000188	1.883547	0.319081	0.000019
 368	3.6517e+01	3.6473	-6.309532	0.000192	1.924494	0.326018	0.000019
 369	3.6616e+01	3.6549	-6.289980	0.000197	1.965440	0.332955	0.000020
 370	3.6715e+01	3.6668	-6.271650	0.000184	1.842600	0.312145	0.000018
 371	3.6815e+01	3.6779	-6.251690	0.000201	2.006387	0.339891	0.000020
 372	3.6914e+01	3.6868	-6.233767	0.000180	1.801654	0.305208	0.000018
 373	3.7014e+01	3.6997	-6.215436	0.000184	1.842600	0.312145	0.000018
 374	3.7114e+01	3.7081	-6.192625	0.000229	2.293014	0.388447	0.000023
 375	3.7213e+01	3.7164	-6.172258	0.000205	2.047334	0.346828	0.000020
 376	3.7313e+01	3.7299	-6.155150	0.000172	1.719760	0.291335	0.000017
 377	3.7412e+01	3.7373	-6.129487	0.000258	2.579640	0.437003	0.000026
 378	3.7511e+01	3.7470	-6.111564	0.000180	1.801654	0.305208	0.000018
 379	3.7611e+01	3.7562	-6.087938	0.000237	2.374907	0.402320	0.000024
 380	3.7711e+01	3.7685	-6.066756	0.000213	2.129227	0.360701	0.000021
 381	3.7810e+01	3.7772	-6.045574	0.000213	2.129227	0.360701	0.000021
 382	3.7910e+01	3.7884	-6.027651	0.000180	1.801654	0.305208	0.000018
 383	3.8009e+01	3.7957	-6.002804	0.000250	2.497747	0.423130	0.000025
 384	3.8108e+01	3.8070	-5.980807	0.000221	2.211120	0.374574	0.000022
 385	3.8208e+01	3.8165	-5.956774	0.000242	2.415854	0.409257	0.000024
 386	3.8307e+01	3.8251	-5.935592	0.000213	2.129227	0.360701	0.000021
 387	3.8407e+01	3.8377	-5.913188	0.000225	2.252067	0.381510	0.000023
 388	3.8507e+01	3.8430	-5.890784	0.000225	2.252067	0.381510	0.000023
 389	3.8606e+01	3.8604	-5.866751	0.000242	2.415854	0.409257	0.000024
 390	3.8706e+01	3.8667	-5.845569	0.000213	2.129227	0.360701	0.000021
 391	3.8805e+01	3.8757	-5.824387	0.000213	2.129227	0.360701	0.000021
 392	3.8904e+01	3.8818	-5.803206	0.000213	2.129227	0.360701	0.000021
 393	3.9004e+01	3.8969	-5.780394	0.000229	2.293014	0.388447	0.000023
 394	3.9103e+01	3.9079	-5.757991	0.000225	2.252067	0.381510	0.000023
 395	3.9203e+01	3.9149	-5.731513	0.000266	2.661534	0.450876	0.000027
 396	3.9303e+01	3.9264	-5.714812	0.000168	1.678814	0.284399	0.000017
 397	3.9402e+01	3.9342	-5.688742	0.000262	2.620587	0.443939	0.000026
 398	3.9502e+01	3.9465	-5.664302	0.000246	2.456800	0.416193	0.000025
 399	3.9601e+01	3.9574	-5.645971	0.000184	1.842600	0.312145	0.000018
 400	3.9700e+01	3.9660	-5.620309	0.000258	2.579640	0.437003	0.000026
 401	3.9800e+01	3.9745	-5.593424	0.000270	2.702480	0.457813	0.000027
 402	3.9900e+01	3.9864	-5.577945	0.000156	1.555974	0.263589	0.000016
 403	3.9999e+01	3.9984	-5.551875	0.000262	2.620587	0.443939	0.000026
 404	4.0099e+01	4.0077	-5.529064	0.000229	2.293014	0.388447	0.000023
 405	4.0198e+01	4.0177	-5.505031	0.000242	2.415854	0.409257	0.000024
 406	4.0297e+01	4.0221	-5.480183	0.000250	2.497747	0.423130	0.000025
 407	4.0397e+01	4.0369	-5.460223	0.000201	2.006387	0.339891	0.000020
 408	4.0496e+01	4.0469	-5.432931	0.000274	2.743427	0.464749	0.000027
 409	4.0596e+01	4.0543	-5.408898	0.000242	2.415854	0.409257	0.000024
 410	4.0696e+01	4.0649	-5.392197	0.000168	1.678814	0.284399	0.000017
 411	4.0795e+01	4.0752	-5.363683	0.000287	2.866267	0.485559	0.000029
 412	4.0895e+01	4.0845	-5.342909	0.000209	2.088280	0.353764	0.000021
 413	4.0994e+01	4.0971	-5.315209	0.000278	2.784374	0.471686	0.000028
 414	4.1093e+01	4.1077	-5.290361	0.000250	2.497747	0.423130	0.000025
 415	4.1193e+01	4.1132	-5.268772	0.000217	2.170174	0.367637	0.000022
 416	4.1292e+01	4.1273	-5.242295	0.000266	2.661534	0.450876	0.000027
 417	4.1392e+01	4.1326	-5.224779	0.000176	1.760707	0.298272	0.000018
 418	4.1492e+01	4.1433	-5.199931	0.000250	2.497747	0.423130	0.000025
 419	4.1591e+01	4.1573	-5.172232	0.000278	2.784374	0.471686	0.000028
 420	4.1691e+01	4.1653	-5.153087	0.000192	1.924494	0.326018	0.000019
 421	4.1790e+01	4.1782	-5.127017	0.000262	2.620587	0.443939	0.000026
 422	4.1889e+01	4.1828	-5.103798	0.000233	2.333960	0.395384	0.000023
 423	4.1989e+01	4.1959	-5.080987	0.000229	2.293014	0.388447	0.000023
 424	4.2089e+01	4.2030	-5.058991	0.000221	2.211120	0.374574	0.000022
 425	4.2188e+01	4.2159	-5.035365	0.000237	2.374907	0.402320	0.000024
 426	4.2288e+01	4.2252	-5.006851	0.000287	2.866267	0.485559	0.000029
 427	4.2387e+01	4.2345	-4.984447	0.000225	2.252067	0.381510	0.000023
 428	4.2486e+01	4.2462	-4.963265	0.000213	2.129227	0.360701	0.000021
 429	4.2586e+01	4.2542	-4.939232	0.000242	2.415854	0.409257	0.000024
 430	4.2685e+01	4.2628	-4.915606	0.000237	2.374907	0.402320	0.000024
 431	4.2785e+01	4.2721	-4.891573	0.000242	2.415854	0.409257	0.000024
 432	4.2885e+01	4.2823	-4.869984	0.000217	2.170174	0.367637	0.000022
 433	4.2984e+01	4.2954	-4.844729	0.000254	2.538694	0.430066	0.000025
 434	4.3084e+01	4.3051	-4.821103	0.000237	2.374907	0.402320	0.000024
 435	4.3183e+01	4.3164	-4.801958	0.000192	1.924494	0.326018	0.000019
 436	4.3282e+01	4.3260	-4.773851	0.000283	2.825320	0.478622	0.000028
 437	4.3382e+01	4.3377	-4.749818	0.000242	2.415854	0.409257	0.000024
 438	4.3481e+01	4.3469	-4.725377	0.000246	2.456800	0.416193	0.000025
 439	4.3581e+01	4.3558	-4.701344	0.000242	2.415854	0.409257	0.000024
 440	4.3681e+01	4.3633	-4.675274	0.000262	2.620587	0.443939	0.000026
 441	4.3780e+01	4.3726	-4.650426	0.000250	2.497747	0.423130	0.000025
 442	4.3880e+01	4.3835	-4.624764	0.000258	2.579640	0.437003	0.000026
 443	4.3979e+01	4.3948	-4.597064	0.000278	2.784374	0.471686	0.000028
 444	4.4078e+01	4.4024	-4.569365	0.000278	2.784374	0.471686	0.000028
 445	4.4178e+01	4.4143	-4.544925	0.000246	2.456800	0.416193	0.000025
 446	4.4278e+01	4.4238	-4.520077	0.000250	2.497747	0.423130	0.000025
 447	4.4377e+01	4.4353	-4.491970	0.000283	2.825320	0.478622	0.000028
 448	4.4477e+01	4.4440	-4.467122	0.000250	2.497747	0.423130	0.000025
 449	4.4576e+01	4.4543	-4.439830	0.000274	2.743427	0.464749	0.000027
 450	4.4675e+01	4.4624	-4.413760	0.000262	2.620587	0.443939	0.000026
 451	4.4775e+01	4.4737	-4.387690	0.000262	2.620587	0.443939	0.000026
 452	4.4874e+01	4.4820	-4.362028	0.000258	2.579640	0.437003	0.000026
 453	4.4974e+01	4.4918	-4.336772	0.000254	2.538694	0.430066	0.000025
 454	4.5074e+01	4.5029	-4.311517	0.000254	2.538694	0.430066	0.000025
 455	4.5173e+01	4.5130	-4.284633	0.000270	2.702480	0.457813	0.000027
 456	4.5273e+01	4.5218	-4.258563	0.000262	2.620587	0.443939	0.000026
 457	4.5372e+01	4.5333	-4.232085	0.000266	2.661534	0.450876	0.000027
 458	4.5471e+01	4.5434	-4.208460	0.000237	2.374907	0.402320	0.000024
 459	4.5571e+01	4.5528	-4.186056	0.000225	2.252067	0.381510	0.000023
 460	4.5670e+01	4.5604	-4.162430	0.000237	2.374907	0.402320	0.000024
 461	4.5770e+01	4.5708	-4.137989	0.000246	2.456800	0.416193	0.000025
 462	4.5870e+01	4.5820	-4.113956	0.000242	2.415854	0.409257	0.000024
 463	4.5969e+01	4.5938	-4.091145	0.000229	2.293014	0.388447	0.000023
 464	4.6069e+01	4.6041	-4.065482	0.000258	2.579640	0.437003	0.000026
 465	4.6168e+01	4.6131	-4.045930	0.000197	1.965440	0.332955	0.000020
 466	4.6267e+01	4.6244	-4.020267	0.000258	2.579640	0.437003	0.000026
 467	4.6367e+01	4.6320	-4.001122	0.000192	1.924494	0.326018	0.000019
 468	4.6467e+01	4.6411	-3.977089	0.000242	2.415854	0.409257	0.000024
 469	4.6566e+01	4.6509	-3.952648	0.000246	2.456800	0.416193	0.000025
 470	4.6666e+01	4.6610	-3.933503	0.000192	1.924494	0.326018	0.000019
 471	4.6765e+01	4.6723	-3.910285	0.000233	2.333960	0.395384	0.000023
 472	4.6864e+01	4.6825	-3.889918	0.000205	2.047334	0.346828	0.000020
 473	4.6964e+01	4.6931	-3.863440	0.000266	2.661534	0.450876	0.000027
 474	4.7063e+01	4.7041	-3.841444	0.000221	2.211120	0.374574	0.000022
 475	4.7163e+01	4.7149	-3.819447	0.000221	2.211120	0.374574	0.000022
 476	4.7263e+01	4.7225	-3.799488	0.000201	2.006387	0.339891	0.000020
 477	4.7362e+01	4.7295	-3.775862	0.000237	2.374907	0.402320	0.000024
 478	4.7462e+01	4.7397	-3.751421	0.000246	2.456800	0.416193	0.000025
 479	4.7561e+01	4.7506	-3.730647	0.000209	2.088280	0.353764	0.000021
 480	4.7660e+01	4.7616	-3.709872	0.000209	2.088280	0.353764	0.000021
 481	4.7760e+01	4.7706	-3.687061	0.000229	2.293014	0.388447	0.000023
 482	4.7859e+01	4.7827	-3.665065	0.000221	2.211120	0.374574	0.000022
 483	4.7959e+01	4.7900	-3.649178	0.000160	1.596920	0.270526	0.000016
 484	4.8059e+01	4.8016	-3.625145	0.000242	2.415854	0.409257	0.000024
 485	4.8158e+01	4.8121	-3.600704	0.000246	2.456800	0.416193	0.000025
 486	4.8258e+01	4.8225	-3.581152	0.000197	1.965440	0.332955	0.000020
 487	4.8357e+01	4.8315	-3.559563	0.000217	2.170174	0.367637	0.000022
 488	4.8456e+01	4.8415	-3.535937	0.000237	2.374907	0.402320	0.000024
 489	4.8556e+01	4.8519	-3.512718	0.000233	2.333960	0.395384	0.000023
 490	4.8656e+01	4.8606	-3.494388	0.000184	1.842600	0.312145	0.000018
 491	4.8755e+01	4.8729	-3.474021	0.000205	2.047334	0.346828	0.000020
 492	4.8855e+01	4.8786	-3.455283	0.000188	1.883547	0.319081	0.000019
 493	4.8954e+01	4.8923	-3.434101	0.000213	2.129227	0.360701	0.000021
 494	4.9053e+01	4.9024	-3.412920	0.000213	2.129227	0.360701	0.000021
 495	4.9153e+01	4.9066	-3.390108	0.000229	2.293014	0.388447	0.000023
 496	4.9252e+01	4.9207	-3.368927	0.000213	2.129227	0.360701	0.000021
 497	4.9352e+01	4.9294	-3.348559	0.000205	2.047334	0.346828	0.000020
 498	4.9452e+01	4.9407	-3.327785	0.000209	2.088280	0.353764	0.000021
 499	4.9551e+01	4.9527	-3.307418	0.000205	2.047334	0.346828	0.000020
 500	4.9651e+01	4.9596	-3.287051	0.000205	2.047334	0.346828	0.000020
 501	4.9750e+01	4.9688	-3.266276	0.000209	2.088280	0.353764	0.000021
 502	4.9849e+01	4.9796	-3.243872	0.000225	2.252067	0.381510	0.000023
 503	4.9949e+01	4.9908	-3.224320	0.000197	1.965440	0.332955	0.000020
 504	5.0048e+01	5.0002	-3.205582	0.000188	1.883547	0.319081	0.000019
 505	5.0148e+01	5.0084	-3.180734	0.000250	2.497747	0.423130	0.000025
 506	5.0248e+01	5.0177	-3.161589	0.000192	1.924494	0.326018	0.000019
 507	5.0347e+01	5.0304	-3.139593	0.000221	2.211120	0.374574	0.000022
 508	5.0447e+01	5.0402	-3.118818	0.000209	2.088280	0.353764	0.000021
 509	5.0546e+01	5.0504	-3.099266	0.000197	1.965440	0.332955	0.000020
 510	5.0645e+01	5.0603	-3.077677	0.000217	2.170174	0.367637	0.000022
 511	5.0745e+01	5.0714	-3.058532	0.000192	1.924494	0.326018	0.000019
 512	5.0844e+01	5.0801	-3.037757	0.000209	2.088280	0.353764	0.000021
 513	5.0944e+01	5.0928	-3.016575	0.000213	2.129227	0.360701	0.000021
 514	5.1044e+01	5.0996	-2.994579	0.000221	2.211120	0.374574	0.000022
 515	5.1143e+01	5.1104	-2.976248	0.000184	1.842600	0.312145	0.000018
 516	5.1242e+01	5.1197	-2.953030	0.000233	2.333960	0.395384	0.000023
 517	5.1342e+01	5.1264	-2.931033	0.000221	2.211120	0.374574	0.000022
 518	5.1441e+01	5.1394	-2.912703	0.000184	1.842600	0.312145	0.000018
 519	5.1541e+01	5.1485	-2.890299	0.000225	2.252067	0.381510	0.000023
 520	5.1641e+01	5.1608	-2.867488	0.000229	2.293014	0.388447	0.000023
 521	5.1740e+01	5.1709	-2.850787	0.000168	1.678814	0.284399	0.000017
 522	5.1840e+01	5.1801	-2.837345	0.000135	1.351240	0.228906	0.000014
 523	5.1939e+01	5.1876	-2.813311	0.000242	2.415854	0.409257	0.000024
 524	5.2038e+01	5.1989	-2.794981	0.000184	1.842600	0.312145	0.000018
 525	5.2138e+01	5.2100	-2.775428	0.000197	1.965440	0.332955	0.000020
 526	5.2237e+01	5.2209	-2.756283	0.000192	1.924494	0.326018	0.000019
 527	5.2337e+01	5.2284	-2.740397	0.000160	1.596920	0.270526	0.000016
 528	5.2437e+01	5.2384	-2.721659	0.000188	1.883547	0.319081	0.000019
 529	5.2536e+01	5.2500	-2.702922	0.000188	1.883547	0.319081	0.000019
 530	5.2636e+01	5.2593	-2.682147	0.000209	2.088280	0.353764	0.000021
 531	5.2735e+01	5.2663	-2.666668	0.000156	1.555974	0.263589	0.000016
 532	5.2834e+01	5.2775	-2.645894	0.000209	2.088280	0.353764	0.000021
 533	5.2934e+01	5.2876	-2.630822	0.000152	1.515027	0.256653	0.000015
 534	5.3033e+01	5.2984	-2.613306	0.000176	1.760707	0.298272	0.000018
 535	5.3133e+01	5.3086	-2.594976	0.000184	1.842600	0.312145	0.000018
 536	5.3233e+01	5.3185	-2.575831	0.000192	1.924494	0.326018	0.000019
 537	5.3332e+01	5.3283	-2.557500	0.000184	1.842600	0.312145	0.000018
 538	5.3431e+01	5.3394	-2.539577	0.000180	1.801654	0.305208	0.000018
 539	5.3531e+01	5.3492	-2.519617	0.000201	2.006387	0.339891	0.000020
 540	5.3630e+01	5.3573	-2.501287	0.000184	1.842600	0.312145	0.000018
 541	5.3730e+01	5.3667	-2.482957	0.000184	1.842600	0.312145	0.000018
 542	5.3830e+01	5.3780	-2.465033	0.000180	1.801654	0.305208	0.000018
 543	5.3929e+01	5.3870	-2.443852	0.000213	2.129227	0.360701	0.000021
 544	5.4029e+01	5.4013	-2.422670	0.000213	2.129227	0.360701	0.000021
 545	5.4128e+01	5.4082	-2.403932	0.000188	1.883547	0.319081	0.000019
 546	5.4227e+01	5.4182	-2.383565	0.000205	2.047334	0.346828	0.000020
 547	5.4327e+01	5.4280	-2.361568	0.000221	2.211120	0.374574	0.000022
 548	5.4426e+01	5.4372	-2.340794	0.000209	2.088280	0.353764	0.000021
 549	5.4526e+01	5.4474	-2.317168	0.000237	2.374907	0.402320	0.000024
 550	5.4626e+01	5.4577	-2.294764	0.000225	2.252067	0.381510	0.000023
 551	5.4725e+01	5.4668	-2.274397	0.000205	2.047334	0.346828	0.000020
 552	5.4825e+01	5.4768	-2.248327	0.000262	2.620587	0.443939	0.000026
 553	5.4924e+01	5.4878	-2.228367	0.000201	2.006387	0.339891	0.000020
 554	5.5023e+01	5.4969	-2.209630	0.000188	1.883547	0.319081	0.000019
 555	5.5123e+01	5.5078	-2.188855	0.000209	2.088280	0.353764	0.000021
 556	5.5222e+01	5.5189	-2.166044	0.000229	2.293014	0.388447	0.000023
 557	5.5322e+01	5.5274	-2.146084	0.000201	2.006387	0.339891	0.000020
 558	5.5422e+01	5.5399	-2.123273	0.000229	2.293014	0.388447	0.000023
 559	5.5521e+01	5.5508	-2.099240	0.000242	2.415854	0.409257	0.000024
 560	5.5620e+01	5.5581	-2.074392	0.000250	2.497747	0.423130	0.000025
 561	5.5720e+01	5.5691	-2.053617	0.000209	2.088280	0.353764	0.000021
 562	5.5819e+01	5.5791	-2.031621	0.000221	2.211120	0.374574	0.000022
 563	5.5919e+01	5.5852	-2.010439	0.000213	2.129227	0.360701	0.000021
 564	5.6019e+01	5.5990	-1.987628	0.000229	2.293014	0.388447	0.000023
 565	5.6118e+01	5.6077	-1.963187	0.000246	2.456800	0.416193	0.000025
 566	5.6218e+01	5.6180	-1.940784	0.000225	2.252067	0.381510	0.000023
 567	5.6317e+01	5.6290	-1.919602	0.000213	2.129227	0.360701	0.000021
 568	5.6416e+01	5.6360	-1.894754	0.000250	2.497747	0.423130	0.000025
 569	5.6516e+01	5.6485	-1.866240	0.000287	2.866267	0.485559	0.000029
 570	5.6615e+01	5.6570	-1.849132	0.000172	1.719760	0.291335	0.000017
 571	5.6715e+01	5.6677	-1.822654	0.000266	2.661534	0.450876	0.000027
 572	5.6815e+01	5.6786	-1.802694	0.000201	2.006387	0.339891	0.000020
 573	5.6914e+01	5.6873	-1.776625	0.000262	2.620587	0.443939	0.000026
 574	5.7014e+01	5.6944	-1.755850	0.000209	2.088280	0.353764	0.000021
 575	5.7113e+01	5.7082	-1.731817	0.000242	2.415854	0.409257	0.000024
 576	5.7212e+01	5.7147	-1.706969	0.000250	2.497747	0.423130	0.000025
 577	5.7312e+01	5.7285	-1.682121	0.000250	2.497747	0.423130	0.000025
 578	5.7411e+01	5.7362	-1.659717	0.000225	2.252067	0.381510	0.000023
 579	5.7511e+01	5.7455	-1.634869	0.000250	2.497747	0.423130	0.000025
 580	5.7611e+01	5.7568	-1.611243	0.000237	2.374907	0.402320	0.000024
 581	5.7710e+01	5.7673	-1.589247	0.000221	2.211120	0.374574	0.000022
 582	5.7809e+01	5.7764	-1.561548	0.000278	2.784374	0.471686	0.000028
 583	5.7909e+01	5.7886	-1.537922	0.000237	2.374907	0.402320	0.000024
 584	5.8008e+01	5.7970	-1.514703	0.000233	2.333960	0.395384	0.000023
 585	5.8108e+01	5.8057	-1.494743	0.000201	2.006387	0.339891	0.000020
 586	5.8208e+01	5.8172	-1.467859	0.000270	2.702480	0.457813	0.000027
 587	5.8307e+01	5.8284	-1.443011	0.000250	2.497747	0.423130	0.000025
 588	5.8407e+01	5.8350	-1.420200	0.000229	2.293014	0.388447	0.000023
 589	5.8506e+01	5.8462	-1.394130	0.000262	2.620587	0.443939	0.000026
 590	5.8605e+01	5.8560	-1.373355	0.000209	2.088280	0.353764	0.000021
 591	5.8705e+01	5.8666	-1.348915	0.000246	2.456800	0.416193	0.000025
 592	5.8804e+01	5.8752	-1.320808	0.000283	2.825320	0.478622	0.000028
 593	5.8904e+01	5.8852	-1.298404	0.000225	2.252067	0.381510	0.000023
 594	5.9004e+01	5.8959	-1.272742	0.000258	2.579640	0.437003	0.000026
 595	5.9103e+01	5.9054	-1.249931	0.000229	2.293014	0.388447	0.000023
 596	5.9203e+01	5.9155	-1.225083	0.000250	2.497747	0.423130	0.000025
 597	5.9302e+01	5.9258	-1.200642	0.000246	2.456800	0.416193	0.000025
 598	5.9401e+01	5.9350	-1.177016	0.000237	2.374907	0.402320	0.000024
 599	5.9501e+01	5.9458	-1.153390	0.000237	2.374907	0.402320	0.000024
 600	5.9600e+01	5.9547	-1.127728	0.000258	2.579640	0.437003	0.000026
 601	5.9700e+01	5.9657	-1.101251	0.000266	2.661534	0.450876	0.000027
 602	5.9800e+01	5.9783	-1.075995	0.000254	2.538694	0.430066	0.000025
 603	5.9899e+01	5.9885	-1.053592	0.000225	2.252067	0.381510	0.000023
 604	5.9998e+01	5.9948	-1.028744	0.000250	2.497747	0.423130	0.000025
 605	6.0098e+01	6.0052	-1.005932	0.000229	2.293014	0.388447	0.000023
 606	6.0197e+01	6.0149	-0.980270	0.000258	2.579640	0.437003	0.000026
 607	6.0297e+01	6.0252	-0.955015	0.000254	2.538694	0.430066	0.000025
 608	6.0397e+01	6.0348	-0.926908	0.000283	2.825320	0.478622	0.000028
 609	6.0496e+01	6.0480	-0.899209	0.000278	2.784374	0.471686	0.000028
 610	6.0596e+01	6.0576	-0.876397	0.000229	2.293014	0.388447	0.000023
 611	6.0695e+01	6.0645	-0.846661	0.000299	2.989107	0.506368	0.000030
 612	6.0794e+01	6.0731	-0.819370	0.000274	2.743427	0.464749	0.000027
 613	6.0894e+01	6.0853	-0.791263	0.000283	2.825320	0.478622	0.000028
 614	6.0993e+01	6.0923	-0.767230	0.000242	2.415854	0.409257	0.000024
 615	6.1093e+01	6.1056	-0.736272	0.000311	3.111947	0.527178	0.000031
 616	6.1193e+01	6.1138	-0.710202	0.000262	2.620587	0.443939	0.000026
 617	6.1292e+01	6.1211	-0.683724	0.000266	2.661534	0.450876	0.000027
 618	6.1392e+01	6.1335	-0.656025	0.000278	2.784374	0.471686	0.000028
 619	6.1491e+01	6.1475	-0.629548	0.000266	2.661534	0.450876	0.000027
 620	6.1590e+01	6.1572	-0.603478	0.000262	2.620587	0.443939	0.000026
 621	6.1690e+01	6.1639	-0.577815	0.000258	2.579640	0.437003	0.000026
 622	6.1789e+01	6.1735	-0.546857	0.000311	3.111947	0.527178	0.000031
 623	6.1889e+01	6.1845	-0.518343	0.000287	2.866267	0.485559	0.000029
 624	6.1989e+01	6.1932	-0.491051	0.000274	2.743427	0.464749	0.000027
 625	6.2088e+01	6.2037	-0.469055	0.000221	2.211120	0.374574	0.000022
 626	6.2188e+01	6.2141	-0.444614	0.000246	2.456800	0.416193	0.000025
 627	6.2287e+01	6.2243	-0.413249	0.000315	3.152894	0.534115	0.000032
 628	6.2386e+01	6.2344	-0.391253	0.000221	2.211120	0.374574	0.000022
 629	6.2486e+01	6.2446	-0.363961	0.000274	2.743427	0.464749	0.000027
 630	6.2586e+01	6.2528	-0.340335	0.000237	2.374907	0.402320	0.000024
 631	6.2685e+01	6.2636	-0.315894	0.000246	2.456800	0.416193	0.000025
 632	6.2785e+01	6.2734	-0.289824	0.000262	2.620587	0.443939	0.000026
 633	6.2884e+01	6.2821	-0.268235	0.000217	2.170174	0.367637	0.000022
 634	6.2983e+01	6.2932	-0.243387	0.000250	2.497747	0.423130	0.000025
 635	6.3083e+01	6.3070	-0.223020	0.000205	2.047334	0.346828	0.000020
 636	6.3182e+01	6.3127	-0.196135	0.000270	2.702480	0.457813	0.000027
 637	6.3282e+01	6.3279	-0.175361	0.000209	2.088280	0.353764	0.000021
 638	6.3382e+01	6.3328	-0.148884	0.000266	2.661534	0.450876	0.000027
 639	6.3481e+01	6.3451	-0.126480	0.000225	2.252067	0.381510	0.000023
 640	6.3581e+01	6.3501	-0.100410	0.000262	2.620587	0.443939	0.000026
 641	6.3680e+01	6.3644	-0.078821	0.000217	2.170174	0.367637	0.000022
 642	6.3779e+01	6.3731	-0.056824	0.000221	2.211120	0.374574	0.000022
 643	6.3879e+01	6.3824	-0.030347	0.000266	2.661534	0.450876	0.000027
 644	6.3978e+01	6.3938	-0.006314	0.000242	2.415854	0.409257	0.000024
 645	6.4078e+01	6.4014	0.012831	0.000192	1.924494	0.326018	0.000019
 646	6.4177e+01	6.4138	0.037679	0.000250	2.497747	0.423130	0.000025
 647	6.4277e+01	6.4226	0.062934	0.000254	2.538694	0.430066	0.000025
 648	6.4376e+01	6.4324	0.086968	0.000242	2.415854	0.409257	0.000024
 649	6.4476e+01	6.4446	0.111001	0.000242	2.415854	0.409257	0.000024
 650	6.4576e+01	6.4515	0.132183	0.000213	2.129227	0.360701	0.000021
 651	6.4675e+01	6.4622	0.158253	0.000262	2.620587	0.443939	0.000026
 652	6.4775e+01	6.4722	0.179434	0.000213	2.129227	0.360701	0.000021
 653	6.4874e+01	6.4836	0.203875	0.000246	2.456800	0.416193	0.000025
 654	6.4974e+01	6.4930	0.225057	0.000213	2.129227	0.360701	0.000021
 655	6.5073e+01	6.5005	0.250719	0.000258	2.579640	0.437003	0.000026
 656	6.5172e+01	6.5112	0.273938	0.000233	2.333960	0.395384	0.000023
 657	6.5272e+01	6.5199	0.297156	0.000233	2.333960	0.395384	0.000023
 658	6.5371e+01	6.5302	0.320375	0.000233	2.333960	0.395384	0.000023
 659	6.5471e+01	6.5404	0.341964	0.000217	2.170174	0.367637	0.000022
 660	6.5570e+01	6.5506	0.363961	0.000221	2.211120	0.374574	0.000022
 661	6.5670e+01	6.5636	0.389216	0.000254	2.538694	0.430066	0.000025
 662	6.5769e+01	6.5716	0.410805	0.000217	2.170174	0.367637	0.000022
 663	6.5869e+01	6.5810	0.432394	0.000217	2.170174	0.367637	0.000022
 664	6.5969e+01	6.5948	0.457242	0.000250	2.497747	0.423130	0.000025
 665	6.6068e+01	6.6016	0.475572	0.000184	1.842600	0.312145	0.000018
 666	6.6168e+01	6.6122	0.502864	0.000274	2.743427	0.464749	0.000027
 667	6.6267e+01	6.6207	0.524046	0.000213	2.129227	0.360701	0.000021
 668	6.6367e+01	6.6351	0.552968	0.000291	2.907214	0.492495	0.000029
 669	6.6466e+01	6.6422	0.576186	0.000233	2.333960	0.395384	0.000023
 670	6.6566e+01	6.6537	0.598590	0.000225	2.252067	0.381510	0.000023
 671	6.6665e+01	6.6605	0.623438	0.000250	2.497747	0.423130	0.000025
 672	6.6764e+01	6.6696	0.646249	0.000229	2.293014	0.388447	0.000023
 673	6.6864e+01	6.6825	0.671504	0.000254	2.538694	0.430066	0.000025
 674	6.6963e+01	6.6927	0.695130	0.000237	2.374907	0.402320	0.000024
 675	6.7063e+01	6.7025	0.713460	0.000184	1.842600	0.312145	0.000018
 676	6.7162e+01	6.7110	0.740345	0.000270	2.702480	0.457813	0.000027
 677	6.7262e+01	6.7217	0.763971	0.000237	2.374907	0.402320	0.000024
 678	6.7362e+01	6.7322	0.787597	0.000237	2.374907	0.402320	0.000024
 679	6.7461e+01	6.7425	0.810815	0.000233	2.333960	0.395384	0.000023
 680	6.7561e+01	6.7522	0.834034	0.000233	2.333960	0.395384	0.000023
 681	6.7660e+01	6.7654	0.857252	0.000233	2.333960	0.395384	0.000023
 682	6.7760e+01	6.7694	0.881693	0.000246	2.456800	0.416193	0.000025
 683	6.7859e+01	6.7833	0.904504	0.000229	2.293014	0.388447	0.000023
 684	6.7959e+01	6.7918	0.931796	0.000274	2.743427	0.464749	0.000027
 685	6.8058e+01	6.8002	0.955829	0.000242	2.415854	0.409257	0.000024
 686	6.8157e+01	6.8079	0.977418	0.000217	2.170174	0.367637	0.000022
 687	6.8257e+01	6.8195	1.007969	0.000307	3.071001	0.520242	0.000031
 688	6.8356e+01	6.8298	1.026707	0.000188	1.883547	0.319081	0.000019
 689	6.8456e+01	6.8409	1.049925	0.000233	2.333960	0.395384	0.000023
 690	6.8555e+01	6.8502	1.070700	0.000209	2.088280	0.353764	0.000021
 691	6.8655e+01	6.8596	1.091067	0.000205	2.047334	0.346828	0.000020
 692	6.8754e+01	6.8717	1.117137	0.000262	2.620587	0.443939	0.000026
 693	6.8854e+01	6.8822	1.138726	0.000217	2.170174	0.367637	0.000022
 694	6.8954e+01	6.8906	1.163167	0.000246	2.456800	0.416193	0.000025
 695	6.9053e+01	6.9005	1.179868	0.000168	1.678814	0.284399	0.000017
 696	6.9153e+01	6.9102	1.202272	0.000225	2.252067	0.381510	0.000023
 697	6.9252e+01	6.9195	1.227934	0.000258	2.579640	0.437003	0.000026
 698	6.9352e+01	6.9312	1.243820	0.000160	1.596920	0.270526	0.000016
 699	6.9451e+01	6.9399	1.270705	0.000270	2.702480	0.457813	0.000027
 700	6.9550e+01	6.9485	1.290665	0.000201	2.006387	0.339891	0.000020
 701	6.9650e+01	6.9593	1.313476	0.000229	2.293014	0.388447	0.000023
 702	6.9749e+01	6.9692	1.331399	0.000180	1.801654	0.305208	0.000018
 703	6.9849e+01	6.9784	1.355432	0.000242	2.415854	0.409257	0.000024
 704	6.9948e+01	6.9902	1.376207	0.000209	2.088280	0.353764	0.000021
 705	7.0048e+01	7.0010	1.395352	0.000192	1.924494	0.326018	0.000019
 706	7.0147e+01	7.0108	1.416534	0.000213	2.129227	0.360701	0.000021
 707	7.0247e+01	7.0199	1.438123	0.000217	2.170174	0.367637	0.000022
 708	7.0347e+01	7.0287	1.459712	0.000217	2.170174	0.367637	0.000022
 709	7.0446e+01	7.0393	1.483338	0.000237	2.374907	0.402320	0.000024
 710	7.0546e+01	7.0503	1.504927	0.000217	2.170174	0.367637	0.000022
 711	7.0645e+01	7.0596	1.532626	0.000278	2.784374	0.471686	0.000028
 712	7.0745e+01	7.0705	1.554216	0.000217	2.170174	0.367637	0.000022
 713	7.0844e+01	7.0793	1.578656	0.000246	2.456800	0.416193	0.000025
 714	7.0944e+01	7.0872	1.601467	0.000229	2.293014	0.388447	0.000023
 715	7.1043e+01	7.1005	1.627130	0.000258	2.579640	0.437003	0.000026
 716	7.1142e+01	7.1109	1.649941	0.000229	2.293014	0.388447	0.000023
 717	7.1242e+01	7.1203	1.675196	0.000254	2.538694	0.430066	0.000025
 718	7.1341e+01	7.1303	1.703710	0.000287	2.866267	0.485559	0.000029
 719	7.1441e+01	7.1409	1.728151	0.000246	2.456800	0.416193	0.000025
 720	7.1540e+01	7.1461	1.753813	0.000258	2.579640	0.437003	0.000026
 721	7.1640e+01	7.1612	1.777847	0.000242	2.415854	0.409257	0.000024
 722	7.1740e+01	7.1688	1.805953	0.000283	2.825320	0.478622	0.000028
 723	7.1839e+01	7.1795	1.831208	0.000254	2.538694	0.430066	0.000025
 724	7.1939e+01	7.1893	1.856056	0.000250	2.497747	0.423130	0.000025
 725	7.2038e+01	7.1976	1.880497	0.000246	2.456800	0.416193	0.000025
 726	7.2138e+01	7.2095	1.911048	0.000307	3.071001	0.520242	0.000031
 727	7.2237e+01	7.2184	1.936710	0.000258	2.579640	0.437003	0.000026
 728	7.2337e+01	7.2276	1.963187	0.000266	2.661534	0.450876	0.000027
 729	7.2436e+01	7.2372	1.992516	0.000295	2.948160	0.499432	0.000029
 730	7.2535e+01	7.2520	2.018179	0.000258	2.579640	0.437003	0.000026
 731	7.2635e+01	7.2588	2.044656	0.000266	2.661534	0.450876	0.000027
 732	7.2734e+01	7.2684	2.071541	0.000270	2.702480	0.457813	0.000027
 733	7.2834e+01	7.2782	2.098018	0.000266	2.661534	0.450876	0.000027
 734	7.2933e+01	7.2894	2.125717	0.000278	2.784374	0.471686	0.000028
 735	7.3033e+01	7.2964	2.152602	0.000270	2.702480	0.457813	0.000027
 736	7.3132e+01	7.3084	2.181930	0.000295	2.948160	0.499432	0.000029
 737	7.3232e+01	7.3173	2.211666	0.000299	2.989107	0.506368	0.000030
 738	7.3332e+01	7.3291	2.238958	0.000274	2.743427	0.464749	0.000027
 739	7.3431e+01	7.3389	2.263399	0.000246	2.456800	0.416193	0.000025
 740	7.3531e+01	7.3469	2.293542	0.000303	3.030054	0.513305	0.000030
 741	7.3630e+01	7.3586	2.323278	0.000299	2.989107	0.506368	0.000030
 742	7.3730e+01	7.3702	2.351385	0.000283	2.825320	0.478622	0.000028
 743	7.3829e+01	7.3780	2.377455	0.000262	2.620587	0.443939	0.000026
 744	7.3928e+01	7.3897	2.405969	0.000287	2.866267	0.485559	0.000029
 745	7.4028e+01	7.3997	2.436927	0.000311	3.111947	0.527178	0.000031
 746	7.4127e+01	7.4079	2.468700	0.000319	3.193841	0.541051	0.000032
 747	7.4227e+01	7.4174	2.499250	0.000307	3.071001	0.520242	0.000031
 748	7.4326e+01	7.4295	2.529801	0.000307	3.071001	0.520242	0.000031
 749	7.4426e+01	7.4367	2.559130	0.000295	2.948160	0.499432	0.000029
 750	7.4525e+01	7.4464	2.588051	0.000291	2.907214	0.492495	0.000029
 751	7.4625e+01	7.4588	2.619009	0.000311	3.111947	0.527178	0.000031
 752	7.4725e+01	7.4676	2.650782	0.000319	3.193841	0.541051	0.000032
 753	7.4824e+01	7.4780	2.680110	0.000295	2.948160	0.499432	0.000029
 754	7.4924e+01	7.4886	2.710661	0.000307	3.071001	0.520242	0.000031
 755	7.5023e+01	7.4965	2.741212	0.000307	3.071001	0.520242	0.000031
 756	7.5123e+01	7.5093	2.769318	0.000283	2.825320	0.478622	0.000028
 757	7.5222e+01	7.5180	2.802313	0.000332	3.316681	0.561861	0.000033
 758	7.5322e+01	7.5286	2.832456	0.000303	3.030054	0.513305	0.000030
 759	7.5421e+01	7.5368	2.860563	0.000283	2.825320	0.478622	0.000028
 760	7.5520e+01	7.5475	2.891114	0.000307	3.071001	0.520242	0.000031
 761	7.5620e+01	7.5584	2.919628	0.000287	2.866267	0.485559	0.000029
 762	7.5719e+01	7.5672	2.949364	0.000299	2.989107	0.506368	0.000030
 763	7.5819e+01	7.5755	2.981136	0.000319	3.193841	0.541051	0.000032
 764	7.5918e+01	7.5867	3.009243	0.000283	2.825320	0.478622	0.000028
 765	7.6018e+01	7.5935	3.039386	0.000303	3.030054	0.513305	0.000030
 766	7.6118e+01	7.6054	3.066271	0.000270	2.702480	0.457813	0.000027
 767	7.6217e+01	7.6182	3.100488	0.000344	3.439521	0.582671	0.000034
 768	7.6317e+01	7.6270	3.128594	0.000283	2.825320	0.478622	0.000028
 769	7.6416e+01	7.6370	3.159960	0.000315	3.152894	0.534115	0.000032
 770	7.6516e+01	7.6450	3.191733	0.000319	3.193841	0.541051	0.000032
 771	7.6615e+01	7.6575	3.219025	0.000274	2.743427	0.464749	0.000027
 772	7.6715e+01	7.6660	3.250390	0.000315	3.152894	0.534115	0.000032
 773	7.6814e+01	7.6768	3.283385	0.000332	3.316681	0.561861	0.000033
 774	7.6913e+01	7.6858	3.317194	0.000340	3.398574	0.575734	0.000034
 775	7.7013e+01	7.6937	3.352226	0.000352	3.521414	0.596544	0.000035
 776	7.7112e+01	7.7042	3.383998	0.000319	3.193841	0.541051	0.000032
 777	7.7212e+01	7.7213	3.416178	0.000323	3.234787	0.547988	0.000032
 778	7.7311e+01	7.7267	3.454061	0.000381	3.808041	0.645100	0.000038
 779	7.7411e+01	7.7372	3.487056	0.000332	3.316681	0.561861	0.000033
 780	7.7510e+01	7.7466	3.517607	0.000307	3.071001	0.520242	0.000031
 781	7.7610e+01	7.7544	3.553860	0.000364	3.644254	0.617353	0.000036
 782	7.7710e+01	7.7661	3.590114	0.000364	3.644254	0.617353	0.000036
 783	7.7809e+01	7.7767	3.623923	0.000340	3.398574	0.575734	0.000034
 784	7.7909e+01	7.7862	3.657732	0.000340	3.398574	0.575734	0.000034
 785	7.8008e+01	7.7969	3.694801	0.000373	3.726147	0.631226	0.000037
 786	7.8108e+01	7.8076	3.729017	0.000344	3.439521	0.582671	0.000034
 787	7.8207e+01	7.8130	3.762419	0.000336	3.357627	0.568797	0.000034
 788	7.8306e+01	7.8291	3.798673	0.000364	3.644254	0.617353	0.000036
 789	7.8406e+01	7.8371	3.831260	0.000328	3.275734	0.554924	0.000033
 790	7.8505e+01	7.8467	3.869551	0.000385	3.848987	0.652036	0.000038
 791	7.8605e+01	7.8567	3.899694	0.000303	3.030054	0.513305	0.000030
 792	7.8704e+01	7.8657	3.935133	0.000356	3.562361	0.603480	0.000036
 793	7.8804e+01	7.8745	3.968942	0.000340	3.398574	0.575734	0.000034
 794	7.8903e+01	7.8870	4.003566	0.000348	3.480467	0.589607	0.000035
 795	7.9003e+01	7.8962	4.039005	0.000356	3.562361	0.603480	0.000036
 796	7.9103e+01	7.9064	4.073222	0.000344	3.439521	0.582671	0.000034
 797	7.9202e+01	7.9140	4.107031	0.000340	3.398574	0.575734	0.000034
 798	7.9302e+01	7.9225	4.140433	0.000336	3.357627	0.568797	0.000034
 799	7.9401e+01	7.9362	4.170169	0.000299	2.989107	0.506368	0.000030
 800	7.9501e+01	7.9449	4.203979	0.000340	3.398574	0.575734	0.000034
 801	7.9600e+01	7.9535	4.236159	0.000323	3.234787	0.547988	0.000032
 802	7.9700e+01	7.9679	4.271190	0.000352	3.521414	0.596544	0.000035
 803	7.9799e+01	7.9785	4.301334	0.000303	3.030054	0.513305	0.000030
 804	7.9898e+01	7.9827	4.334736	0.000336	3.357627	0.568797	0.000034
 805	7.9998e+01	7.9953	4.366916	0.000323	3.234787	0.547988	0.000032
 806	8.0097e+01	8.0041	4.392578	0.000258	2.579640	0.437003	0.000026
 807	8.0197e+01	8.0144	4.430054	0.000377	3.767094	0.638163	0.000038
 808	8.0296e+01	8.0273	4.458161	0.000283	2.825320	0.478622	0.000028
 809	8.0396e+01	8.0338	4.493192	0.000352	3.521414	0.596544	0.000035
 810	8.0496e+01	8.0445	4.526187	0.000332	3.316681	0.561861	0.000033
 811	8.0595e+01	8.0534	4.557145	0.000311	3.111947	0.527178	0.000031
 812	8.0695e+01	8.0660	4.588510	0.000315	3.152894	0.534115	0.000032
 813	8.0794e+01	8.0777	4.624764	0.000364	3.644254	0.617353	0.000036
 814	8.0894e+01	8.0865	4.661017	0.000364	3.644254	0.617353	0.000036
 815	8.0993e+01	8.0932	4.695641	0.000348	3.480467	0.589607	0.000035
 816	8.1093e+01	8.1034	4.729858	0.000344	3.439521	0.582671	0.000034
 817	8.1192e+01	8.1161	4.768556	0.000389	3.889934	0.658973	0.000039
 818	8.1291e+01	8.1239	4.795033	0.000266	2.661534	0.450876	0.000027
 819	8.1391e+01	8.1322	4.833323	0.000385	3.848987	0.652036	0.000038
 820	8.1490e+01	8.1412	4.864688	0.000315	3.152894	0.534115	0.000032
 821	8.1590e+01	8.1521	4.899313	0.000348	3.480467	0.589607	0.000035
 822	8.1689e+01	8.1647	4.930271	0.000311	3.111947	0.527178	0.000031
 823	8.1789e+01	8.1747	4.963265	0.000332	3.316681	0.561861	0.000033
 824	8.1888e+01	8.1849	4.999926	0.000369	3.685201	0.624290	0.000037
 825	8.1988e+01	8.1934	5.033328	0.000336	3.357627	0.568797	0.000034
 826	8.2088e+01	8.2034	5.069582	0.000364	3.644254	0.617353	0.000036
 827	8.2187e+01	8.2129	5.102984	0.000336	3.357627	0.568797	0.000034
 828	8.2287e+01	8.2219	5.137201	0.000344	3.439521	0.582671	0.000034
 829	8.2386e+01	8.2365	5.168973	0.000319	3.193841	0.541051	0.000032
 830	8.2486e+01	8.2439	5.203597	0.000348	3.480467	0.589607	0.000035
 831	8.2585e+01	8.2529	5.241888	0.000385	3.848987	0.652036	0.000038
 832	8.2684e+01	8.2653	5.278548	0.000369	3.685201	0.624290	0.000037
 833	8.2784e+01	8.2753	5.311951	0.000336	3.357627	0.568797	0.000034
 834	8.2883e+01	8.2841	5.346982	0.000352	3.521414	0.596544	0.000035
 835	8.2983e+01	8.2930	5.379977	0.000332	3.316681	0.561861	0.000033
 836	8.3082e+01	8.3012	5.413379	0.000336	3.357627	0.568797	0.000034
 837	8.3182e+01	8.3131	5.451262	0.000381	3.808041	0.645100	0.000038
 838	8.3281e+01	8.3240	5.484664	0.000336	3.357627	0.568797	0.000034
 839	8.3381e+01	8.3337	5.520510	0.000360	3.603307	0.610417	0.000036
 840	8.3481e+01	8.3431	5.553097	0.000328	3.275734	0.554924	0.000033
 841	8.3580e+01	8.3524	5.588943	0.000360	3.603307	0.610417	0.000036
 842	8.3680e+01	8.3612	5.625604	0.000369	3.685201	0.624290	0.000037
 843	8.3779e+01	8.3727	5.658599	0.000332	3.316681	0.561861	0.000033
 844	8.3879e+01	8.3846	5.694038	0.000356	3.562361	0.603480	0.000036
 845	8.3978e+01	8.3938	5.731921	0.000381	3.808041	0.645100	0.000038
 846	8.4078e+01	8.4024	5.767360	0.000356	3.562361	0.603480	0.000036
 847	8.4177e+01	8.4131	5.804020	0.000369	3.685201	0.624290	0.000037
 848	8.4276e+01	8.4244	5.838644	0.000348	3.480467	0.589607	0.000035
 849	8.4376e+01	8.4333	5.878564	0.000401	4.012774	0.679782	0.000040
 850	8.4475e+01	8.4416	5.910744	0.000323	3.234787	0.547988	0.000032
 851	8.4575e+01	8.4533	5.946590	0.000360	3.603307	0.610417	0.000036
 852	8.4674e+01	8.4611	5.979992	0.000336	3.357627	0.568797	0.000034
 853	8.4774e+01	8.4741	6.019505	0.000397	3.971827	0.672846	0.000040
 854	8.4874e+01	8.4821	6.054536	0.000352	3.521414	0.596544	0.000035
 855	8.4973e+01	8.4934	6.092419	0.000381	3.808041	0.645100	0.000038
 856	8.5073e+01	8.5019	6.129080	0.000369	3.685201	0.624290	0.000037
 857	8.5172e+01	8.5133	6.168592	0.000397	3.971827	0.672846	0.000040
 858	8.5272e+01	8.5208	6.206067	0.000377	3.767094	0.638163	0.000038
 859	8.5371e+01	8.5311	6.258615	0.000528	5.282121	0.894816	0.000053
 860	8.5471e+01	8.5441	6.294461	0.000360	3.603307	0.610417	0.000036
 861	8.5570e+01	8.5528	6.335195	0.000409	4.094667	0.693655	0.000041
 862	8.5669e+01	8.5583	6.366560	0.000315	3.152894	0.534115	0.000032
 863	8.5769e+01	8.5736	6.399962	0.000336	3.357627	0.568797	0.000034
 864	8.5868e+01	8.5828	6.432550	0.000328	3.275734	0.554924	0.000033
 865	8.5968e+01	8.5928	6.469211	0.000369	3.685201	0.624290	0.000037
 866	8.6067e+01	8.5995	6.504242	0.000352	3.521414	0.596544	0.000035
 867	8.6167e+01	8.6125	6.537644	0.000336	3.357627	0.568797	0.000034
 868	8.6266e+01	8.6206	6.574305	0.000369	3.685201	0.624290	0.000037
 869	8.6366e+01	8.6317	6.608929	0.000348	3.480467	0.589607	0.000035
 870	8.6466e+01	8.6414	6.647219	0.000385	3.848987	0.652036	0.000038
 871	8.6565e+01	8.6497	6.679807	0.000328	3.275734	0.554924	0.000033
 872	8.6665e+01	8.6644	6.712394	0.000328	3.275734	0.554924	0.000033
 873	8.6764e+01	8.6719	6.747018	0.000348	3.480467	0.589607	0.000035
 874	8.6864e+01	8.6800	6.781642	0.000348	3.480467	0.589607	0.000035
 875	8.6963e+01	8.6939	6.818711	0.000373	3.726147	0.631226	0.000037
 876	8.7063e+01	8.7012	6.850483	0.000319	3.193841	0.541051	0.000032
 877	8.7162e+01	8.7128	6.889996	0.000397	3.971827	0.672846	0.000040
 878	8.7261e+01	8.7235	6.925842	0.000360	3.603307	0.610417	0.000036
 879	8.7361e+01	8.7316	6.962095	0.000364	3.644254	0.617353	0.000036
 880	8.7460e+01	8.7430	6.993868	0.000319	3.193841	0.541051	0.000032
 881	8.7560e+01	8.7494	7.032158	0.000385	3.848987	0.652036	0.000038
 882	8.7659e+01	8.7613	7.069226	0.000373	3.726147	0.631226	0.000037
 883	8.7759e+01	8.7702	7.104665	0.000356	3.562361	0.603480	0.000036
 884	8.7859e+01	8.7812	7.142141	0.000377	3.767094	0.638163	0.000038
 885	8.7958e+01	8.7903	7.182060	0.000401	4.012774	0.679782	0.000040
 886	8.8058e+01	8.8008	7.221980	0.000401	4.012774	0.679782	0.000040
 887	8.8157e+01	8.8108	7.259863	0.000381	3.808041	0.645100	0.000038
 888	8.8257e+01	8.8226	7.309151	0.000495	4.954548	0.839323	0.000050
 889	8.8356e+01	8.8314	7.347034	0.000381	3.808041	0.645100	0.000038
 890	8.8456e+01	8.8371	7.382473	0.000356	3.562361	0.603480	0.000036
 891	8.8555e+01	8.8504	7.426058	0.000438	4.381294	0.742211	0.000044
 892	8.8654e+01	8.8611	7.466793	0.000409	4.094667	0.693655	0.000041
 893	8.8754e+01	8.8698	7.506305	0.000397	3.971827	0.672846	0.000040
 894	8.8853e+01	8.8793	7.545002	0.000389	3.889934	0.658973	0.000039
 895	8.8953e+01	8.8895	7.592661	0.000479	4.790761	0.811577	0.000048
 896	8.9052e+01	8.8983	7.626064	0.000336	3.357627	0.568797	0.000034
 897	8.9152e+01	8.9099	7.670871	0.000450	4.504134	0.763021	0.000045
 898	8.9251e+01	8.9194	7.710383	0.000397	3.971827	0.672846	0.000040
 899	8.9351e+01	8.9307	7.753969	0.000438	4.381294	0.742211	0.000044
 900	8.9451e+01	8.9417	7.795518	0.000418	4.176561	0.707529	0.000042
 901	8.9550e+01	8.9495	7.836660	0.000414	4.135614	0.700592	0.000041
 902	8.9650e+01	8.9605	7.881467	0.000450	4.504134	0.763021	0.000045
 903	8.9749e+01	8.9702	7.923424	0.000422	4.217507	0.714465	0.000042
 904	8.9849e+01	8.9795	7.960492	0.000373	3.726147	0.631226	0.000037
 905	8.9948e+01	8.9866	8.005707	0.000455	4.545081	0.769958	0.000045
 906	9.0047e+01	8.9999	8.047663	0.000422	4.217507	0.714465	0.000042
 907	9.0147e+01	9.0088	8.089619	0.000422	4.217507	0.714465	0.000042
 908	9.0246e+01	9.0195	8.130761	0.000414	4.135614	0.700592	0.000041
 909	9.0346e+01	9.0289	8.175976	0.000455	4.545081	0.769958	0.000045
 910	9.0445e+01	9.0412	8.219154	0.000434	4.340347	0.735275	0.000043
 911	9.0545e+01	9.0497	8.264777	0.000459	4.586027	0.776894	0.000046
 912	9.0644e+01	9.0598	8.305104	0.000405	4.053721	0.686719	0.000041
 913	9.0744e+01	9.0680	8.350726	0.000459	4.586027	0.776894	0.000046
 914	9.0844e+01	9.0796	8.395534	0.000450	4.504134	0.763021	0.000045
 915	9.0943e+01	9.0897	8.438712	0.000434	4.340347	0.735275	0.000043
 916	9.1043e+01	9.0987	8.486371	0.000479	4.790761	0.811577	0.000048
 917	9.1142e+01	9.1101	8.527920	0.000418	4.176561	0.707529	0.000042
 918	9.1242e+01	9.1170	8.573950	0.000463	4.626974	0.783831	0.000046
 919	9.1341e+01	9.1309	8.617535	0.000438	4.381294	0.742211	0.000044
 920	9.1441e+01	9.1382	8.665194	0.000479	4.790761	0.811577	0.000048
 921	9.1540e+01	9.1460	8.711631	0.000467	4.667921	0.790767	0.000047
 922	9.1639e+01	9.1583	8.755217	0.000438	4.381294	0.742211	0.000044
 923	9.1739e+01	9.1675	8.804098	0.000491	4.913601	0.832387	0.000049
 924	9.1838e+01	9.1779	8.845647	0.000418	4.176561	0.707529	0.000042
 925	9.1938e+01	9.1895	8.892084	0.000467	4.667921	0.790767	0.000047
 926	9.2037e+01	9.1993	8.935670	0.000438	4.381294	0.742211	0.000044
 927	9.2137e+01	9.2067	8.978441	0.000430	4.299401	0.728338	0.000043
 928	9.2237e+01	9.2174	9.025693	0.000475	4.749814	0.804640	0.000047
 929	9.2336e+01	9.2261	9.074981	0.000495	4.954548	0.839323	0.000050
 930	9.2436e+01	9.2363	9.114901	0.000401	4.012774	0.679782	0.000040
 931	9.2535e+01	9.2473	9.158079	0.000434	4.340347	0.735275	0.000043
 932	9.2635e+01	9.2564	9.203294	0.000455	4.545081	0.769958	0.000045
 933	9.2734e+01	9.2692	9.251360	0.000483	4.831707	0.818513	0.000048
 934	9.2834e+01	9.2782	9.294539	0.000434	4.340347	0.735275	0.000043
 935	9.2933e+01	9.2905	9.342198	0.000479	4.790761	0.811577	0.000048
 936	9.3032e+01	9.2966	9.389857	0.000479	4.790761	0.811577	0.000048
 937	9.3132e+01	9.3073	9.438331	0.000487	4.872654	0.825450	0.000049
 938	9.3231e+01	9.3176	9.486397	0.000483	4.831707	0.818513	0.000048
 939	9.3331e+01	9.3262	9.539759	0.000536	5.364014	0.908689	0.000054
 940	9.3430e+01	9.3377	9.586196	0.000467	4.667921	0.790767	0.000047
 941	9.3530e+01	9.3458	9.639150	0.000532	5.323068	0.901752	0.000053
 942	9.3629e+01	9.3576	9.694956	0.000561	5.609694	0.950308	0.000056
 943	9.3729e+01	9.3668	9.745467	0.000508	5.077388	0.860133	0.000051
 944	9.3829e+01	9.3768	9.800051	0.000549	5.486854	0.929498	0.000055
 945	9.3928e+01	9.3887	9.852598	0.000528	5.282121	0.894816	0.000053
 946	9.4028e+01	9.3963	9.909626	0.000573	5.732534	0.971118	0.000057
 947	9.4127e+01	9.4076	9.965839	0.000565	5.650641	0.957244	0.000056
 948	9.4227e+01	9.4177	10.021645	0.000561	5.609694	0.950308	0.000056
 949	9.4326e+01	9.4279	10.078266	0.000569	5.691588	0.964181	0.000057
 950	9.4425e+01	9.4385	10.136923	0.000590	5.896321	0.998864	0.000059
 951	9.4525e+01	9.4468	10.196395	0.000598	5.978214	1.012737	0.000060
 952	9.4624e+01	9.4592	10.249757	0.000536	5.364014	0.908689	0.000054
 953	9.4724e+01	9.4697	10.303526	0.000540	5.404961	0.915625	0.000054
 954	9.4823e+01	9.4739	10.363406	0.000602	6.019161	1.019673	0.000060
 955	9.4923e+01	9.4891	10.424914	0.000618	6.182948	1.047420	0.000062
 956	9.5022e+01	9.4975	10.479905	0.000553	5.527801	0.936435	0.000055
 957	9.5122e+01	9.5047	10.541414	0.000618	6.182948	1.047420	0.000062
 958	9.5222e+01	9.5197	10.598035	0.000569	5.691588	0.964181	0.000057
 959	9.5321e+01	9.5283	10.653433	0.000557	5.568748	0.943371	0.000056
 960	9.5421e+01	9.5331	10.712498	0.000594	5.937268	1.005800	0.000059
 961	9.5520e+01	9.5474	10.774822	0.000626	6.264841	1.061293	0.000063
 962	9.5620e+01	9.5572	10.831442	0.000569	5.691588	0.964181	0.000057
 963	9.5719e+01	9.5663	10.887655	0.000565	5.650641	0.957244	0.000056
 964	9.5819e+01	9.5767	10.951201	0.000639	6.387681	1.082102	0.000064
 965	9.5918e+01	9.5887	11.007414	0.000565	5.650641	0.957244	0.000056
 966	9.6017e+01	9.5950	11.067701	0.000606	6.060108	1.026610	0.000061
 967	9.6117e+01	9.6050	11.133690	0.000663	6.633361	1.123722	0.000066
 968	9.6216e+01	9.6152	11.194384	0.000610	6.101054	1.033547	0.000061
 969	9.6316e+01	9.6264	11.255078	0.000610	6.101054	1.033547	0.000061
 970	9.6415e+01	9.6371	11.313736	0.000590	5.896321	0.998864	0.000059
 971	9.6515e+01	9.6461	11.377281	0.000639	6.387681	1.082102	0.000064
 972	9.6615e+01	9.6591	11.432680	0.000557	5.568748	0.943371	0.000056
 973	9.6714e+01	9.6650	11.497855	0.000655	6.551468	1.109849	0.000066
 974	9.6814e+01	9.6757	11.554882	0.000573	5.732534	0.971118	0.000057
 975	9.6913e+01	9.6854	11.620057	0.000655	6.551468	1.109849	0.000066
 976	9.7013e+01	9.6951	11.695008	0.000753	7.534188	1.276326	0.000075
 977	9.7112e+01	9.7040	11.767108	0.000725	7.247561	1.227770	0.000072
 978	9.7212e+01	9.7175	11.835949	0.000692	6.919988	1.172278	0.000069
 979	9.7311e+01	9.7266	11.905197	0.000696	6.960935	1.179214	0.000070
 980	9.7410e+01	9.7375	11.967520	0.000626	6.264841	1.061293	0.000063
 981	9.7510e+01	9.7437	12.029844	0.000626	6.264841	1.061293	0.000063
 982	9.7609e+01	9.7572	12.094611	0.000651	6.510521	1.102912	0.000065
 983	9.7709e+01	9.7628	12.156527	0.000622	6.223894	1.054356	0.000062
 984	9.7808e+01	9.7732	12.220073	0.000639	6.387681	1.082102	0.000064
 985	9.7908e+01	9.7857	12.283618	0.000639	6.387681	1.082102	0.000064
 986	9.8007e+01	9.7958	12.350422	0.000672	6.715254	1.137595	0.000067
 987	9.8107e+01	9.8048	12.420485	0.000704	7.042828	1.193087	0.000070
 988	9.8207e+01	9.8151	12.489326	0.000692	6.919988	1.172278	0.000069
 989	9.8306e+01	9.8246	12.558982	0.000700	7.001881	1.186151	0.000070
 990	9.8406e+01	9.8368	12.625379	0.000667	6.674308	1.130658	0.000067
 991	9.8505e+01	9.8438	12.693812	0.000688	6.879041	1.165341	0.000069
 992	9.8605e+01	9.8560	12.770393	0.000770	7.697975	1.304072	0.000077
 993	9.8704e+01	9.8636	12.839641	0.000696	6.960935	1.179214	0.000070
 994	9.8803e+01	9.8749	12.913370	0.000741	7.411348	1.255516	0.000074
 995	9.8903e+01	9.8865	12.984655	0.000717	7.165668	1.213897	0.000072
 996	9.9002e+01	9.8941	13.058384	0.000741	7.411348	1.255516	0.000074
 997	9.9102e+01	9.9026	13.128447	0.000704	7.042828	1.193087	0.000070
 998	9.9201e+01	9.9148	13.202583	0.000745	7.452295	1.262453	0.000075
 999	9.9301e+01	9.9231	13.273053	0.000708	7.083775	1.200024	0.000071
1000	9.9400e+01	9.9341	13.357781	0.000852	8.516908	1.442803	0.000085
1001	9.9500e+01	9.9418	13.432324	0.000749	7.493241	1.269389	0.000075
1002	9.9600e+01	9.9543	13.507683	0.000758	7.575135	1.283263	0.000076
1003	9.9699e+01	9.9632	13.580190	0.000729	7.288508	1.234707	0.000073
1004	9.9799e+01	9.9744	13.654733	0.000749	7.493241	1.269389	0.000075
1005	9.9898e+01	9.9835	13.736609	0.000823	8.230281	1.394247	0.000082
1006	9.9998e+01	9.9951	13.822558	0.000864	8.639748	1.463613	0.000086
1007	1.0010e+02	9.9819	13.870218	-0.000479	-4.790761	-0.811577	0.000048
1008	1.0020e+02	9.9766	13.915025	-0.000450	-4.504134	-0.763021	0.000045
1009	1.0030e+02	9.9628	13.958204	-0.000434	-4.340347	-0.735275	0.000043
1010	1.0040e+02	9.9530	13.995272	-0.000373	-3.726147	-0.631226	0.000037
1011	1.0050e+02	9.9432	14.039265	-0.000442	-4.422241	-0.749148	0.000044
1012	1.0059e+02	9.9365	14.084072	-0.000450	-4.504134	-0.763021	0.000045
1013	1.0069e+02	9.9255	14.128880	-0.000450	-4.504134	-0.763021	0.000045
1014	1.0079e+02	9.9136	14.165948	-0.000373	-3.726147	-0.631226	0.000037
1015	1.0089e+02	9.9050	14.193240	-0.000274	-2.743427	-0.464749	0.000027
1016	1.0099e+02	9.8936	14.222976	-0.000299	-2.989107	-0.506368	0.000030
1017	1.0109e+02	9.8853	14.247009	-0.000242	-2.415854	-0.409257	0.000024
1018	1.0119e+02	9.8726	14.277153	-0.000303	-3.030054	-0.513305	0.000030
1019	1.0129e+02	9.8648	14.303223	-0.000262	-2.620587	-0.443939	0.000026
1020	1.0139e+02	9.8550	14.331737	-0.000287	-2.866267	-0.485559	0.000029
1021	1.0149e+02	9.8428	14.353733	-0.000221	-2.211120	-0.374574	0.000022
1022	1.0159e+02	9.8342	14.384284	-0.000307	-3.071001	-0.520242	0.000031
1023	1.0169e+02	9.8270	14.405873	-0.000217	-2.170174	-0.367637	0.000022
1024	1.0179e+02	9.8159	14.438868	-0.000332	-3.316681	-0.561861	0.000033
1025	1.0189e+02	9.8047	14.464938	-0.000262	-2.620587	-0.443939	0.000026
1026	1.0199e+02	9.7926	14.492637	-0.000278	-2.784374	-0.471686	0.000028
1027	1.0209e+02	9.7828	14.521558	-0.000291	-2.907214	-0.492495	0.000029
1028	1.0219e+02	9.7729	14.540296	-0.000188	-1.883547	-0.319081	0.000019
1029	1.0229e+02	9.7646	14.555775	-0.000156	-1.555974	-0.263589	0.000016
1030	1.0239e+02	9.7565	14.574105	-0.000184	-1.842600	-0.312145	0.000018
1031	1.0248e+02	9.7486	14.591621	-0.000176	-1.760707	-0.298272	0.000018
1032	1.0258e+02	9.7367	14.609544	-0.000180	-1.801654	-0.305208	0.000018
1033	1.0268e+02	9.7250	14.625431	-0.000160	-1.596920	-0.270526	0.000016
1034	1.0278e+02	9.7195	14.636836	-0.000115	-1.146507	-0.194224	0.000011
1035	1.0288e+02	9.7085	14.653130	-0.000164	-1.637867	-0.277462	0.000016
1036	1.0298e+02	9.6960	14.663721	-0.000106	-1.064614	-0.180350	0.000011
1037	1.0308e+02	9.6853	14.677570	-0.000139	-1.392187	-0.235843	0.000014
1038	1.0318e+02	9.6741	14.684903	-0.000074	-0.737040	-0.124858	0.000007
1039	1.0328e+02	9.6680	14.698345	-0.000135	-1.351240	-0.228906	0.000014
1040	1.0338e+02	9.6574	14.709343	-0.000111	-1.105560	-0.187287	0.000011
1041	1.0348e+02	9.6461	14.720341	-0.000111	-1.105560	-0.187287	0.000011
1042	1.0358e+02	9.6359	14.732969	-0.000127	-1.269347	-0.215033	0.000013
1043	1.0368e+02	9.6265	14.737450	-0.000045	-0.450413	-0.076302	0.000005
1044	1.0378e+02	9.6167	14.749670	-0.000123	-1.228400	-0.208097	0.000012
1045	1.0388e+02	9.6033	14.757817	-0.000082	-0.818933	-0.138731	0.000008
1046	1.0398e+02	9.5947	14.762298	-0.000045	-0.450413	-0.076302	0.000005
1047	1.0408e+02	9.5901	14.771259	-0.000090	-0.900827	-0.152604	0.000009
1048	1.0418e+02	9.5764	14.780221	-0.000090	-0.900827	-0.152604	0.000009
1049	1.0428e+02	9.5674	14.784294	-0.000041	-0.409467	-0.069366	0.000004
1050	1.0438e+02	9.5591	14.791626	-0.000074	-0.737040	-0.124858	0.000007
1051	1.0447e+02	9.5435	14.795292	-0.000037	-0.368520	-0.062429	0.000004
1052	1.0457e+02	9.5300	14.805476	-0.000102	-1.023667	-0.173414	0.000010
1053	1.0467e+02	9.5252	14.808327	-0.000029	-0.286627	-0.048556	0.000003
1054	1.0477e+02	9.5158	14.819733	-0.000115	-1.146507	-0.194224	0.000011
1055	1.0487e+02	9.5078	14.824621	-0.000049	-0.491360	-0.083239	0.000005
1056	1.0497e+02	9.4965	14.833583	-0.000090	-0.900827	-0.152604	0.000009
1057	1.0507e+02	9.4867	14.835212	-0.000016	-0.163787	-0.027746	0.000002
1058	1.0517e+02	9.4741	14.843766	-0.000086	-0.859880	-0.145668	0.000009
1059	1.0527e+02	9.4641	14.847432	-0.000037	-0.368520	-0.062429	0.000004
1060	1.0537e+02	9.4562	14.850691	-0.000033	-0.327573	-0.055492	0.000003
1061	1.0547e+02	9.4454	14.854764	-0.000041	-0.409467	-0.069366	0.000004
1062	1.0557e+02	9.4360	14.858838	-0.000041	-0.409467	-0.069366	0.000004
1063	1.0567e+02	9.4277	14.862504	-0.000037	-0.368520	-0.062429	0.000004
1064	1.0577e+02	9.4172	14.859653	0.000029	0.286627	0.048556	-0.000003
1065	1.0587e+02	9.4046	14.859653	-0.000000	-0.000000	-0.000000	0.000000
1066	1.0597e+02	9.3954	14.861282	-0.000016	-0.163787	-0.027746	0.000002
1067	1.0607e+02	9.3911	14.863319	-0.000020	-0.204733	-0.034683	0.000002
1068	1.0617e+02	9.3782	14.866170	-0.000029	-0.286627	-0.048556	0.000003
1069	1.0627e+02	9.3687	14.868207	-0.000020	-0.204733	-0.034683	0.000002
1070	1.0637e+02	9.3567	14.869836	-0.000016	-0.163787	-0.027746	0.000002
1071	1.0647e+02	9.3491	14.874724	-0.000049	-0.491360	-0.083239	0.000005
1072	1.0656e+02	9.3368	14.873095	0.000016	0.163787	0.027746	-0.000002
1073	1.0666e+02	9.3268	14.874317	-0.000012	-0.122840	-0.020810	0.000001
1074	1.0676e+02	9.3177	14.875132	-0.000008	-0.081893	-0.013873	0.000001
1075	1.0686e+02	9.3076	14.876354	-0.000012	-0.122840	-0.020810	0.000001
1076	1.0696e+02	9.2979	14.874317	0.000020	0.204733	0.034683	-0.000002
1077	1.0706e+02	9.2883	14.877168	-0.000029	-0.286627	-0.048556	0.000003
1078	1.0716e+02	9.2749	14.875946	0.000012	0.122840	0.020810	-0.000001
1079	1.0726e+02	9.2676	14.877983	-0.000020	-0.204733	-0.034683	0.000002
1080	1.0736e+02	9.2563	14.879612	-0.000016	-0.163787	-0.027746	0.000002
1081	1.0746e+02	9.2493	14.878390	0.000012	0.122840	0.020810	-0.000001
1082	1.0756e+02	9.2350	14.877576	0.000008	0.081893	0.013873	-0.000001
1083	1.0766e+02	9.2299	14.880020	-0.000025	-0.245680	-0.041619	0.000002
1084	1.0776e+02	9.2163	14.879205	0.000008	0.081893	0.013873	-0.000001
1085	1.0786e+02	9.2083	14.878390	0.000008	0.081893	0.013873	-0.000001
1086	1.0796e+02	9.1974	14.877983	0.000004	0.040947	0.006937	-0.000000
1087	1.0806e+02	9.1870	14.878390	-0.000004	-0.040947	-0.006937	0.000000
1088	1.0816e+02	9.1738	14.877168	0.000012	0.122840	0.020810	-0.000001
1089	1.0826e+02	9.1700	14.873910	0.000033	0.327573	0.055492	-0.000003
1090	1.0836e+02	9.1578	14.869429	0.000045	0.450413	0.076302	-0.000005
1091	1.0845e+02	9.1488	14.865763	0.000037	0.368520	0.062429	-0.000004
1092	1.0855e+02	9.1364	14.866170	-0.000004	-0.040947	-0.006937	0.000000
1093	1.0865e+02	9.1276	14.860875	0.000053	0.532307	0.090175	-0.000005
1094	1.0875e+02	9.1175	14.859245	0.000016	0.163787	0.027746	-0.000002
1095	1.0885e+02	9.1093	14.854357	0.000049	0.491360	0.083239	-0.000005
1096	1.0895e+02	9.0975	14.853135	0.000012	0.122840	0.020810	-0.000001
1097	1.0905e+02	9.0894	14.850691	0.000025	0.245680	0.041619	-0.000002
1098	1.0915e+02	9.0773	14.847840	0.000029	0.286627	0.048556	-0.000003
1099	1.0925e+02	9.0709	14.844581	0.000033	0.327573	0.055492	-0.000003
1100	1.0935e+02	9.0609	14.840915	0.000037	0.368520	0.062429	-0.000004
1101	1.0945e+02	9.0466	14.838878	0.000020	0.204733	0.034683	-0.000002
1102	1.0955e+02	9.0405	14.837656	0.000012	0.122840	0.020810	-0.000001
1103	1.0965e+02	9.0271	14.830731	0.000070	0.696093	0.117921	-0.000007
1104	1.0975e+02	9.0186	14.825028	0.000057	0.573253	0.097112	-0.000006
1105	1.0985e+02	9.0115	14.820955	0.000041	0.409467	0.069366	-0.000004
1106	1.0995e+02	9.0002	14.816474	0.000045	0.450413	0.076302	-0.000005
1107	1.1005e+02	8.9906	14.809549	0.000070	0.696093	0.117921	-0.000007
1108	1.1015e+02	8.9804	14.808327	0.000012	0.122840	0.020810	-0.000001
1109	1.1025e+02	8.9719	14.807920	0.000004	0.040947	0.006937	-0.000000
1110	1.1035e+02	8.9590	14.802625	0.000053	0.532307	0.090175	-0.000005
1111	1.1044e+02	8.9495	14.798144	0.000045	0.450413	0.076302	-0.000005
1112	1.1054e+02	8.9389	14.798959	-0.000008	-0.081893	-0.013873	0.000001
1113	1.1064e+02	8.9310	14.795700	0.000033	0.327573	0.055492	-0.000003
1114	1.1074e+02	8.9178	14.792848	0.000029	0.286627	0.048556	-0.000003
1115	1.1084e+02	8.9111	14.788775	0.000041	0.409467	0.069366	-0.000004
1116	1.1094e+02	8.8986	14.784294	0.000045	0.450413	0.076302	-0.000005
1117	1.1104e+02	8.8879	14.782258	0.000020	0.204733	0.034683	-0.000002
1118	1.1114e+02	8.8811	14.775740	0.000066	0.655147	0.110985	-0.000007
1119	1.1124e+02	8.8721	14.776147	-0.000004	-0.040947	-0.006937	0.000000
1120	1.1134e+02	8.8596	14.770852	0.000053	0.532307	0.090175	-0.000005
1121	1.1144e+02	8.8486	14.768408	0.000025	0.245680	0.041619	-0.000002
1122	1.1154e+02	8.8419	14.764334	0.000041	0.409467	0.069366	-0.000004
1123	1.1164e+02	8.8298	14.759446	0.000049	0.491360	0.083239	-0.000005
1124	1.1174e+02	8.8177	14.760668	-0.000012	-0.122840	-0.020810	0.000001
1125	1.1184e+02	8.8129	14.754966	0.000057	0.573253	0.097112	-0.000006
1126	1.1194e+02	8.8004	14.748855	0.000061	0.614200	0.104048	-0.000006
1127	1.1204e+02	8.7921	14.741523	0.000074	0.737040	0.124858	-0.000007
1128	1.1214e+02	8.7814	14.738672	0.000029	0.286627	0.048556	-0.000003
1129	1.1224e+02	8.7698	14.732562	0.000061	0.614200	0.104048	-0.000006
1130	1.1234e+02	8.7589	14.725230	0.000074	0.737040	0.124858	-0.000007
1131	1.1244e+02	8.7509	14.715453	0.000098	0.982720	0.166477	-0.000010
1132	1.1253e+02	8.7408	14.709751	0.000057	0.573253	0.097112	-0.000006
1133	1.1263e+02	8.7325	14.699974	0.000098	0.982720	0.166477	-0.000010
1134	1.1273e+02	8.7229	14.697123	0.000029	0.286627	0.048556	-0.000003
1135	1.1283e+02	8.7103	14.684495	0.000127	1.269347	0.215033	-0.000013
1136	1.1293e+02	8.7019	14.673497	0.000111	1.105560	0.187287	-0.000011
1137	1.1303e+02	8.6922	14.667387	0.000061	0.614200	0.104048	-0.000006
1138	1.1313e+02	8.6829	14.658425	0.000090	0.900827	0.152604	-0.000009
1139	1.1323e+02	8.6733	14.649464	0.000090	0.900827	0.152604	-0.000009
1140	1.1333e+02	8.6624	14.637651	0.000119	1.187454	0.201160	-0.000012
1141	1.1343e+02	8.6533	14.628282	0.000094	0.941773	0.159541	-0.000009
1142	1.1353e+02	8.6408	14.617284	0.000111	1.105560	0.187287	-0.000011
1143	1.1363e+02	8.6309	14.606693	0.000106	1.064614	0.180350	-0.000011
1144	1.1373e+02	8.6230	14.595695	0.000111	1.105560	0.187287	-0.000011
1145	1.1383e+02	8.6111	14.587140	0.000086	0.859880	0.145668	-0.000009
1146	1.1393e+02	8.6050	14.574920	0.000123	1.228400	0.208097	-0.000012
1147	1.1403e+02	8.5914	14.568810	0.000061	0.614200	0.104048	-0.000006
1148	1.1413e+02	8.5815	14.559034	0.000098	0.982720	0.166477	-0.000010
1149	1.1423e+02	8.5700	14.545184	0.000139	1.392187	0.235843	-0.000014
1150	1.1433e+02	8.5620	14.533371	0.000119	1.187454	0.201160	-0.000012
1151	1.1442e+02	8.5522	14.526039	0.000074	0.737040	0.124858	-0.000007
1152	1.1452e+02	8.5425	14.515041	0.000111	1.105560	0.187287	-0.000011
1153	1.1462e+02	8.5303	14.502413	0.000127	1.269347	0.215033	-0.000013
1154	1.1472e+02	8.5249	14.493859	0.000086	0.859880	0.145668	-0.000009
1155	1.1482e+02	8.5112	14.480009	0.000139	1.392187	0.235843	-0.000014
1156	1.1492e+02	8.5010	14.468196	0.000119	1.187454	0.201160	-0.000012
1157	1.1502e+02	8.4904	14.458013	0.000102	1.023667	0.173414	-0.000010
1158	1.1512e+02	8.4824	14.447422	0.000106	1.064614	0.180350	-0.000011
1159	1.1522e+02	8.4741	14.431536	0.000160	1.596920	0.270526	-0.000016
1160	1.1532e+02	8.4609	14.422167	0.000094	0.941773	0.159541	-0.000009
1161	1.1542e+02	8.4512	14.408317	0.000139	1.392187	0.235843	-0.000014
1162	1.1552e+02	8.4427	14.397726	0.000106	1.064614	0.180350	-0.000011
1163	1.1562e+02	8.4334	14.382654	0.000152	1.515027	0.256653	-0.000015
1164	1.1572e+02	8.4211	14.371656	0.000111	1.105560	0.187287	-0.000011
1165	1.1582e+02	8.4118	14.354955	0.000168	1.678814	0.284399	-0.000017
1166	1.1592e+02	8.4041	14.343957	0.000111	1.105560	0.187287	-0.000011
1167	1.1602e+02	8.3976	14.329293	0.000147	1.474080	0.249716	-0.000015
1168	1.1612e+02	8.3823	14.316665	0.000127	1.269347	0.215033	-0.000013
1169	1.1622e+02	8.3728	14.299964	0.000168	1.678814	0.284399	-0.000017
1170	1.1632e+02	8.3626	14.289780	0.000102	1.023667	0.173414	-0.000010
1171	1.1642e+02	8.3533	14.280819	0.000090	0.900827	0.152604	-0.000009
1172	1.1651e+02	8.3438	14.266155	0.000147	1.474080	0.249716	-0.000015
1173	1.1661e+02	8.3335	14.252712	0.000135	1.351240	0.228906	-0.000014
1174	1.1671e+02	8.3231	14.236419	0.000164	1.637867	0.277462	-0.000016
1175	1.1681e+02	8.3112	14.222569	0.000139	1.392187	0.235843	-0.000014
1176	1.1691e+02	8.3032	14.209941	0.000127	1.269347	0.215033	-0.000013
1177	1.1701e+02	8.2932	14.197314	0.000127	1.269347	0.215033	-0.000013
1178	1.1711e+02	8.2822	14.181835	0.000156	1.555974	0.263589	-0.000016
1179	1.1721e+02	8.2740	14.168800	0.000131	1.310294	0.221970	-0.000013
1180	1.1731e+02	8.2652	14.156172	0.000127	1.269347	0.215033	-0.000013
1181	1.1741e+02	8.2548	14.139064	0.000172	1.719760	0.291335	-0.000017
1182	1.1751e+02	8.2440	14.126029	0.000131	1.310294	0.221970	-0.000013
1183	1.1761e+02	8.2352	14.109735	0.000164	1.637867	0.277462	-0.000016
1184	1.1771e+02	8.2229	14.099959	0.000098	0.982720	0.166477	-0.000010
1185	1.1781e+02	8.2153	14.083258	0.000168	1.678814	0.284399	-0.000017
1186	1.1791e+02	8.2056	14.067779	0.000156	1.555974	0.263589	-0.000016
1187	1.1801e+02	8.1943	14.057595	0.000102	1.023667	0.173414	-0.000010
1188	1.1811e+02	8.1833	14.041301	0.000164	1.637867	0.277462	-0.000016
1189	1.1821e+02	8.1738	14.023786	0.000176	1.760707	0.298272	-0.000018
1190	1.1831e+02	8.1641	14.011973	0.000119	1.187454	0.201160	-0.000012
1191	1.1841e+02	8.1567	13.994864	0.000172	1.719760	0.291335	-0.000017
1192	1.1850e+02	8.1441	13.977756	0.000172	1.719760	0.291335	-0.000017
1193	1.1860e+02	8.1342	13.962277	0.000156	1.555974	0.263589	-0.000016
1194	1.1870e+02	8.1245	13.945576	0.000168	1.678814	0.284399	-0.000017
1195	1.1880e+02	8.1133	13.928468	0.000172	1.719760	0.291335	-0.000017
1196	1.1890e+02	8.1074	13.913396	0.000152	1.515027	0.256653	-0.000015
1197	1.1900e+02	8.0960	13.897102	0.000164	1.637867	0.277462	-0.000016
1198	1.1910e+02	8.0843	13.877957	0.000192	1.924494	0.326018	-0.000019
1199	1.1920e+02	8.0783	13.858405	0.000197	1.965440	0.332955	-0.000020
1200	1.1930e+02	8.0650	13.842518	0.000160	1.596920	0.270526	-0.000016
1201	1.1940e+02	8.0575	13.825003	0.000176	1.760707	0.298272	-0.000018
1202	1.1950e+02	8.0462	13.806265	0.000188	1.883547	0.319081	-0.000019
1203	1.1960e+02	8.0344	13.787527	0.000188	1.883547	0.319081	-0.000019
1204	1.1970e+02	8.0267	13.767567	0.000201	2.006387	0.339891	-0.000020
1205	1.1980e+02	8.0139	13.749644	0.000180	1.801654	0.305208	-0.000018
1206	1.1990e+02	8.0025	13.730092	0.000197	1.965440	0.332955	-0.000020
1207	1.2000e+02	7.9961	13.712576	0.000176	1.760707	0.298272	-0.000018
1208	1.2010e+02	7.9869	13.692616	0.000201	2.006387	0.339891	-0.000020
1209	1.2020e+02	7.9762	13.673064	0.000197	1.965440	0.332955	-0.000020
1210	1.2030e+02	7.9656	13.655955	0.000172	1.719760	0.291335	-0.000017
1211	1.2039e+02	7.9556	13.639662	0.000164	1.637867	0.277462	-0.000016
1212	1.2049e+02	7.9454	13.620924	0.000188	1.883547	0.319081	-0.000019
1213	1.2059e+02	7.9349	13.603001	0.000180	1.801654	0.305208	-0.000018
1214	1.2069e+02	7.9253	13.584263	0.000188	1.883547	0.319081	-0.000019
1215	1.2079e+02	7.9153	13.568377	0.000160	1.596920	0.270526	-0.000016
1216	1.2089e+02	7.9025	13.548824	0.000197	1.965440	0.332955	-0.000020
1217	1.2099e+02	7.8956	13.537826	0.000111	1.105560	0.187287	-0.000011
1218	1.2109e+02	7.8841	13.521125	0.000168	1.678814	0.284399	-0.000017
1219	1.2119e+02	7.8770	13.503609	0.000176	1.760707	0.298272	-0.000018
1220	1.2129e+02	7.8662	13.490982	0.000127	1.269347	0.215033	-0.000013
1221	1.2139e+02	7.8568	13.472244	0.000188	1.883547	0.319081	-0.000019
1222	1.2149e+02	7.8460	13.456358	0.000160	1.596920	0.270526	-0.000016
1223	1.2159e+02	7.8358	13.442101	0.000143	1.433134	0.242779	-0.000014
1224	1.2169e+02	7.8245	13.423770	0.000184	1.842600	0.312145	-0.000018
1225	1.2179e+02	7.8161	13.413587	0.000102	1.023667	0.173414	-0.000010
1226	1.2189e+02	7.8082	13.392812	0.000209	2.088280	0.353764	-0.000021
1227	1.2199e+02	7.7959	13.373667	0.000192	1.924494	0.326018	-0.000019
1228	1.2209e+02	7.7856	13.361039	0.000127	1.269347	0.215033	-0.000013
1229	1.2219e+02	7.7776	13.346375	0.000147	1.474080	0.249716	-0.000015
1230	1.2229e+02	7.7661	13.332525	0.000139	1.392187	0.235843	-0.000014
1231	1.2239e+02	7.7570	13.313788	0.000188	1.883547	0.319081	-0.000019
1232	1.2248e+02	7.7487	13.298309	0.000156	1.555974	0.263589	-0.000016
1233	1.2258e+02	7.7345	13.284866	0.000135	1.351240	0.228906	-0.000014
1234	1.2268e+02	7.7251	13.270609	0.000143	1.433134	0.242779	-0.000014
1235	1.2278e+02	7.7165	13.249835	0.000209	2.088280	0.353764	-0.000021
1236	1.2288e+02	7.7052	13.233134	0.000168	1.678814	0.284399	-0.000017
1237	1.2298e+02	7.6971	13.217247	0.000160	1.596920	0.270526	-0.000016
1238	1.2308e+02	7.6897	13.199732	0.000176	1.760707	0.298272	-0.000018
1239	1.2318e+02	7.6739	13.185067	0.000147	1.474080	0.249716	-0.000015
1240	1.2328e+02	7.6665	13.170403	0.000147	1.474080	0.249716	-0.000015
1241	1.2338e+02	7.6546	13.157775	0.000127	1.269347	0.215033	-0.000013
1242	1.2348e+02	7.6453	13.139852	0.000180	1.801654	0.305208	-0.000018
1243	1.2358e+02	7.6378	13.123151	0.000168	1.678814	0.284399	-0.000017
1244	1.2368e+02	7.6273	13.107672	0.000156	1.555974	0.263589	-0.000016
1245	1.2378e+02	7.6147	13.091786	0.000160	1.596920	0.270526	-0.000016
1246	1.2388e+02	7.6080	13.077122	0.000147	1.474080	0.249716	-0.000015
1247	1.2398e+02	7.5991	13.061235	0.000160	1.596920	0.270526	-0.000016
1248	1.2408e+02	7.5845	13.045349	0.000160	1.596920	0.270526	-0.000016
1249	1.2418e+02	7.5799	13.029055	0.000164	1.637867	0.277462	-0.000016
1250	1.2428e+02	7.5666	13.017242	0.000119	1.187454	0.201160	-0.000012
1251	1.2438e+02	7.5571	13.001356	0.000160	1.596920	0.270526	-0.000016
1252	1.2447e+02	7.5436	12.985470	0.000160	1.596920	0.270526	-0.000016
1253	1.2457e+02	7.5359	12.969583	0.000160	1.596920	0.270526	-0.000016
1254	1.2467e+02	7.5293	12.952882	0.000168	1.678814	0.284399	-0.000017
1255	1.2477e+02	7.5174	12.936996	0.000160	1.596920	0.270526	-0.000016
1256	1.2487e+02	7.5086	12.921517	0.000156	1.555974	0.263589	-0.000016
1257	1.2497e+02	7.4976	12.906445	0.000152	1.515027	0.256653	-0.000015
1258	1.2507e+02	7.4873	12.889337	0.000172	1.719760	0.291335	-0.000017
1259	1.2517e+02	7.4769	12.871414	0.000180	1.801654	0.305208	-0.000018
1260	1.2527e+02	7.4675	12.859193	0.000123	1.228400	0.208097	-0.000012
1261	1.2537e+02	7.4609	12.838826	0.000205	2.047334	0.346828	-0.000020
1262	1.2547e+02	7.4443	12.823755	0.000152	1.515027	0.256653	-0.000015
1263	1.2557e+02	7.4365	12.809090	0.000147	1.474080	0.249716	-0.000015
1264	1.2567e+02	7.4236	12.792797	0.000164	1.637867	0.277462	-0.000016
1265	1.2577e+02	7.4189	12.778540	0.000143	1.433134	0.242779	-0.000014
1266	1.2587e+02	7.4078	12.761431	0.000172	1.719760	0.291335	-0.000017
1267	1.2597e+02	7.3997	12.745545	0.000160	1.596920	0.270526	-0.000016
1268	1.2607e+02	7.3866	12.727214	0.000184	1.842600	0.312145	-0.000018
1269	1.2617e+02	7.3781	12.713772	0.000135	1.351240	0.228906	-0.000014
1270	1.2627e+02	7.3704	12.698700	0.000152	1.515027	0.256653	-0.000015
1271	1.2636e+02	7.3589	12.680777	0.000180	1.801654	0.305208	-0.000018
1272	1.2646e+02	7.3486	12.663669	0.000172	1.719760	0.291335	-0.000017
1273	1.2656e+02	7.3403	12.650227	0.000135	1.351240	0.228906	-0.000014
1274	1.2666e+02	7.3283	12.638006	0.000123	1.228400	0.208097	-0.000012
1275	1.2676e+02	7.3179	12.623342	0.000147	1.474080	0.249716	-0.000015
1276	1.2686e+02	7.3077	12.602568	0.000209	2.088280	0.353764	-0.000021
1277	1.2696e+02	7.2990	12.593199	0.000094	0.941773	0.159541	-0.000009
1278	1.2706e+02	7.2881	12.578942	0.000143	1.433134	0.242779	-0.000014
1279	1.2716e+02	7.2795	12.566314	0.000127	1.269347	0.215033	-0.000013
1280	1.2726e+02	7.2720	12.554094	0.000123	1.228400	0.208097	-0.000012
1281	1.2736e+02	7.2576	12.535356	0.000188	1.883547	0.319081	-0.000019
1282	1.2746e+02	7.2480	12.525172	0.000102	1.023667	0.173414	-0.000010
1283	1.2756e+02	7.2381	12.510101	0.000152	1.515027	0.256653	-0.000015
1284	1.2766e+02	7.2289	12.495029	0.000152	1.515027	0.256653	-0.000015
1285	1.2776e+02	7.2170	12.484031	0.000111	1.105560	0.187287	-0.000011
1286	1.2786e+02	7.2080	12.472625	0.000115	1.146507	0.194224	-0.000011
1287	1.2796e+02	7.1975	12.455517	0.000172	1.719760	0.291335	-0.000017
1288	1.2806e+02	7.1877	12.446963	0.000086	0.859880	0.145668	-0.000009
1289	1.2816e+02	7.1793	12.432706	0.000143	1.433134	0.242779	-0.000014
1290	1.2826e+02	7.1703	12.419263	0.000135	1.351240	0.228906	-0.000014
1291	1.2835e+02	7.1584	12.405414	0.000139	1.392187	0.235843	-0.000014
1292	1.2845e+02	7.1505	12.391971	0.000135	1.351240	0.228906	-0.000014
1293	1.2855e+02	7.1378	12.379344	0.000127	1.269347	0.215033	-0.000013
1294	1.2865e+02	7.1320	12.364679	0.000147	1.474080	0.249716	-0.000015
1295	1.2875e+02	7.1197	12.346349	0.000184	1.842600	0.312145	-0.000018
1296	1.2885e+02	7.1106	12.330870	0.000156	1.555974	0.263589	-0.000016
1297	1.2895e+02	7.0982	12.314984	0.000160	1.596920	0.270526	-0.000016
1298	1.2905e+02	7.0901	12.299097	0.000160	1.596920	0.270526	-0.000016
1299	1.2915e+02	7.0776	12.285655	0.000135	1.351240	0.228906	-0.000014
1300	1.2925e+02	7.0687	12.267325	0.000184	1.842600	0.312145	-0.000018
1301	1.2935e+02	7.0599	12.246550	0.000209	2.088280	0.353764	-0.000021
1302	1.2945e+02	7.0517	12.231071	0.000156	1.555974	0.263589	-0.000016
1303	1.2955e+02	7.0428	12.216814	0.000143	1.433134	0.242779	-0.000014
1304	1.2965e+02	7.0296	12.196854	0.000201	2.006387	0.339891	-0.000020
1305	1.2975e+02	7.0199	12.178931	0.000180	1.801654	0.305208	-0.000018
1306	1.2985e+02	7.0094	12.163860	0.000152	1.515027	0.256653	-0.000015
1307	1.2995e+02	7.0016	12.147159	0.000168	1.678814	0.284399	-0.000017
1308	1.3005e+02	6.9905	12.126791	0.000205	2.047334	0.346828	-0.000020
1309	1.3015e+02	6.9781	12.111720	0.000152	1.515027	0.256653	-0.000015
1310	1.3025e+02	6.9728	12.093797	0.000180	1.801654	0.305208	-0.000018
1311	1.3034e+02	6.9605	12.070985	0.000229	2.293014	0.388447	-0.000023
1312	1.3044e+02	6.9516	12.058358	0.000127	1.269347	0.215033	-0.000013
1313	1.3054e+02	6.9420	12.037583	0.000209	2.088280	0.353764	-0.000021
1314	1.3064e+02	6.9312	12.019660	0.000180	1.801654	0.305208	-0.000018
1315	1.3074e+02	6.9209	12.002552	0.000172	1.719760	0.291335	-0.000017
1316	1.3084e+02	6.9115	11.985036	0.000176	1.760707	0.298272	-0.000018
1317	1.3094e+02	6.9014	11.964262	0.000209	2.088280	0.353764	-0.000021
1318	1.3104e+02	6.8873	11.948375	0.000160	1.596920	0.270526	-0.000016
1319	1.3114e+02	6.8806	11.927601	0.000209	2.088280	0.353764	-0.000021
1320	1.3124e+02	6.8713	11.906012	0.000217	2.170174	0.367637	-0.000022
1321	1.3134e+02	6.8609	11.889718	0.000164	1.637867	0.277462	-0.000016
1322	1.3144e+02	6.8517	11.869351	0.000205	2.047334	0.346828	-0.000020
1323	1.3154e+02	6.8414	11.851428	0.000180	1.801654	0.305208	-0.000018
1324	1.3164e+02	6.8294	11.833912	0.000176	1.760707	0.298272	-0.000018
1325	1.3174e+02	6.8208	11.812730	0.000213	2.129227	0.360701	-0.000021
1326	1.3184e+02	6.8090	11.792363	0.000205	2.047334	0.346828	-0.000020
1327	1.3194e+02	6.8053	11.777292	0.000152	1.515027	0.256653	-0.000015
1328	1.3204e+02	6.7913	11.758961	0.000184	1.842600	0.312145	-0.000018
1329	1.3214e+02	6.7853	11.737779	0.000213	2.129227	0.360701	-0.000021
1330	1.3224e+02	6.7683	11.718634	0.000192	1.924494	0.326018	-0.000019
1331	1.3234e+02	6.7638	11.694601	0.000242	2.415854	0.409257	-0.000024
1332	1.3243e+02	6.7542	11.674641	0.000201	2.006387	0.339891	-0.000020
1333	1.3253e+02	6.7434	11.656311	0.000184	1.842600	0.312145	-0.000018
1334	1.3263e+02	6.7321	11.635536	0.000209	2.088280	0.353764	-0.000021
1335	1.3273e+02	6.7211	11.618835	0.000168	1.678814	0.284399	-0.000017
1336	1.3283e+02	6.7100	11.593987	0.000250	2.497747	0.423130	-0.000025
1337	1.3293e+02	6.6997	11.576064	0.000180	1.801654	0.305208	-0.000018
1338	1.3303e+02	6.6930	11.559771	0.000164	1.637867	0.277462	-0.000016
1339	1.3313e+02	6.6846	11.540218	0.000197	1.965440	0.332955	-0.000020
1340	1.3323e+02	6.6698	11.517814	0.000225	2.252067	0.381510	-0.000023
1341	1.3333e+02	6.6598	11.503557	0.000143	1.433134	0.242779	-0.000014
1342	1.3343e+02	6.6529	11.477895	0.000258	2.579640	0.437003	-0.000026
1343	1.3353e+02	6.6455	11.459157	0.000188	1.883547	0.319081	-0.000019
1344	1.3363e+02	6.6288	11.438790	0.000205	2.047334	0.346828	-0.000020
1345	1.3373e+02	6.6252	11.419645	0.000192	1.924494	0.326018	-0.000019
1346	1.3383e+02	6.6077	11.396426	0.000233	2.333960	0.395384	-0.000023
1347	1.3393e+02	6.6020	11.380947	0.000156	1.555974	0.263589	-0.000016
1348	1.3403e+02	6.5939	11.356914	0.000242	2.415854	0.409257	-0.000024
1349	1.3413e+02	6.5838	11.340213	0.000168	1.678814	0.284399	-0.000017
1350	1.3423e+02	6.5689	11.320661	0.000197	1.965440	0.332955	-0.000020
1351	1.3432e+02	6.5601	11.300701	0.000201	2.006387	0.339891	-0.000020
1352	1.3442e+02	6.5536	11.277075	0.000237	2.374907	0.402320	-0.000024
1353	1.3452e+02	6.5416	11.259559	0.000176	1.760707	0.298272	-0.000018
1354	1.3462e+02	6.5298	11.244895	0.000147	1.474080	0.249716	-0.000015
1355	1.3472e+02	6.5243	11.223713	0.000213	2.129227	0.360701	-0.000021
1356	1.3482e+02	6.5122	11.199272	0.000246	2.456800	0.416193	-0.000025
1357	1.3492e+02	6.5026	11.179720	0.000197	1.965440	0.332955	-0.000020
1358	1.3502e+02	6.4944	11.156909	0.000229	2.293014	0.388447	-0.000023
1359	1.3512e+02	6.4821	11.137356	0.000197	1.965440	0.332955	-0.000020
1360	1.3522e+02	6.4747	11.114545	0.000229	2.293014	0.388447	-0.000023
1361	1.3532e+02	6.4626	11.094585	0.000201	2.006387	0.339891	-0.000020
1362	1.3542e+02	6.4544	11.073404	0.000213	2.129227	0.360701	-0.000021
1363	1.3552e+02	6.4449	11.048963	0.000246	2.456800	0.416193	-0.000025
1364	1.3562e+02	6.4355	11.026967	0.000221	2.211120	0.374574	-0.000022
1365	1.3572e+02	6.4218	11.001711	0.000254	2.538694	0.430066	-0.000025
1366	1.3582e+02	6.4129	10.981752	0.000201	2.006387	0.339891	-0.000020
1367	1.3592e+02	6.4017	10.958533	0.000233	2.333960	0.395384	-0.000023
1368	1.3602e+02	6.3928	10.934500	0.000242	2.415854	0.409257	-0.000024
1369	1.3612e+02	6.3811	10.915762	0.000188	1.883547	0.319081	-0.000019
1370	1.3622e+02	6.3728	10.887248	0.000287	2.866267	0.485559	-0.000029
1371	1.3631e+02	6.3612	10.864437	0.000229	2.293014	0.388447	-0.000023
1372	1.3641e+02	6.3505	10.844070	0.000205	2.047334	0.346828	-0.000020
1373	1.3651e+02	6.3439	10.821666	0.000225	2.252067	0.381510	-0.000023
1374	1.3661e+02	6.3330	10.796818	0.000250	2.497747	0.423130	-0.000025
1375	1.3671e+02	6.3242	10.775636	0.000213	2.129227	0.360701	-0.000021
1376	1.3681e+02	6.3135	10.751196	0.000246	2.456800	0.416193	-0.000025
1377	1.3691e+02	6.3046	10.729606	0.000217	2.170174	0.367637	-0.000022
1378	1.3701e+02	6.2940	10.709647	0.000201	2.006387	0.339891	-0.000020
1379	1.3711e+02	6.2854	10.688058	0.000217	2.170174	0.367637	-0.000022
1380	1.3721e+02	6.2740	10.667690	0.000205	2.047334	0.346828	-0.000020
1381	1.3731e+02	6.2624	10.646509	0.000213	2.129227	0.360701	-0.000021
1382	1.3741e+02	6.2536	10.624512	0.000221	2.211120	0.374574	-0.000022
1383	1.3751e+02	6.2496	10.606589	0.000180	1.801654	0.305208	-0.000018
1384	1.3761e+02	6.2325	10.584593	0.000221	2.211120	0.374574	-0.000022
1385	1.3771e+02	6.2237	10.564633	0.000201	2.006387	0.339891	-0.000020
1386	1.3781e+02	6.2147	10.544673	0.000201	2.006387	0.339891	-0.000020
1387	1.3791e+02	6.2045	10.521454	0.000233	2.333960	0.395384	-0.000023
1388	1.3801e+02	6.1951	10.503531	0.000180	1.801654	0.305208	-0.000018
1389	1.3811e+02	6.1849	10.485201	0.000184	1.842600	0.312145	-0.000018
1390	1.3821e+02	6.1747	10.468093	0.000172	1.719760	0.291335	-0.000017
1391	1.3831e+02	6.1619	10.446911	0.000213	2.129227	0.360701	-0.000021
1392	1.3840e+02	6.1562	10.427358	0.000197	1.965440	0.332955	-0.000020
1393	1.3850e+02	6.1443	10.409028	0.000184	1.842600	0.312145	-0.000018
1394	1.3860e+02	6.1348	10.388661	0.000205	2.047334	0.346828	-0.000020
1395	1.3870e+02	6.1265	10.369923	0.000188	1.883547	0.319081	-0.000019
1396	1.3880e+02	6.1149	10.349149	0.000209	2.088280	0.353764	-0.000021
1397	1.3890e+02	6.1032	10.329596	0.000197	1.965440	0.332955	-0.000020
1398	1.3900e+02	6.0938	10.312895	0.000168	1.678814	0.284399	-0.000017
1399	1.3910e+02	6.0867	10.292528	0.000205	2.047334	0.346828	-0.000020
1400	1.3920e+02	6.0759	10.271346	0.000213	2.129227	0.360701	-0.000021
1401	1.3930e+02	6.0656	10.253423	0.000180	1.801654	0.305208	-0.000018
1402	1.3940e+02	6.0548	10.236722	0.000168	1.678814	0.284399	-0.000017
1403	1.3950e+02	6.0474	10.213096	0.000237	2.374907	0.402320	-0.000024
1404	1.3960e+02	6.0371	10.201691	0.000115	1.146507	0.194224	-0.000011
1405	1.3970e+02	6.0242	10.180509	0.000213	2.129227	0.360701	-0.000021
1406	1.3980e+02	6.0142	10.161364	0.000192	1.924494	0.326018	-0.000019
1407	1.3990e+02	6.0047	10.139774	0.000217	2.170174	0.367637	-0.000022
1408	1.4000e+02	5.9943	10.122666	0.000172	1.719760	0.291335	-0.000017
1409	1.4010e+02	5.9863	10.102299	0.000205	2.047334	0.346828	-0.000020
1410	1.4020e+02	5.9731	10.085598	0.000168	1.678814	0.284399	-0.000017
1411	1.4029e+02	5.9686	10.065638	0.000201	2.006387	0.339891	-0.000020
1412	1.4039e+02	5.9562	10.050566	0.000152	1.515027	0.256653	-0.000015
1413	1.4049e+02	5.9484	10.028977	0.000217	2.170174	0.367637	-0.000022
1414	1.4059e+02	5.9342	10.012684	0.000164	1.637867	0.277462	-0.000016
1415	1.4069e+02	5.9251	9.989872	0.000229	2.293014	0.388447	-0.000023
1416	1.4079e+02	5.9139	9.973171	0.000168	1.678814	0.284399	-0.000017
1417	1.4089e+02	5.9033	9.956063	0.000172	1.719760	0.291335	-0.000017
1418	1.4099e+02	5.8965	9.939769	0.000164	1.637867	0.277462	-0.000016
1419	1.4109e+02	5.8887	9.925105	0.000147	1.474080	0.249716	-0.000015
1420	1.4119e+02	5.8784	9.902701	0.000225	2.252067	0.381510	-0.000023
1421	1.4129e+02	5.8643	9.884371	0.000184	1.842600	0.312145	-0.000018
1422	1.4139e+02	5.8566	9.866448	0.000180	1.801654	0.305208	-0.000018
1423	1.4149e+02	5.8483	9.842822	0.000237	2.374907	0.402320	-0.000024
1424	1.4159e+02	5.8373	9.828157	0.000147	1.474080	0.249716	-0.000015
1425	1.4169e+02	5.8245	9.810234	0.000180	1.801654	0.305208	-0.000018
1426	1.4179e+02	5.8143	9.792719	0.000176	1.760707	0.298272	-0.000018
1427	1.4189e+02	5.8062	9.770722	0.000221	2.211120	0.374574	-0.000022
1428	1.4199e+02	5.7943	9.755650	0.000152	1.515027	0.256653	-0.000015
1429	1.4209e+02	5.7833	9.734876	0.000209	2.088280	0.353764	-0.000021
1430	1.4219e+02	5.7764	9.716138	0.000188	1.883547	0.319081	-0.000019
1431	1.4228e+02	5.7647	9.699845	0.000164	1.637867	0.277462	-0.000016
1432	1.4238e+02	5.7548	9.682736	0.000172	1.719760	0.291335	-0.000017
1433	1.4248e+02	5.7458	9.663591	0.000192	1.924494	0.326018	-0.000019
1434	1.4258e+02	5.7365	9.646483	0.000172	1.719760	0.291335	-0.000017
1435	1.4268e+02	5.7273	9.624893	0.000217	2.170174	0.367637	-0.000022
1436	1.4278e+02	5.7180	9.606970	0.000180	1.801654	0.305208	-0.000018
1437	1.4288e+02	5.7076	9.589047	0.000180	1.801654	0.305208	-0.000018
1438	1.4298e+02	5.6963	9.572346	0.000168	1.678814	0.284399	-0.000017
1439	1.4308e+02	5.6885	9.549535	0.000229	2.293014	0.388447	-0.000023
1440	1.4318e+02	5.6779	9.535278	0.000143	1.433134	0.242779	-0.000014
1441	1.4328e+02	5.6692	9.516133	0.000192	1.924494	0.326018	-0.000019
1442	1.4338e+02	5.6559	9.501061	0.000152	1.515027	0.256653	-0.000015
1443	1.4348e+02	5.6464	9.483953	0.000172	1.719760	0.291335	-0.000017
1444	1.4358e+02	5.6393	9.465623	0.000184	1.842600	0.312145	-0.000018
1445	1.4368e+02	5.6291	9.447699	0.000180	1.801654	0.305208	-0.000018
1446	1.4378e+02	5.6156	9.431813	0.000160	1.596920	0.270526	-0.000016
1447	1.4388e+02	5.6090	9.414297	0.000176	1.760707	0.298272	-0.000018
1448	1.4398e+02	5.5987	9.399226	0.000152	1.515027	0.256653	-0.000015
1449	1.4408e+02	5.5880	9.383747	0.000156	1.555974	0.263589	-0.000016
1450	1.4418e+02	5.5773	9.369897	0.000139	1.392187	0.235843	-0.000014
1451	1.4428e+02	5.5672	9.351567	0.000184	1.842600	0.312145	-0.000018
1452	1.4437e+02	5.5578	9.335680	0.000160	1.596920	0.270526	-0.000016
1453	1.4447e+02	5.5463	9.319794	0.000160	1.596920	0.270526	-0.000016
1454	1.4457e+02	5.5355	9.301871	0.000180	1.801654	0.305208	-0.000018
1455	1.4467e+02	5.5299	9.288021	0.000139	1.392187	0.235843	-0.000014
1456	1.4477e+02	5.5188	9.272542	0.000156	1.555974	0.263589	-0.000016
1457	1.4487e+02	5.5056	9.257063	0.000156	1.555974	0.263589	-0.000016
1458	1.4497e+02	5.5013	9.241584	0.000156	1.555974	0.263589	-0.000016
1459	1.4507e+02	5.4887	9.224068	0.000176	1.760707	0.298272	-0.000018
1460	1.4517e+02	5.4762	9.208997	0.000152	1.515027	0.256653	-0.000015
1461	1.4527e+02	5.4702	9.190259	0.000188	1.883547	0.319081	-0.000019
1462	1.4537e+02	5.4585	9.173558	0.000168	1.678814	0.284399	-0.000017
1463	1.4547e+02	5.4439	9.156042	0.000176	1.760707	0.298272	-0.000018
1464	1.4557e+02	5.4388	9.136897	0.000192	1.924494	0.326018	-0.000019
1465	1.4567e+02	5.4282	9.119381	0.000176	1.760707	0.298272	-0.000018
1466	1.4577e+02	5.4197	9.102273	0.000172	1.719760	0.291335	-0.000017
1467	1.4587e+02	5.4115	9.082313	0.000201	2.006387	0.339891	-0.000020
1468	1.4597e+02	5.3977	9.063983	0.000184	1.842600	0.312145	-0.000018
1469	1.4607e+02	5.3890	9.044023	0.000201	2.006387	0.339891	-0.000020
1470	1.4617e+02	5.3803	9.025285	0.000188	1.883547	0.319081	-0.000019
1471	1.4626e+02	5.3703	9.004103	0.000213	2.129227	0.360701	-0.000021
1472	1.4636e+02	5.3585	8.985773	0.000184	1.842600	0.312145	-0.000018
1473	1.4646e+02	5.3519	8.964999	0.000209	2.088280	0.353764	-0.000021
1474	1.4656e+02	5.3376	8.948705	0.000164	1.637867	0.277462	-0.000016
1475	1.4666e+02	5.3283	8.927523	0.000213	2.129227	0.360701	-0.000021
1476	1.4676e+02	5.3175	8.905119	0.000225	2.252067	0.381510	-0.000023
1477	1.4686e+02	5.3083	8.887603	0.000176	1.760707	0.298272	-0.000018
1478	1.4696e+02	5.3006	8.865607	0.000221	2.211120	0.374574	-0.000022
1479	1.4706e+02	5.2917	8.846869	0.000188	1.883547	0.319081	-0.000019
1480	1.4716e+02	5.2770	8.823651	0.000233	2.333960	0.395384	-0.000023
1481	1.4726e+02	5.2694	8.811023	0.000127	1.269347	0.215033	-0.000013
1482	1.4736e+02	5.2570	8.783731	0.000274	2.743427	0.464749	-0.000027
1483	1.4746e+02	5.2486	8.764586	0.000192	1.924494	0.326018	-0.000019
1484	1.4756e+02	5.2374	8.743404	0.000213	2.129227	0.360701	-0.000021
1485	1.4766e+02	5.2288	8.722222	0.000213	2.129227	0.360701	-0.000021
1486	1.4776e+02	5.2210	8.704299	0.000180	1.801654	0.305208	-0.000018
1487	1.4786e+02	5.2081	8.682710	0.000217	2.170174	0.367637	-0.000022
1488	1.4796e+02	5.1983	8.665194	0.000176	1.760707	0.298272	-0.000018
1489	1.4806e+02	5.1900	8.643198	0.000221	2.211120	0.374574	-0.000022
1490	1.4816e+02	5.1797	8.619572	0.000237	2.374907	0.402320	-0.000024
1491	1.4825e+02	5.1699	8.599612	0.000201	2.006387	0.339891	-0.000020
1492	1.4835e+02	5.1586	8.578838	0.000209	2.088280	0.353764	-0.000021
1493	1.4845e+02	5.1502	8.559285	0.000197	1.965440	0.332955	-0.000020
1494	1.4855e+02	5.1392	8.536882	0.000225	2.252067	0.381510	-0.000023
1495	1.4865e+02	5.1285	8.514070	0.000229	2.293014	0.388447	-0.000023
1496	1.4875e+02	5.1194	8.496555	0.000176	1.760707	0.298272	-0.000018
1497	1.4885e+02	5.1064	8.472114	0.000246	2.456800	0.416193	-0.000025
1498	1.4895e+02	5.1005	8.450525	0.000217	2.170174	0.367637	-0.000022
1499	1.4905e+02	5.0918	8.429750	0.000209	2.088280	0.353764	-0.000021
1500	1.4915e+02	5.0806	8.405717	0.000242	2.415854	0.409257	-0.000024
1501	1.4925e+02	5.0719	8.385350	0.000205	2.047334	0.346828	-0.000020
1502	1.4935e+02	5.0602	8.364168	0.000213	2.129227	0.360701	-0.000021
1503	1.4945e+02	5.0518	8.342579	0.000217	2.170174	0.367637	-0.000022
1504	1.4955e+02	5.0427	8.322212	0.000205	2.047334	0.346828	-0.000020
1505	1.4965e+02	5.0289	8.302660	0.000197	1.965440	0.332955	-0.000020
1506	1.4975e+02	5.0192	8.278219	0.000246	2.456800	0.416193	-0.000025
1507	1.4985e+02	5.0115	8.254186	0.000242	2.415854	0.409257	-0.000024
1508	1.4995e+02	5.0019	8.237485	0.000168	1.678814	0.284399	-0.000017
1509	1.5005e+02	4.9889	8.216303	0.000213	2.129227	0.360701	-0.000021
1510	1.5015e+02	4.9804	8.191862	0.000246	2.456800	0.416193	-0.000025
1511	1.5025e+02	4.9708	8.174754	0.000172	1.719760	0.291335	-0.000017
1512	1.5034e+02	4.9610	8.151128	0.000237	2.374907	0.402320	-0.000024
1513	1.5044e+02	4.9503	8.129132	0.000221	2.211120	0.374574	-0.000022
1514	1.5054e+02	4.9438	8.105913	0.000233	2.333960	0.395384	-0.000023
1515	1.5064e+02	4.9305	8.087175	0.000188	1.883547	0.319081	-0.000019
1516	1.5074e+02	4.9223	8.063142	0.000242	2.415854	0.409257	-0.000024
1517	1.5084e+02	4.9117	8.041146	0.000221	2.211120	0.374574	-0.000022
1518	1.5094e+02	4.9015	8.020779	0.000205	2.047334	0.346828	-0.000020
1519	1.5104e+02	4.8902	7.998375	0.000225	2.252067	0.381510	-0.000023
1520	1.5114e+02	4.8816	7.976786	0.000217	2.170174	0.367637	-0.000022
1521	1.5124e+02	4.8711	7.952752	0.000242	2.415854	0.409257	-0.000024
1522	1.5134e+02	4.8602	7.932385	0.000205	2.047334	0.346828	-0.000020
1523	1.5144e+02	4.8547	7.911203	0.000213	2.129227	0.360701	-0.000021
1524	1.5154e+02	4.8400	7.894502	0.000168	1.678814	0.284399	-0.000017
1525	1.5164e+02	4.8325	7.863137	0.000315	3.152894	0.534115	-0.000032
1526	1.5174e+02	4.8237	7.843177	0.000201	2.006387	0.339891	-0.000020
1527	1.5184e+02	4.8125	7.821995	0.000213	2.129227	0.360701	-0.000021
1528	1.5194e+02	4.8022	7.794296	0.000278	2.784374	0.471686	-0.000028
1529	1.5204e+02	4.7930	7.771485	0.000229	2.293014	0.388447	-0.000023
1530	1.5214e+02	4.7810	7.750303	0.000213	2.129227	0.360701	-0.000021
1531	1.5224e+02	4.7707	7.722604	0.000278	2.784374	0.471686	-0.000028
1532	1.5233e+02	4.7636	7.696534	0.000262	2.620587	0.443939	-0.000026
1533	1.5243e+02	4.7503	7.672908	0.000237	2.374907	0.402320	-0.000024
1534	1.5253e+02	4.7420	7.651319	0.000217	2.170174	0.367637	-0.000022
1535	1.5263e+02	4.7353	7.626878	0.000246	2.456800	0.416193	-0.000025
1536	1.5273e+02	4.7234	7.601623	0.000254	2.538694	0.430066	-0.000025
1537	1.5283e+02	4.7124	7.574738	0.000270	2.702480	0.457813	-0.000027
1538	1.5293e+02	4.7015	7.554371	0.000205	2.047334	0.346828	-0.000020
1539	1.5303e+02	4.6908	7.520969	0.000336	3.357627	0.568797	-0.000034
1540	1.5313e+02	4.6842	7.500602	0.000205	2.047334	0.346828	-0.000020
1541	1.5323e+02	4.6715	7.475347	0.000254	2.538694	0.430066	-0.000025
1542	1.5333e+02	4.6632	7.453350	0.000221	2.211120	0.374574	-0.000022
1543	1.5343e+02	4.6535	7.433391	0.000201	2.006387	0.339891	-0.000020
1544	1.5353e+02	4.6444	7.403247	0.000303	3.030054	0.513305	-0.000030
1545	1.5363e+02	4.6356	7.378399	0.000250	2.497747	0.423130	-0.000025
1546	1.5373e+02	4.6234	7.358032	0.000205	2.047334	0.346828	-0.000020
1547	1.5383e+02	4.6133	7.334406	0.000237	2.374907	0.402320	-0.000024
1548	1.5393e+02	4.6024	7.310780	0.000237	2.374907	0.402320	-0.000024
1549	1.5403e+02	4.5925	7.285933	0.000250	2.497747	0.423130	-0.000025
1550	1.5413e+02	4.5831	7.260270	0.000258	2.579640	0.437003	-0.000026
1551	1.5422e+02	4.5703	7.239088	0.000213	2.129227	0.360701	-0.000021
1552	1.5432e+02	4.5658	7.218721	0.000205	2.047334	0.346828	-0.000020
1553	1.5442e+02	4.5525	7.198761	0.000201	2.006387	0.339891	-0.000020
1554	1.5452e+02	4.5437	7.180023	0.000188	1.883547	0.319081	-0.000019
1555	1.5462e+02	4.5339	7.157620	0.000225	2.252067	0.381510	-0.000023
1556	1.5472e+02	4.5231	7.138882	0.000188	1.883547	0.319081	-0.000019
1557	1.5482e+02	4.5145	7.111997	0.000270	2.702480	0.457813	-0.000027
1558	1.5492e+02	4.5041	7.094074	0.000180	1.801654	0.305208	-0.000018
1559	1.5502e+02	4.4967	7.071670	0.000225	2.252067	0.381510	-0.000023
1560	1.5512e+02	4.4852	7.049674	0.000221	2.211120	0.374574	-0.000022
1561	1.5522e+02	4.4741	7.028492	0.000213	2.129227	0.360701	-0.000021
1562	1.5532e+02	4.4633	7.005681	0.000229	2.293014	0.388447	-0.000023
1563	1.5542e+02	4.4534	6.988572	0.000172	1.719760	0.291335	-0.000017
1564	1.5552e+02	4.4421	6.964539	0.000242	2.415854	0.409257	-0.000024
1565	1.5562e+02	4.4312	6.945802	0.000188	1.883547	0.319081	-0.000019
1566	1.5572e+02	4.4245	6.922990	0.000229	2.293014	0.388447	-0.000023
1567	1.5582e+02	4.4137	6.904660	0.000184	1.842600	0.312145	-0.000018
1568	1.5592e+02	4.4015	6.881034	0.000237	2.374907	0.402320	-0.000024
1569	1.5602e+02	4.3954	6.861889	0.000192	1.924494	0.326018	-0.000019
1570	1.5612e+02	4.3830	6.839485	0.000225	2.252067	0.381510	-0.000023
1571	1.5622e+02	4.3716	6.821155	0.000184	1.842600	0.312145	-0.000018
1572	1.5631e+02	4.3630	6.798751	0.000225	2.252067	0.381510	-0.000023
1573	1.5641e+02	4.3546	6.781642	0.000172	1.719760	0.291335	-0.000017
1574	1.5651e+02	4.3450	6.755980	0.000258	2.579640	0.437003	-0.000026
1575	1.5661e+02	4.3335	6.736835	0.000192	1.924494	0.326018	-0.000019
1576	1.5671e+02	4.3218	6.716875	0.000201	2.006387	0.339891	-0.000020
1577	1.5681e+02	4.3137	6.695693	0.000213	2.129227	0.360701	-0.000021
1578	1.5691e+02	4.3050	6.675733	0.000201	2.006387	0.339891	-0.000020
1579	1.5701e+02	4.2952	6.656588	0.000192	1.924494	0.326018	-0.000019
1580	1.5711e+02	4.2836	6.634184	0.000225	2.252067	0.381510	-0.000023
1581	1.5721e+02	4.2744	6.615854	0.000184	1.842600	0.312145	-0.000018
1582	1.5731e+02	4.2640	6.596302	0.000197	1.965440	0.332955	-0.000020
1583	1.5741e+02	4.2561	6.575934	0.000205	2.047334	0.346828	-0.000020
1584	1.5751e+02	4.2457	6.553938	0.000221	2.211120	0.374574	-0.000022
1585	1.5761e+02	4.2336	6.534386	0.000197	1.965440	0.332955	-0.000020
1586	1.5771e+02	4.2251	6.518092	0.000164	1.637867	0.277462	-0.000016
1587	1.5781e+02	4.2144	6.500169	0.000180	1.801654	0.305208	-0.000018
1588	1.5791e+02	4.2064	6.478172	0.000221	2.211120	0.374574	-0.000022
1589	1.5801e+02	4.1958	6.455768	0.000225	2.252067	0.381510	-0.000023
1590	1.5811e+02	4.1859	6.436216	0.000197	1.965440	0.332955	-0.000020
1591	1.5821e+02	4.1755	6.416256	0.000201	2.006387	0.339891	-0.000020
1592	1.5830e+02	4.1656	6.394667	0.000217	2.170174	0.367637	-0.000022
1593	1.5840e+02	4.1562	6.371449	0.000233	2.333960	0.395384	-0.000023
1594	1.5850e+02	4.1438	6.355970	0.000156	1.555974	0.263589	-0.000016
1595	1.5860e+02	4.1351	6.332751	0.000233	2.333960	0.395384	-0.000023
1596	1.5870e+02	4.1238	6.311569	0.000213	2.129227	0.360701	-0.000021
1597	1.5880e+02	4.1167	6.292424	0.000192	1.924494	0.326018	-0.000019
1598	1.5890e+02	4.1074	6.272464	0.000201	2.006387	0.339891	-0.000020
1599	1.5900e+02	4.0951	6.255763	0.000168	1.678814	0.284399	-0.000017
1600	1.5910e+02	4.0844	6.232952	0.000229	2.293014	0.388447	-0.000023
1601	1.5920e+02	4.0742	6.214622	0.000184	1.842600	0.312145	-0.000018
1602	1.5930e+02	4.0633	6.195069	0.000197	1.965440	0.332955	-0.000020
1603	1.5940e+02	4.0569	6.174702	0.000205	2.047334	0.346828	-0.000020
1604	1.5950e+02	4.0469	6.151076	0.000237	2.374907	0.402320	-0.000024
1605	1.5960e+02	4.0337	6.134375	0.000168	1.678814	0.284399	-0.000017
1606	1.5970e+02	4.0244	6.114008	0.000205	2.047334	0.346828	-0.000020
1607	1.5980e+02	4.0162	6.094863	0.000192	1.924494	0.326018	-0.000019
1608	1.5990e+02	4.0055	6.073681	0.000213	2.129227	0.360701	-0.000021
1609	1.6000e+02	3.9952	6.053314	0.000205	2.047334	0.346828	-0.000020
1610	1.6010e+02	3.9860	6.034984	0.000184	1.842600	0.312145	-0.000018
1611	1.6019e+02	3.9757	6.016246	0.000188	1.883547	0.319081	-0.000019
1612	1.6029e+02	3.9639	5.999137	0.000172	1.719760	0.291335	-0.000017
1613	1.6039e+02	3.9552	5.978363	0.000209	2.088280	0.353764	-0.000021
1614	1.6049e+02	3.9473	5.960847	0.000176	1.760707	0.298272	-0.000018
1615	1.6059e+02	3.9352	5.943331	0.000176	1.760707	0.298272	-0.000018
1616	1.6069e+02	3.9260	5.924186	0.000192	1.924494	0.326018	-0.000019
1617	1.6079e+02	3.9164	5.907078	0.000172	1.719760	0.291335	-0.000017
1618	1.6089e+02	3.9069	5.886711	0.000205	2.047334	0.346828	-0.000020
1619	1.6099e+02	3.8944	5.871639	0.000152	1.515027	0.256653	-0.000015
1620	1.6109e+02	3.8862	5.852494	0.000192	1.924494	0.326018	-0.000019
1621	1.6119e+02	3.8750	5.835386	0.000172	1.719760	0.291335	-0.000017
1622	1.6129e+02	3.8638	5.821129	0.000143	1.433134	0.242779	-0.000014
1623	1.6139e+02	3.8568	5.801169	0.000201	2.006387	0.339891	-0.000020
1624	1.6149e+02	3.8467	5.782431	0.000188	1.883547	0.319081	-0.000019
1625	1.6159e+02	3.8357	5.762471	0.000201	2.006387	0.339891	-0.000020
1626	1.6169e+02	3.8261	5.746992	0.000156	1.555974	0.263589	-0.000016
1627	1.6179e+02	3.8168	5.728255	0.000188	1.883547	0.319081	-0.000019
1628	1.6189e+02	3.8061	5.709517	0.000188	1.883547	0.319081	-0.000019
1629	1.6199e+02	3.7991	5.691594	0.000180	1.801654	0.305208	-0.000018
1630	1.6209e+02	3.7871	5.672856	0.000188	1.883547	0.319081	-0.000019
1631	1.6219e+02	3.7801	5.656155	0.000168	1.678814	0.284399	-0.000017
1632	1.6228e+02	3.7675	5.633751	0.000225	2.252067	0.381510	-0.000023
1633	1.6238e+02	3.7578	5.614199	0.000197	1.965440	0.332955	-0.000020
1634	1.6248e+02	3.7453	5.597498	0.000168	1.678814	0.284399	-0.000017
1635	1.6258e+02	3.7376	5.571428	0.000262	2.620587	0.443939	-0.000026
1636	1.6268e+02	3.7268	5.553912	0.000176	1.760707	0.298272	-0.000018
1637	1.6278e+02	3.7177	5.535174	0.000188	1.883547	0.319081	-0.000019
1638	1.6288e+02	3.7069	5.510326	0.000250	2.497747	0.423130	-0.000025
1639	1.6298e+02	3.6954	5.486700	0.000237	2.374907	0.402320	-0.000024
1640	1.6308e+02	3.6847	5.467148	0.000197	1.965440	0.332955	-0.000020
1641	1.6318e+02	3.6789	5.445559	0.000217	2.170174	0.367637	-0.000022
1642	1.6328e+02	3.6651	5.423155	0.000225	2.252067	0.381510	-0.000023
1643	1.6338e+02	3.6613	5.402381	0.000209	2.088280	0.353764	-0.000021
1644	1.6348e+02	3.6492	5.380791	0.000217	2.170174	0.367637	-0.000022
1645	1.6358e+02	3.6358	5.359202	0.000217	2.170174	0.367637	-0.000022
1646	1.6368e+02	3.6274	5.338428	0.000209	2.088280	0.353764	-0.000021
1647	1.6378e+02	3.6177	5.316431	0.000221	2.211120	0.374574	-0.000022
1648	1.6388e+02	3.6100	5.294435	0.000221	2.211120	0.374574	-0.000022
1649	1.6398e+02	3.5988	5.271216	0.000233	2.333960	0.395384	-0.000023
1650	1.6408e+02	3.5863	5.245961	0.000254	2.538694	0.430066	-0.000025
1651	1.6418e+02	3.5795	5.225594	0.000205	2.047334	0.346828	-0.000020
1652	1.6427e+02	3.5693	5.205227	0.000205	2.047334	0.346828	-0.000020
1653	1.6437e+02	3.5571	5.182416	0.000229	2.293014	0.388447	-0.000023
1654	1.6447e+02	3.5477	5.160012	0.000225	2.252067	0.381510	-0.000023
1655	1.6457e+02	3.5392	5.135979	0.000242	2.415854	0.409257	-0.000024
1656	1.6467e+02	3.5284	5.113982	0.000221	2.211120	0.374574	-0.000022
1657	1.6477e+02	3.5165	5.092393	0.000217	2.170174	0.367637	-0.000022
1658	1.6487e+02	3.5090	5.070396	0.000221	2.211120	0.374574	-0.000022
1659	1.6497e+02	3.4980	5.047178	0.000233	2.333960	0.395384	-0.000023
1660	1.6507e+02	3.4885	5.023959	0.000233	2.333960	0.395384	-0.000023
1661	1.6517e+02	3.4785	5.000741	0.000233	2.333960	0.395384	-0.000023
1662	1.6527e+02	3.4692	4.974264	0.000266	2.661534	0.450876	-0.000027
1663	1.6537e+02	3.4591	4.953896	0.000205	2.047334	0.346828	-0.000020
1664	1.6547e+02	3.4474	4.933529	0.000205	2.047334	0.346828	-0.000020
1665	1.6557e+02	3.4393	4.908274	0.000254	2.538694	0.430066	-0.000025
1666	1.6567e+02	3.4290	4.885463	0.000229	2.293014	0.388447	-0.000023
1667	1.6577e+02	3.4206	4.861022	0.000246	2.456800	0.416193	-0.000025
1668	1.6587e+02	3.4098	4.838211	0.000229	2.293014	0.388447	-0.000023
1669	1.6597e+02	3.3951	4.813771	0.000246	2.456800	0.416193	-0.000025
1670	1.6607e+02	3.3901	4.790959	0.000229	2.293014	0.388447	-0.000023
1671	1.6616e+02	3.3811	4.769778	0.000213	2.129227	0.360701	-0.000021
1672	1.6626e+02	3.3674	4.743300	0.000266	2.661534	0.450876	-0.000027
1673	1.6636e+02	3.3582	4.719267	0.000242	2.415854	0.409257	-0.000024
1674	1.6646e+02	3.3477	4.696863	0.000225	2.252067	0.381510	-0.000023
1675	1.6656e+02	3.3382	4.673645	0.000233	2.333960	0.395384	-0.000023
1676	1.6666e+02	3.3305	4.650019	0.000237	2.374907	0.402320	-0.000024
1677	1.6676e+02	3.3199	4.630874	0.000192	1.924494	0.326018	-0.000019
1678	1.6686e+02	3.3094	4.604804	0.000262	2.620587	0.443939	-0.000026
1679	1.6696e+02	3.2986	4.581178	0.000237	2.374907	0.402320	-0.000024
1680	1.6706e+02	3.2850	4.555923	0.000254	2.538694	0.430066	-0.000025
1681	1.6716e+02	3.2818	4.532297	0.000237	2.374907	0.402320	-0.000024
1682	1.6726e+02	3.2662	4.507856	0.000246	2.456800	0.416193	-0.000025
1683	1.6736e+02	3.2580	4.487082	0.000209	2.088280	0.353764	-0.000021
1684	1.6746e+02	3.2458	4.460197	0.000270	2.702480	0.457813	-0.000027
1685	1.6756e+02	3.2384	4.436164	0.000242	2.415854	0.409257	-0.000024
1686	1.6766e+02	3.2299	4.413353	0.000229	2.293014	0.388447	-0.000023
1687	1.6776e+02	3.2183	4.390134	0.000233	2.333960	0.395384	-0.000023
1688	1.6786e+02	3.2093	4.367323	0.000229	2.293014	0.388447	-0.000023
1689	1.6796e+02	3.2007	4.348585	0.000188	1.883547	0.319081	-0.000019
1690	1.6806e+02	3.1891	4.321293	0.000274	2.743427	0.464749	-0.000027
1691	1.6816e+02	3.1803	4.297260	0.000242	2.415854	0.409257	-0.000024
1692	1.6825e+02	3.1686	4.270783	0.000266	2.661534	0.450876	-0.000027
1693	1.6835e+02	3.1590	4.248379	0.000225	2.252067	0.381510	-0.000023
1694	1.6845e+02	3.1484	4.221902	0.000266	2.661534	0.450876	-0.000027
1695	1.6855e+02	3.1400	4.197054	0.000250	2.497747	0.423130	-0.000025
1696	1.6865e+02	3.1319	4.173021	0.000242	2.415854	0.409257	-0.000024
1697	1.6875e+02	3.1236	4.144507	0.000287	2.866267	0.485559	-0.000029
1698	1.6885e+02	3.1081	4.119252	0.000254	2.538694	0.430066	-0.000025
1699	1.6895e+02	3.1002	4.093996	0.000254	2.538694	0.430066	-0.000025
1700	1.6905e+02	3.0891	4.065075	0.000291	2.907214	0.492495	-0.000029
1701	1.6915e+02	3.0813	4.043486	0.000217	2.170174	0.367637	-0.000022
1702	1.6925e+02	3.0671	4.015379	0.000283	2.825320	0.478622	-0.000028
1703	1.6935e+02	3.0651	3.986865	0.000287	2.866267	0.485559	-0.000029
1704	1.6945e+02	3.0492	3.960795	0.000262	2.620587	0.443939	-0.000026
1705	1.6955e+02	3.0405	3.936355	0.000246	2.456800	0.416193	-0.000025
1706	1.6965e+02	3.0318	3.907026	0.000295	2.948160	0.499432	-0.000029
1707	1.6975e+02	3.0210	3.881364	0.000258	2.579640	0.437003	-0.000026
1708	1.6985e+02	3.0112	3.856108	0.000254	2.538694	0.430066	-0.000025
1709	1.6995e+02	3.0004	3.830038	0.000262	2.620587	0.443939	-0.000026
1710	1.7005e+02	2.9906	3.802339	0.000278	2.784374	0.471686	-0.000028
1711	1.7015e+02	2.9789	3.777491	0.000250	2.497747	0.423130	-0.000025
1712	1.7024e+02	2.9693	3.749385	0.000283	2.825320	0.478622	-0.000028
1713	1.7034e+02	2.9620	3.724944	0.000246	2.456800	0.416193	-0.000025
1714	1.7044e+02	2.9482	3.695208	0.000299	2.989107	0.506368	-0.000030
1715	1.7054e+02	2.9404	3.674026	0.000213	2.129227	0.360701	-0.000021
1716	1.7064e+02	2.9301	3.651622	0.000225	2.252067	0.381510	-0.000023
1717	1.7074e+02	2.9239	3.623108	0.000287	2.866267	0.485559	-0.000029
1718	1.7084e+02	2.9138	3.599075	0.000242	2.415854	0.409257	-0.000024
1719	1.7094e+02	2.8964	3.576264	0.000229	2.293014	0.388447	-0.000023
1720	1.7104e+02	2.8918	3.555489	0.000209	2.088280	0.353764	-0.000021
1721	1.7114e+02	2.8846	3.528605	0.000270	2.702480	0.457813	-0.000027
1722	1.7124e+02	2.8710	3.506201	0.000225	2.252067	0.381510	-0.000023
1723	1.7134e+02	2.8609	3.484205	0.000221	2.211120	0.374574	-0.000022
1724	1.7144e+02	2.8512	3.461801	0.000225	2.252067	0.381510	-0.000023
1725	1.7154e+02	2.8409	3.437360	0.000246	2.456800	0.416193	-0.000025
1726	1.7164e+02	2.8321	3.412920	0.000246	2.456800	0.416193	-0.000025
1727	1.7174e+02	2.8229	3.392145	0.000209	2.088280	0.353764	-0.000021
1728	1.7184e+02	2.8151	3.367297	0.000250	2.497747	0.423130	-0.000025
1729	1.7194e+02	2.8000	3.346115	0.000213	2.129227	0.360701	-0.000021
1730	1.7204e+02	2.7896	3.322897	0.000233	2.333960	0.395384	-0.000023
1731	1.7213e+02	2.7816	3.298456	0.000246	2.456800	0.416193	-0.000025
1732	1.7223e+02	2.7715	3.276867	0.000217	2.170174	0.367637	-0.000022
1733	1.7233e+02	2.7608	3.253649	0.000233	2.333960	0.395384	-0.000023
1734	1.7243e+02	2.7515	3.227986	0.000258	2.579640	0.437003	-0.000026
1735	1.7253e+02	2.7422	3.207212	0.000209	2.088280	0.353764	-0.000021
1736	1.7263e+02	2.7318	3.185215	0.000221	2.211120	0.374574	-0.000022
1737	1.7273e+02	2.7172	3.162404	0.000229	2.293014	0.388447	-0.000023
1738	1.7283e+02	2.7135	3.137963	0.000246	2.456800	0.416193	-0.000025
1739	1.7293e+02	2.7026	3.117189	0.000209	2.088280	0.353764	-0.000021
1740	1.7303e+02	2.6903	3.093563	0.000237	2.374907	0.402320	-0.000024
1741	1.7313e+02	2.6821	3.073603	0.000201	2.006387	0.339891	-0.000020
1742	1.7323e+02	2.6702	3.046719	0.000270	2.702480	0.457813	-0.000027
1743	1.7333e+02	2.6637	3.027166	0.000197	1.965440	0.332955	-0.000020
1744	1.7343e+02	2.6525	3.003948	0.000233	2.333960	0.395384	-0.000023
1745	1.7353e+02	2.6432	2.982358	0.000217	2.170174	0.367637	-0.000022
1746	1.7363e+02	2.6331	2.959140	0.000233	2.333960	0.395384	-0.000023
1747	1.7373e+02	2.6242	2.937143	0.000221	2.211120	0.374574	-0.000022
1748	1.7383e+02	2.6116	2.913110	0.000242	2.415854	0.409257	-0.000024
1749	1.7393e+02	2.6015	2.895595	0.000176	1.760707	0.298272	-0.000018
1750	1.7403e+02	2.5952	2.870747	0.000250	2.497747	0.423130	-0.000025
1751	1.7413e+02	2.5826	2.847528	0.000233	2.333960	0.395384	-0.000023
1752	1.7422e+02	2.5737	2.827568	0.000201	2.006387	0.339891	-0.000020
1753	1.7432e+02	2.5634	2.807609	0.000201	2.006387	0.339891	-0.000020
1754	1.7442e+02	2.5529	2.786834	0.000209	2.088280	0.353764	-0.000021
1755	1.7452e+02	2.5439	2.763208	0.000237	2.374907	0.402320	-0.000024
1756	1.7462e+02	2.5324	2.741212	0.000221	2.211120	0.374574	-0.000022
1757	1.7472e+02	2.5228	2.720845	0.000205	2.047334	0.346828	-0.000020
1758	1.7482e+02	2.5140	2.698441	0.000225	2.252067	0.381510	-0.000023
1759	1.7492e+02	2.5029	2.673593	0.000250	2.497747	0.423130	-0.000025
1760	1.7502e+02	2.4898	2.655262	0.000184	1.842600	0.312145	-0.000018
1761	1.7512e+02	2.4842	2.632044	0.000233	2.333960	0.395384	-0.000023
1762	1.7522e+02	2.4739	2.609640	0.000225	2.252067	0.381510	-0.000023
1763	1.7532e+02	2.4651	2.589273	0.000205	2.047334	0.346828	-0.000020
1764	1.7542e+02	2.4544	2.568906	0.000205	2.047334	0.346828	-0.000020
1765	1.7552e+02	2.4448	2.544465	0.000246	2.456800	0.416193	-0.000025
1766	1.7562e+02	2.4345	2.522469	0.000221	2.211120	0.374574	-0.000022
1767	1.7572e+02	2.4230	2.498028	0.000246	2.456800	0.416193	-0.000025
1768	1.7582e+02	2.4132	2.476846	0.000213	2.129227	0.360701	-0.000021
1769	1.7592e+02	2.4026	2.456479	0.000205	2.047334	0.346828	-0.000020
1770	1.7602e+02	2.3928	2.434890	0.000217	2.170174	0.367637	-0.000022
1771	1.7612e+02	2.3844	2.408413	0.000266	2.661534	0.450876	-0.000027
1772	1.7621e+02	2.3755	2.387231	0.000213	2.129227	0.360701	-0.000021
1773	1.7631e+02	2.3612	2.363605	0.000237	2.374907	0.402320	-0.000024
1774	1.7641e+02	2.3521	2.344867	0.000188	1.883547	0.319081	-0.000019
1775	1.7651e+02	2.3436	2.325722	0.000192	1.924494	0.326018	-0.000019
1776	1.7661e+02	2.3335	2.297208	0.000287	2.866267	0.485559	-0.000029
1777	1.7671e+02	2.3212	2.278878	0.000184	1.842600	0.312145	-0.000018
1778	1.7681e+02	2.3115	2.257289	0.000217	2.170174	0.367637	-0.000022
1779	1.7691e+02	2.3055	2.236922	0.000205	2.047334	0.346828	-0.000020
1780	1.7701e+02	2.2937	2.219406	0.000176	1.760707	0.298272	-0.000018
1781	1.7711e+02	2.2854	2.199039	0.000205	2.047334	0.346828	-0.000020
1782	1.7721e+02	2.2754	2.176228	0.000229	2.293014	0.388447	-0.000023
1783	1.7731e+02	2.2688	2.156675	0.000197	1.965440	0.332955	-0.000020
1784	1.7741e+02	2.2530	2.139567	0.000172	1.719760	0.291335	-0.000017
1785	1.7751e+02	2.2442	2.115534	0.000242	2.415854	0.409257	-0.000024
1786	1.7761e+02	2.2337	2.097610	0.000180	1.801654	0.305208	-0.000018
1787	1.7771e+02	2.2247	2.076429	0.000213	2.129227	0.360701	-0.000021
1788	1.7781e+02	2.2129	2.056469	0.000201	2.006387	0.339891	-0.000020
1789	1.7791e+02	2.2054	2.035694	0.000209	2.088280	0.353764	-0.000021
1790	1.7801e+02	2.1965	2.019401	0.000164	1.637867	0.277462	-0.000016
1791	1.7810e+02	2.1847	1.998219	0.000213	2.129227	0.360701	-0.000021
1792	1.7820e+02	2.1717	1.977444	0.000209	2.088280	0.353764	-0.000021
1793	1.7830e+02	2.1651	1.959929	0.000176	1.760707	0.298272	-0.000018
1794	1.7840e+02	2.1549	1.940376	0.000197	1.965440	0.332955	-0.000020
1795	1.7850e+02	2.1435	1.919194	0.000213	2.129227	0.360701	-0.000021
1796	1.7860e+02	2.1361	1.901271	0.000180	1.801654	0.305208	-0.000018
1797	1.7870e+02	2.1260	1.878460	0.000229	2.293014	0.388447	-0.000023
1798	1.7880e+02	2.1142	1.858093	0.000205	2.047334	0.346828	-0.000020
1799	1.7890e+02	2.1037	1.835282	0.000229	2.293014	0.388447	-0.000023
1800	1.7900e+02	2.0946	1.811656	0.000237	2.374907	0.402320	-0.000024
1801	1.7910e+02	2.0842	1.794955	0.000168	1.678814	0.284399	-0.000017
1802	1.7920e+02	2.0747	1.766848	0.000283	2.825320	0.478622	-0.000028
1803	1.7930e+02	2.0659	1.746074	0.000209	2.088280	0.353764	-0.000021
1804	1.7940e+02	2.0545	1.722855	0.000233	2.333960	0.395384	-0.000023
1805	1.7950e+02	2.0460	1.702081	0.000209	2.088280	0.353764	-0.000021
1806	1.7960e+02	2.0339	1.677233	0.000250	2.497747	0.423130	-0.000025
1807	1.7970e+02	2.0264	1.651570	0.000258	2.579640	0.437003	-0.000026
1808	1.7980e+02	2.0152	1.631203	0.000205	2.047334	0.346828	-0.000020
1809	1.7990e+02	2.0055	1.605948	0.000254	2.538694	0.430066	-0.000025
1810	1.8000e+02	1.9964	1.578656	0.000274	2.743427	0.464749	-0.000027
1811	1.8009e+02	1.9849	1.557882	0.000209	2.088280	0.353764	-0.000021
1812	1.8019e+02	1.9755	1.534663	0.000233	2.333960	0.395384	-0.000023
1813	1.8029e+02	1.9637	1.510630	0.000242	2.415854	0.409257	-0.000024
1814	1.8039e+02	1.9556	1.490263	0.000205	2.047334	0.346828	-0.000020
1815	1.8049e+02	1.9463	1.464600	0.000258	2.579640	0.437003	-0.000026
1816	1.8059e+02	1.9373	1.441382	0.000233	2.333960	0.395384	-0.000023
1817	1.8069e+02	1.9283	1.414904	0.000266	2.661534	0.450876	-0.000027
1818	1.8079e+02	1.9138	1.388427	0.000266	2.661534	0.450876	-0.000027
1819	1.8089e+02	1.9077	1.364801	0.000237	2.374907	0.402320	-0.000024
1820	1.8099e+02	1.8948	1.341583	0.000233	2.333960	0.395384	-0.000023
1821	1.8109e+02	1.8877	1.315105	0.000266	2.661534	0.450876	-0.000027
1822	1.8119e+02	1.8768	1.293109	0.000221	2.211120	0.374574	-0.000022
1823	1.8129e+02	1.8655	1.266224	0.000270	2.702480	0.457813	-0.000027
1824	1.8139e+02	1.8552	1.243413	0.000229	2.293014	0.388447	-0.000023
1825	1.8149e+02	1.8461	1.218973	0.000246	2.456800	0.416193	-0.000025
1826	1.8159e+02	1.8359	1.194939	0.000242	2.415854	0.409257	-0.000024
1827	1.8169e+02	1.8266	1.168869	0.000262	2.620587	0.443939	-0.000026
1828	1.8179e+02	1.8151	1.145244	0.000237	2.374907	0.402320	-0.000024
1829	1.8189e+02	1.8066	1.122025	0.000233	2.333960	0.395384	-0.000023
1830	1.8199e+02	1.7980	1.093918	0.000283	2.825320	0.478622	-0.000028
1831	1.8209e+02	1.7858	1.071515	0.000225	2.252067	0.381510	-0.000023
1832	1.8218e+02	1.7747	1.043408	0.000283	2.825320	0.478622	-0.000028
1833	1.8228e+02	1.7672	1.018153	0.000254	2.538694	0.430066	-0.000025
1834	1.8238e+02	1.7614	0.994119	0.000242	2.415854	0.409257	-0.000024
1835	1.8248e+02	1.7495	0.968050	0.000262	2.620587	0.443939	-0.000026
1836	1.8258e+02	1.7349	0.942387	0.000258	2.579640	0.437003	-0.000026
1837	1.8268e+02	1.7270	0.915910	0.000266	2.661534	0.450876	-0.000027
1838	1.8278e+02	1.7144	0.891062	0.000250	2.497747	0.423130	-0.000025
1839	1.8288e+02	1.7080	0.864585	0.000266	2.661534	0.450876	-0.000027
1840	1.8298e+02	1.6973	0.842181	0.000225	2.252067	0.381510	-0.000023
1841	1.8308e+02	1.6869	0.816518	0.000258	2.579640	0.437003	-0.000026
1842	1.8318e+02	1.6768	0.791670	0.000250	2.497747	0.423130	-0.000025
1843	1.8328e+02	1.6683	0.763971	0.000278	2.784374	0.471686	-0.000028
1844	1.8338e+02	1.6556	0.741160	0.000229	2.293014	0.388447	-0.000023
1845	1.8348e+02	1.6489	0.715090	0.000262	2.620587	0.443939	-0.000026
1846	1.8358e+02	1.6354	0.688205	0.000270	2.702480	0.457813	-0.000027
1847	1.8368e+02	1.6269	0.663765	0.000246	2.456800	0.416193	-0.000025
1848	1.8378e+02	1.6185	0.634436	0.000295	2.948160	0.499432	-0.000029
1849	1.8388e+02	1.6070	0.612847	0.000217	2.170174	0.367637	-0.000022
1850	1.8398e+02	1.5977	0.583518	0.000295	2.948160	0.499432	-0.000029
1851	1.8407e+02	1.5885	0.561114	0.000225	2.252067	0.381510	-0.000023
1852	1.8417e+02	1.5785	0.532193	0.000291	2.907214	0.492495	-0.000029
1853	1.8427e+02	1.5673	0.508160	0.000242	2.415854	0.409257	-0.000024
1854	1.8437e+02	1.5547	0.485756	0.000225	2.252067	0.381510	-0.000023
1855	1.8447e+02	1.5476	0.457649	0.000283	2.825320	0.478622	-0.000028
1856	1.8457e+02	1.5417	0.434023	0.000237	2.374907	0.402320	-0.000024
1857	1.8467e+02	1.5289	0.409583	0.000246	2.456800	0.416193	-0.000025
1858	1.8477e+02	1.5162	0.381884	0.000278	2.784374	0.471686	-0.000028
1859	1.8487e+02	1.5057	0.356221	0.000258	2.579640	0.437003	-0.000026
1860	1.8497e+02	1.4957	0.331781	0.000246	2.456800	0.416193	-0.000025
1861	1.8507e+02	1.4867	0.301637	0.000303	3.030054	0.513305	-0.000030
1862	1.8517e+02	1.4799	0.275160	0.000266	2.661534	0.450876	-0.000027
1863	1.8527e+02	1.4654	0.247461	0.000278	2.784374	0.471686	-0.000028
1864	1.8537e+02	1.4561	0.217725	0.000299	2.989107	0.506368	-0.000030
1865	1.8547e+02	1.4471	0.189618	0.000283	2.825320	0.478622	-0.000028
1866	1.8557e+02	1.4382	0.160289	0.000295	2.948160	0.499432	-0.000029
1867	1.8567e+02	1.4297	0.135034	0.000254	2.538694	0.430066	-0.000025
1868	1.8577e+02	1.4203	0.104076	0.000311	3.111947	0.527178	-0.000031
1869	1.8587e+02	1.4084	0.077599	0.000266	2.661534	0.450876	-0.000027
1870	1.8597e+02	1.4026	0.048270	0.000295	2.948160	0.499432	-0.000029
1871	1.8606e+02	1.3889	0.018127	0.000303	3.030054	0.513305	-0.000030
1872	1.8616e+02	1.3755	-0.009980	0.000283	2.825320	0.478622	-0.000028
1873	1.8626e+02	1.3659	-0.038494	0.000287	2.866267	0.485559	-0.000029
1874	1.8636e+02	1.3581	-0.063342	0.000250	2.497747	0.423130	-0.000025
1875	1.8646e+02	1.3500	-0.095114	0.000319	3.193841	0.541051	-0.000032
1876	1.8656e+02	1.3370	-0.119962	0.000250	2.497747	0.423130	-0.000025
1877	1.8666e+02	1.3302	-0.150106	0.000303	3.030054	0.513305	-0.000030
1878	1.8676e+02	1.3171	-0.180249	0.000303	3.030054	0.513305	-0.000030
1879	1.8686e+02	1.3079	-0.212022	0.000319	3.193841	0.541051	-0.000032
1880	1.8696e+02	1.2973	-0.238499	0.000266	2.661534	0.450876	-0.000027
1881	1.8706e+02	1.2885	-0.263347	0.000250	2.497747	0.423130	-0.000025
1882	1.8716e+02	1.2768	-0.292676	0.000295	2.948160	0.499432	-0.000029
1883	1.8726e+02	1.2684	-0.319153	0.000266	2.661534	0.450876	-0.000027
1884	1.8736e+02	1.2579	-0.344408	0.000254	2.538694	0.430066	-0.000025
1885	1.8746e+02	1.2515	-0.368849	0.000246	2.456800	0.416193	-0.000025
1886	1.8756e+02	1.2399	-0.396548	0.000278	2.784374	0.471686	-0.000028
1887	1.8766e+02	1.2325	-0.417730	0.000213	2.129227	0.360701	-0.000021
1888	1.8776e+02	1.2208	-0.445022	0.000274	2.743427	0.464749	-0.000027
1889	1.8786e+02	1.2098	-0.472721	0.000278	2.784374	0.471686	-0.000028
1890	1.8796e+02	1.1981	-0.497976	0.000254	2.538694	0.430066	-0.000025
1891	1.8806e+02	1.1884	-0.521195	0.000233	2.333960	0.395384	-0.000023
1892	1.8815e+02	1.1802	-0.547672	0.000266	2.661534	0.450876	-0.000027
1893	1.8825e+02	1.1695	-0.571298	0.000237	2.374907	0.402320	-0.000024
1894	1.8835e+02	1.1575	-0.600627	0.000295	2.948160	0.499432	-0.000029
1895	1.8845e+02	1.1499	-0.620994	0.000205	2.047334	0.346828	-0.000020
1896	1.8855e+02	1.1413	-0.646656	0.000258	2.579640	0.437003	-0.000026
1897	1.8865e+02	1.1322	-0.672726	0.000262	2.620587	0.443939	-0.000026
1898	1.8875e+02	1.1194	-0.696759	0.000242	2.415854	0.409257	-0.000024
1899	1.8885e+02	1.1107	-0.721200	0.000246	2.456800	0.416193	-0.000025
1900	1.8895e+02	1.1003	-0.747270	0.000262	2.620587	0.443939	-0.000026
1901	1.8905e+02	1.0925	-0.773747	0.000266	2.661534	0.450876	-0.000027
1902	1.8915e+02	1.0802	-0.796558	0.000229	2.293014	0.388447	-0.000023
1903	1.8925e+02	1.0701	-0.820184	0.000237	2.374907	0.402320	-0.000024
1904	1.8935e+02	1.0606	-0.846661	0.000266	2.661534	0.450876	-0.000027
1905	1.8945e+02	1.0485	-0.871509	0.000250	2.497747	0.423130	-0.000025
1906	1.8955e+02	1.0390	-0.895135	0.000237	2.374907	0.402320	-0.000024
1907	1.8965e+02	1.0311	-0.919576	0.000246	2.456800	0.416193	-0.000025
1908	1.8975e+02	1.0197	-0.944831	0.000254	2.538694	0.430066	-0.000025
1909	1.8985e+02	1.0120	-0.971308	0.000266	2.661534	0.450876	-0.000027
1910	1.8995e+02	1.0004	-0.995749	0.000246	2.456800	0.416193	-0.000025
1911	1.9004e+02	0.9903	-1.018560	0.000229	2.293014	0.388447	-0.000023
1912	1.9014e+02	0.9761	-1.042593	0.000242	2.415854	0.409257	-0.000024
1913	1.9024e+02	0.9704	-1.068256	0.000258	2.579640	0.437003	-0.000026
1914	1.9034e+02	0.9631	-1.095140	0.000270	2.702480	0.457813	-0.000027
1915	1.9044e+02	0.9508	-1.117544	0.000225	2.252067	0.381510	-0.000023
1916	1.9054e+02	0.9416	-1.140763	0.000233	2.333960	0.395384	-0.000023
1917	1.9064e+02	0.9294	-1.163574	0.000229	2.293014	0.388447	-0.000023
1918	1.9074e+02	0.9214	-1.189644	0.000262	2.620587	0.443939	-0.000026
1919	1.9084e+02	0.9101	-1.210826	0.000213	2.129227	0.360701	-0.000021
1920	1.9094e+02	0.9000	-1.234859	0.000242	2.415854	0.409257	-0.000024
1921	1.9104e+02	0.8904	-1.260929	0.000262	2.620587	0.443939	-0.000026
1922	1.9114e+02	0.8810	-1.279667	0.000188	1.883547	0.319081	-0.000019
1923	1.9124e+02	0.8704	-1.308995	0.000295	2.948160	0.499432	-0.000029
1924	1.9134e+02	0.8597	-1.330584	0.000217	2.170174	0.367637	-0.000022
1925	1.9144e+02	0.8543	-1.356654	0.000262	2.620587	0.443939	-0.000026
1926	1.9154e+02	0.8392	-1.377429	0.000209	2.088280	0.353764	-0.000021
1927	1.9164e+02	0.8308	-1.405535	0.000283	2.825320	0.478622	-0.000028
1928	1.9174e+02	0.8196	-1.430791	0.000254	2.538694	0.430066	-0.000025
1929	1.9184e+02	0.8108	-1.451565	0.000209	2.088280	0.353764	-0.000021
1930	1.9194e+02	0.8017	-1.476413	0.000250	2.497747	0.423130	-0.000025
1931	1.9203e+02	0.7900	-1.499632	0.000233	2.333960	0.395384	-0.000023
1932	1.9213e+02	0.7829	-1.523665	0.000242	2.415854	0.409257	-0.000024
1933	1.9223e+02	0.7716	-1.548513	0.000250	2.497747	0.423130	-0.000025
1934	1.9233e+02	0.7613	-1.572953	0.000246	2.456800	0.416193	-0.000025
1935	1.9243e+02	0.7540	-1.599838	0.000270	2.702480	0.457813	-0.000027
1936	1.9253e+02	0.7427	-1.618576	0.000188	1.883547	0.319081	-0.000019
1937	1.9263e+02	0.7322	-1.645868	0.000274	2.743427	0.464749	-0.000027
1938	1.9273e+02	0.7226	-1.666642	0.000209	2.088280	0.353764	-0.000021
1939	1.9283e+02	0.7132	-1.689861	0.000233	2.333960	0.395384	-0.000023
1940	1.9293e+02	0.7025	-1.718375	0.000287	2.866267	0.485559	-0.000029
1941	1.9303e+02	0.6934	-1.742000	0.000237	2.374907	0.402320	-0.000024
1942	1.9313e+02	0.6836	-1.767256	0.000254	2.538694	0.430066	-0.000025
1943	1.9323e+02	0.6714	-1.792511	0.000254	2.538694	0.430066	-0.000025
1944	1.9333e+02	0.6617	-1.812878	0.000205	2.047334	0.346828	-0.000020
1945	1.9343e+02	0.6503	-1.836097	0.000233	2.333960	0.395384	-0.000023
1946	1.9353e+02	0.6455	-1.857278	0.000213	2.129227	0.360701	-0.000021
1947	1.9363e+02	0.6313	-1.880497	0.000233	2.333960	0.395384	-0.000023
1948	1.9373e+02	0.6237	-1.901679	0.000213	2.129227	0.360701	-0.000021
1949	1.9383e+02	0.6097	-1.924083	0.000225	2.252067	0.381510	-0.000023
1950	1.9393e+02	0.6014	-1.948930	0.000250	2.497747	0.423130	-0.000025
1951	1.9403e+02	0.5933	-1.968890	0.000201	2.006387	0.339891	-0.000020
1952	1.9412e+02	0.5811	-1.992516	0.000237	2.374907	0.402320	-0.000024
1953	1.9422e+02	0.5687	-2.011254	0.000188	1.883547	0.319081	-0.000019
1954	1.9432e+02	0.5633	-2.036916	0.000258	2.579640	0.437003	-0.000026
1955	1.9442e+02	0.5543	-2.057691	0.000209	2.088280	0.353764	-0.000021
1956	1.9452e+02	0.5449	-2.078873	0.000213	2.129227	0.360701	-0.000021
1957	1.9462e+02	0.5310	-2.099647	0.000209	2.088280	0.353764	-0.000021
1958	1.9472e+02	0.5222	-2.123273	0.000237	2.374907	0.402320	-0.000024
1959	1.9482e+02	0.5131	-2.142418	0.000192	1.924494	0.326018	-0.000019
1960	1.9492e+02	0.5010	-2.162378	0.000201	2.006387	0.339891	-0.000020
1961	1.9502e+02	0.4929	-2.186818	0.000246	2.456800	0.416193	-0.000025
1962	1.9512e+02	0.4837	-2.208408	0.000217	2.170174	0.367637	-0.000022
1963	1.9522e+02	0.4744	-2.226331	0.000180	1.801654	0.305208	-0.000018
1964	1.9532e+02	0.4649	-2.254845	0.000287	2.866267	0.485559	-0.000029
1965	1.9542e+02	0.4533	-2.275619	0.000209	2.088280	0.353764	-0.000021
1966	1.9552e+02	0.4435	-2.300467	0.000250	2.497747	0.423130	-0.000025
1967	1.9562e+02	0.4338	-2.324908	0.000246	2.456800	0.416193	-0.000025
1968	1.9572e+02	0.4230	-2.349348	0.000246	2.456800	0.416193	-0.000025
1969	1.9582e+02	0.4128	-2.368901	0.000197	1.965440	0.332955	-0.000020
1970	1.9592e+02	0.4025	-2.395785	0.000270	2.702480	0.457813	-0.000027
1971	1.9601e+02	0.3964	-2.421040	0.000254	2.538694	0.430066	-0.000025
1972	1.9611e+02	0.3839	-2.446296	0.000254	2.538694	0.430066	-0.000025
1973	1.9621e+02	0.3741	-2.472366	0.000262	2.620587	0.443939	-0.000026
1974	1.9631e+02	0.3652	-2.495991	0.000237	2.374907	0.402320	-0.000024
1975	1.9641e+02	0.3551	-2.520432	0.000246	2.456800	0.416193	-0.000025
1976	1.9651e+02	0.3442	-2.550168	0.000299	2.989107	0.506368	-0.000030
1977	1.9661e+02	0.3364	-2.571757	0.000217	2.170174	0.367637	-0.000022
1978	1.9671e+02	0.3231	-2.601086	0.000295	2.948160	0.499432	-0.000029
1979	1.9681e+02	0.3122	-2.629192	0.000283	2.825320	0.478622	-0.000028
1980	1.9691e+02	0.3048	-2.649967	0.000209	2.088280	0.353764	-0.000021
1981	1.9701e+02	0.2944	-2.675630	0.000258	2.579640	0.437003	-0.000026
1982	1.9711e+02	0.2831	-2.705773	0.000303	3.030054	0.513305	-0.000030
1983	1.9721e+02	0.2708	-2.731028	0.000254	2.538694	0.430066	-0.000025
1984	1.9731e+02	0.2642	-2.751803	0.000209	2.088280	0.353764	-0.000021
1985	1.9741e+02	0.2535	-2.781131	0.000295	2.948160	0.499432	-0.000029
1986	1.9751e+02	0.2430	-2.805979	0.000250	2.497747	0.423130	-0.000025
1987	1.9761e+02	0.2354	-2.831234	0.000254	2.538694	0.430066	-0.000025
1988	1.9771e+02	0.2240	-2.858119	0.000270	2.702480	0.457813	-0.000027
1989	1.9781e+02	0.2129	-2.886633	0.000287	2.866267	0.485559	-0.000029
1990	1.9791e+02	0.2029	-2.913925	0.000274	2.743427	0.464749	-0.000027
1991	1.9800e+02	0.1932	-2.938773	0.000250	2.497747	0.423130	-0.000025
1992	1.9810e+02	0.1850	-2.966472	0.000278	2.784374	0.471686	-0.000028
1993	1.9820e+02	0.1732	-2.990505	0.000242	2.415854	0.409257	-0.000024
1994	1.9830e+02	0.1622	-3.019427	0.000291	2.907214	0.492495	-0.000029
1995	1.9840e+02	0.1582	-3.045089	0.000258	2.579640	0.437003	-0.000026
1996	1.9850e+02	0.1411	-3.074825	0.000299	2.989107	0.506368	-0.000030
1997	1.9860e+02	0.1332	-3.098451	0.000237	2.374907	0.402320	-0.000024
1998	1.9870e+02	0.1247	-3.128187	0.000299	2.989107	0.506368	-0.000030
1999	1.9880e+02	0.1147	-3.152220	0.000242	2.415854	0.409257	-0.000024
2000	1.9890e+02	0.1051	-3.179105	0.000270	2.702480	0.457813	-0.000027
2001	1.9900e+02	0.0960	-3.207619	0.000287	2.866267	0.485559	-0.000029
2002	1.9910e+02	0.0852	-3.233689	0.000262	2.620587	0.443939	-0.000026
2003	1.9920e+02	0.0761	-3.265054	0.000315	3.152894	0.534115	-0.000032
2004	1.9930e+02	0.0656	-3.289902	0.000250	2.497747	0.423130	-0.000025
2005	1.9940e+02	0.0548	-3.319231	0.000295	2.948160	0.499432	-0.000029
2006	1.9950e+02	0.0466	-3.345301	0.000262	2.620587	0.443939	-0.000026
2007	1.9960e+02	0.0369	-3.373000	0.000278	2.784374	0.471686	-0.000028
2008	1.9970e+02	0.0250	-3.403551	0.000307	3.071001	0.520242	-0.000031
2009	1.9980e+02	0.0145	-3.427991	0.000246	2.456800	0.416193	-0.000025
2010	1.9990e+02	0.0041	-3.456505	0.000287	2.866267	0.485559	-0.000029
2011	2.0000e+02	-0.0009	-3.481760	0.000287	2.866267	0.485559	-0.000025

PMax (uC/cm2):	2.87e+01
Pr (uC/cm2):	1.14e+01
-Pr (uC/cm2):	0.00e+00
PLoss (uC/cm2):	0.00e+00
C (Max-Eff) (nF):	2.87e-01
K (Eff):	4.86e+02
Vert. (+/-Pr) Shift (uC/cm2):	5.70e+00
Offset (uC/cm2):	1.49e+01

A (Loop Area - uC/cm2·Volts):	-9.23e-02



Hysteresis Version: 5.48.1 - Radiant Technologies, Inc., 1999 - 9/12/24

