»»»»»»»»»»»»»»»»»»»»»»»»»»»»»»»»»»»» Hysteresis ««««««««««««««««««««««««««««««««««««
»»»  Executed Version:	5.48.1
»»»  Vision Version:	5.48.4 (R)
»»»  Vision Compiled:	9/18/24
»»»  Driver Version:	5.47.0
»»»  Windows Version:	Windows 8 or 8.1
»»»  Processor Information:	x86 (AMD or Intel) - 32 Processors
»»»  Tester Name:	PMF21124-494 (100V)
»»»  Tester S/N:	PMF21124-494
»»»  Internal Amp Type:	100V RevK 270k
»»»  Internal Amp S/N:	iAB2-596/K     
»»»  Execution Count:	1
»»»»»»»»»»»»»»»»»»»»»»»»»»»»»»»»»»»»»»»»»»««««««««««««««««««««««««««««««««««««««««««

Stored:	6/26/2025 - 15:41:26
Configured:	06/26/25 10:24:47 AM
Executed:	06/26/25 03:40:54 PM

»»»»»»»»»»»»»»»»»»»»»»»»»»»»»»»»»»» Sample Info ««««««««««««««««««««««««««««««««««««
Sample Name:	
Lot Name:	
Wafer Name:	
Die Row/Column:	0/0
Capacitor Number:	0
Sample Area (cm2):	1.00e-04
Sample Thickness (microns):	1.50e-01

Amplifier:	Internal

»»»»»»»»»»»»»»»»»»»»»»»»»»»»»»»»»»» Tester Info «««««««««««««««««««««««««««««««««««
Tester Name:	PMF21124-494 (100V)
Tester Serial Number:	PMF21124-494
Return Signal Amp. Level:	1.9 [Index: 2]

»»»»»»»»»»»»»»»»»»»»»»»»»»»»»»»» Hysteresis Info ««««««««««««««««««««««««««««««««««
Task Name:	Hyst-562
Volts:	10.00
Field:	666.67 (kV/cm)
DCBias:	0.00
DCField:	0.00 (kV/cm)
Hysteresis Period (ms):	2.00e+02
Preset:	Enabled
Preset Delay (ms):	1.00e+03
Profile:	Standard Monopolar

»»»»»»»»»»»»»»»»»»»»»»»»»»»»»»»»»»»»»» Data «««««««««««««««««««««««««««««««««««««««
Points:	2011

Valid Data

Point	Time (ms)	Drive Voltage	Measured Polarization (uC/cm2)	Capacitance (uF)	Normalized Capacitance (uF/cm2)	Dielectric Constant	Instantaneous Current (mA)
   1	0.0000e+00	-0.0040	-15.962940	0.000262	2.621387	0.444075	0.000026
   2	9.9500e-02	0.0053	-15.936870	0.000262	2.621387	0.444075	0.000026
   3	1.9900e-01	0.0164	-15.912022	0.000250	2.498510	0.423259	0.000025
   4	2.9850e-01	0.0253	-15.883508	0.000287	2.867142	0.485707	0.000029
   5	3.9800e-01	0.0348	-15.858660	0.000250	2.498510	0.423259	0.000025
   6	4.9750e-01	0.0452	-15.831368	0.000274	2.744265	0.464891	0.000027
   7	5.9700e-01	0.0552	-15.806928	0.000246	2.457551	0.416320	0.000025
   8	6.9650e-01	0.0664	-15.778821	0.000283	2.826183	0.478768	0.000028
   9	7.9600e-01	0.0751	-15.750714	0.000283	2.826183	0.478768	0.000028
  10	8.9550e-01	0.0815	-15.721793	0.000291	2.908101	0.492646	0.000029
  11	9.9500e-01	0.0966	-15.700204	0.000217	2.170836	0.367750	0.000022
  12	1.0945e+00	0.1042	-15.670468	0.000299	2.990020	0.506523	0.000030
  13	1.1940e+00	0.1170	-15.642361	0.000283	2.826183	0.478768	0.000028
  14	1.2935e+00	0.1239	-15.618328	0.000242	2.416591	0.409382	0.000024
  15	1.3930e+00	0.1350	-15.591444	0.000270	2.703306	0.457952	0.000027
  16	1.4925e+00	0.1424	-15.564559	0.000270	2.703306	0.457952	0.000027
  17	1.5920e+00	0.1527	-15.538082	0.000266	2.662346	0.451014	0.000027
  18	1.6915e+00	0.1651	-15.510790	0.000274	2.744265	0.464891	0.000027
  19	1.7910e+00	0.1727	-15.486349	0.000246	2.457551	0.416320	0.000025
  20	1.8905e+00	0.1837	-15.460687	0.000258	2.580428	0.437136	0.000026
  21	1.9900e+00	0.1930	-15.432580	0.000283	2.826183	0.478768	0.000028
  22	2.0895e+00	0.2036	-15.404473	0.000283	2.826183	0.478768	0.000028
  23	2.1890e+00	0.2124	-15.377181	0.000274	2.744265	0.464891	0.000027
  24	2.2885e+00	0.2228	-15.349889	0.000274	2.744265	0.464891	0.000027
  25	2.3880e+00	0.2357	-15.323819	0.000262	2.621387	0.444075	0.000026
  26	2.4875e+00	0.2421	-15.294083	0.000299	2.990020	0.506523	0.000030
  27	2.5870e+00	0.2573	-15.261496	0.000328	3.276734	0.555094	0.000033
  28	2.6865e+00	0.2629	-15.233797	0.000279	2.785224	0.471830	0.000028
  29	2.7860e+00	0.2731	-15.206505	0.000274	2.744265	0.464891	0.000027
  30	2.8855e+00	0.2859	-15.178805	0.000279	2.785224	0.471830	0.000028
  31	2.9850e+00	0.2937	-15.151106	0.000279	2.785224	0.471830	0.000028
  32	3.0845e+00	0.3020	-15.121778	0.000295	2.949061	0.499584	0.000029
  33	3.1840e+00	0.3143	-15.092856	0.000291	2.908101	0.492646	0.000029
  34	3.2835e+00	0.3275	-15.063528	0.000295	2.949061	0.499584	0.000029
  35	3.3830e+00	0.3340	-15.034606	0.000291	2.908101	0.492646	0.000029
  36	3.4825e+00	0.3428	-15.003648	0.000311	3.112897	0.527339	0.000031
  37	3.5820e+00	0.3516	-14.977171	0.000266	2.662346	0.451014	0.000027
  38	3.6815e+00	0.3619	-14.944991	0.000324	3.235775	0.548155	0.000032
  39	3.7810e+00	0.3716	-14.913218	0.000319	3.194816	0.541216	0.000032
  40	3.8805e+00	0.3841	-14.887148	0.000262	2.621387	0.444075	0.000026
  41	3.9800e+00	0.3928	-14.854153	0.000332	3.317693	0.562032	0.000033
  42	4.0795e+00	0.4037	-14.827676	0.000266	2.662346	0.451014	0.000027
  43	4.1790e+00	0.4118	-14.801606	0.000262	2.621387	0.444075	0.000026
  44	4.2785e+00	0.4211	-14.769426	0.000324	3.235775	0.548155	0.000032
  45	4.3780e+00	0.4321	-14.742542	0.000270	2.703306	0.457952	0.000027
  46	4.4775e+00	0.4428	-14.714028	0.000287	2.867142	0.485707	0.000029
  47	4.5770e+00	0.4515	-14.686328	0.000279	2.785224	0.471830	0.000028
  48	4.6765e+00	0.4630	-14.659036	0.000274	2.744265	0.464891	0.000027
  49	4.7760e+00	0.4735	-14.630930	0.000283	2.826183	0.478768	0.000028
  50	4.8755e+00	0.4836	-14.603230	0.000279	2.785224	0.471830	0.000028
  51	4.9750e+00	0.4963	-14.579197	0.000242	2.416591	0.409382	0.000024
  52	5.0745e+00	0.5020	-14.551091	0.000283	2.826183	0.478768	0.000028
  53	5.1740e+00	0.5107	-14.529094	0.000221	2.211796	0.374688	0.000022
  54	5.2735e+00	0.5231	-14.503839	0.000254	2.539469	0.430198	0.000025
  55	5.3730e+00	0.5400	-14.474103	0.000299	2.990020	0.506523	0.000030
  56	5.4725e+00	0.5433	-14.445182	0.000291	2.908101	0.492646	0.000029
  57	5.5720e+00	0.5525	-14.422778	0.000225	2.252755	0.381627	0.000023
  58	5.6715e+00	0.5634	-14.394264	0.000287	2.867142	0.485707	0.000029
  59	5.7710e+00	0.5737	-14.369009	0.000254	2.539469	0.430198	0.000025
  60	5.8705e+00	0.5848	-14.345790	0.000233	2.334673	0.395504	0.000023
  61	5.9700e+00	0.5911	-14.317276	0.000287	2.867142	0.485707	0.000029
  62	6.0695e+00	0.6023	-14.294465	0.000229	2.293714	0.388566	0.000023
  63	6.1690e+00	0.6138	-14.267988	0.000266	2.662346	0.451014	0.000027
  64	6.2685e+00	0.6213	-14.243140	0.000250	2.498510	0.423259	0.000025
  65	6.3680e+00	0.6329	-14.215848	0.000274	2.744265	0.464891	0.000027
  66	6.4675e+00	0.6409	-14.194666	0.000213	2.129877	0.360811	0.000021
  67	6.5670e+00	0.6517	-14.164930	0.000299	2.990020	0.506523	0.000030
  68	6.6665e+00	0.6616	-14.141711	0.000233	2.334673	0.395504	0.000023
  69	6.7660e+00	0.6703	-14.115641	0.000262	2.621387	0.444075	0.000026
  70	6.8655e+00	0.6812	-14.093645	0.000221	2.211796	0.374688	0.000022
  71	6.9650e+00	0.6913	-14.063909	0.000299	2.990020	0.506523	0.000030
  72	7.0645e+00	0.7004	-14.040690	0.000233	2.334673	0.395504	0.000023
  73	7.1640e+00	0.7116	-14.015435	0.000254	2.539469	0.430198	0.000025
  74	7.2635e+00	0.7191	-13.990587	0.000250	2.498510	0.423259	0.000025
  75	7.3630e+00	0.7330	-13.968591	0.000221	2.211796	0.374688	0.000022
  76	7.4625e+00	0.7421	-13.940077	0.000287	2.867142	0.485707	0.000029
  77	7.5620e+00	0.7529	-13.921746	0.000184	1.843163	0.312240	0.000018
  78	7.6615e+00	0.7615	-13.892418	0.000295	2.949061	0.499584	0.000029
  79	7.7610e+00	0.7740	-13.868792	0.000238	2.375632	0.402443	0.000024
  80	7.8605e+00	0.7824	-13.845573	0.000233	2.334673	0.395504	0.000023
  81	7.9600e+00	0.7937	-13.819911	0.000258	2.580428	0.437136	0.000026
  82	8.0595e+00	0.8035	-13.797100	0.000229	2.293714	0.388566	0.000023
  83	8.1590e+00	0.8113	-13.768586	0.000287	2.867142	0.485707	0.000029
  84	8.2585e+00	0.8205	-13.747811	0.000209	2.088918	0.353872	0.000021
  85	8.3580e+00	0.8327	-13.722149	0.000258	2.580428	0.437136	0.000026
  86	8.4575e+00	0.8414	-13.693227	0.000291	2.908101	0.492646	0.000029
  87	8.5570e+00	0.8514	-13.672860	0.000205	2.047959	0.346934	0.000020
  88	8.6565e+00	0.8617	-13.651271	0.000217	2.170836	0.367750	0.000022
  89	8.7560e+00	0.8717	-13.627238	0.000242	2.416591	0.409382	0.000024
  90	8.8555e+00	0.8832	-13.601982	0.000254	2.539469	0.430198	0.000025
  91	8.9550e+00	0.8920	-13.580393	0.000217	2.170836	0.367750	0.000022
  92	9.0545e+00	0.9000	-13.556360	0.000242	2.416591	0.409382	0.000024
  93	9.1540e+00	0.9134	-13.529883	0.000266	2.662346	0.451014	0.000027
  94	9.2535e+00	0.9241	-13.507072	0.000229	2.293714	0.388566	0.000023
  95	9.3530e+00	0.9317	-13.483038	0.000242	2.416591	0.409382	0.000024
  96	9.4525e+00	0.9393	-13.453302	0.000299	2.990020	0.506523	0.000030
  97	9.5520e+00	0.9501	-13.432935	0.000205	2.047959	0.346934	0.000020
  98	9.6515e+00	0.9605	-13.412161	0.000209	2.088918	0.353872	0.000021
  99	9.7510e+00	0.9719	-13.385684	0.000266	2.662346	0.451014	0.000027
 100	9.8505e+00	0.9809	-13.364094	0.000217	2.170836	0.367750	0.000022
 101	9.9500e+00	0.9937	-13.335173	0.000291	2.908101	0.492646	0.000029
 102	1.0050e+01	0.9998	-13.313991	0.000213	2.129877	0.360811	0.000021
 103	1.0149e+01	1.0094	-13.287514	0.000266	2.662346	0.451014	0.000027
 104	1.0248e+01	1.0204	-13.265518	0.000221	2.211796	0.374688	0.000022
 105	1.0348e+01	1.0319	-13.240262	0.000254	2.539469	0.430198	0.000025
 106	1.0447e+01	1.0405	-13.219080	0.000213	2.129877	0.360811	0.000021
 107	1.0547e+01	1.0504	-13.197491	0.000217	2.170836	0.367750	0.000022
 108	1.0646e+01	1.0583	-13.171829	0.000258	2.580428	0.437136	0.000026
 109	1.0746e+01	1.0673	-13.146574	0.000254	2.539469	0.430198	0.000025
 110	1.0845e+01	1.0794	-13.126614	0.000201	2.007000	0.339995	0.000020
 111	1.0945e+01	1.0896	-13.105432	0.000213	2.129877	0.360811	0.000021
 112	1.1044e+01	1.1052	-13.083028	0.000225	2.252755	0.381627	0.000023
 113	1.1144e+01	1.1108	-13.057365	0.000258	2.580428	0.437136	0.000026
 114	1.1243e+01	1.1192	-13.036591	0.000209	2.088918	0.353872	0.000021
 115	1.1343e+01	1.1303	-13.014187	0.000225	2.252755	0.381627	0.000023
 116	1.1443e+01	1.1392	-12.992191	0.000221	2.211796	0.374688	0.000022
 117	1.1542e+01	1.1484	-12.974268	0.000180	1.802204	0.305302	0.000018
 118	1.1642e+01	1.1579	-12.947383	0.000270	2.703306	0.457952	0.000027
 119	1.1741e+01	1.1690	-12.930682	0.000168	1.679326	0.284486	0.000017
 120	1.1841e+01	1.1788	-12.908278	0.000225	2.252755	0.381627	0.000023
 121	1.1940e+01	1.1880	-12.886282	0.000221	2.211796	0.374688	0.000022
 122	1.2040e+01	1.1996	-12.867137	0.000193	1.925081	0.326118	0.000019
 123	1.2139e+01	1.2094	-12.845955	0.000213	2.129877	0.360811	0.000021
 124	1.2239e+01	1.2201	-12.823144	0.000229	2.293714	0.388566	0.000023
 125	1.2338e+01	1.2309	-12.801147	0.000221	2.211796	0.374688	0.000022
 126	1.2438e+01	1.2377	-12.775892	0.000254	2.539469	0.430198	0.000025
 127	1.2537e+01	1.2479	-12.755117	0.000209	2.088918	0.353872	0.000021
 128	1.2636e+01	1.2573	-12.735972	0.000193	1.925081	0.326118	0.000019
 129	1.2736e+01	1.2693	-12.716827	0.000193	1.925081	0.326118	0.000019
 130	1.2835e+01	1.2789	-12.694016	0.000229	2.293714	0.388566	0.000023
 131	1.2935e+01	1.2891	-12.669983	0.000242	2.416591	0.409382	0.000024
 132	1.3034e+01	1.2997	-12.645950	0.000242	2.416591	0.409382	0.000024
 133	1.3134e+01	1.3078	-12.620694	0.000254	2.539469	0.430198	0.000025
 134	1.3233e+01	1.3197	-12.598698	0.000221	2.211796	0.374688	0.000022
 135	1.3333e+01	1.3296	-12.577109	0.000217	2.170836	0.367750	0.000022
 136	1.3432e+01	1.3403	-12.552261	0.000250	2.498510	0.423259	0.000025
 137	1.3532e+01	1.3482	-12.527005	0.000254	2.539469	0.430198	0.000025
 138	1.3632e+01	1.3584	-12.504194	0.000229	2.293714	0.388566	0.000023
 139	1.3731e+01	1.3692	-12.478532	0.000258	2.580428	0.437136	0.000026
 140	1.3831e+01	1.3773	-12.452462	0.000262	2.621387	0.444075	0.000026
 141	1.3930e+01	1.3902	-12.429243	0.000233	2.334673	0.395504	0.000023
 142	1.4030e+01	1.3957	-12.405210	0.000242	2.416591	0.409382	0.000024
 143	1.4129e+01	1.4071	-12.381992	0.000233	2.334673	0.395504	0.000023
 144	1.4229e+01	1.4180	-12.355107	0.000270	2.703306	0.457952	0.000027
 145	1.4328e+01	1.4312	-12.330259	0.000250	2.498510	0.423259	0.000025
 146	1.4428e+01	1.4368	-12.301338	0.000291	2.908101	0.492646	0.000029
 147	1.4527e+01	1.4489	-12.281785	0.000197	1.966040	0.333056	0.000020
 148	1.4627e+01	1.4576	-12.253679	0.000283	2.826183	0.478768	0.000028
 149	1.4726e+01	1.4682	-12.225979	0.000279	2.785224	0.471830	0.000028
 150	1.4825e+01	1.4773	-12.206020	0.000201	2.007000	0.339995	0.000020
 151	1.4925e+01	1.4883	-12.175876	0.000303	3.030979	0.513462	0.000030
 152	1.5024e+01	1.4979	-12.153065	0.000229	2.293714	0.388566	0.000023
 153	1.5124e+01	1.5076	-12.125366	0.000279	2.785224	0.471830	0.000028
 154	1.5223e+01	1.5182	-12.105813	0.000197	1.966040	0.333056	0.000020
 155	1.5323e+01	1.5302	-12.074448	0.000315	3.153857	0.534278	0.000032
 156	1.5422e+01	1.5368	-12.051637	0.000229	2.293714	0.388566	0.000023
 157	1.5522e+01	1.5494	-12.027604	0.000242	2.416591	0.409382	0.000024
 158	1.5621e+01	1.5534	-11.999497	0.000283	2.826183	0.478768	0.000028
 159	1.5721e+01	1.5694	-11.976686	0.000229	2.293714	0.388566	0.000023
 160	1.5820e+01	1.5771	-11.950208	0.000266	2.662346	0.451014	0.000027
 161	1.5920e+01	1.5886	-11.918843	0.000315	3.153857	0.534278	0.000032
 162	1.6020e+01	1.5993	-11.894403	0.000246	2.457551	0.416320	0.000025
 163	1.6119e+01	1.6073	-11.870777	0.000238	2.375632	0.402443	0.000024
 164	1.6218e+01	1.6167	-11.845929	0.000250	2.498510	0.423259	0.000025
 165	1.6318e+01	1.6261	-11.819044	0.000270	2.703306	0.457952	0.000027
 166	1.6418e+01	1.6371	-11.794604	0.000246	2.457551	0.416320	0.000025
 167	1.6517e+01	1.6479	-11.767719	0.000270	2.703306	0.457952	0.000027
 168	1.6616e+01	1.6560	-11.742464	0.000254	2.539469	0.430198	0.000025
 169	1.6716e+01	1.6654	-11.714764	0.000279	2.785224	0.471830	0.000028
 170	1.6816e+01	1.6774	-11.688287	0.000266	2.662346	0.451014	0.000027
 171	1.6915e+01	1.6898	-11.663032	0.000254	2.539469	0.430198	0.000025
 172	1.7015e+01	1.6921	-11.638591	0.000246	2.457551	0.416320	0.000025
 173	1.7114e+01	1.7085	-11.610077	0.000287	2.867142	0.485707	0.000029
 174	1.7213e+01	1.7158	-11.586044	0.000242	2.416591	0.409382	0.000024
 175	1.7313e+01	1.7293	-11.558752	0.000274	2.744265	0.464891	0.000027
 176	1.7413e+01	1.7406	-11.533904	0.000250	2.498510	0.423259	0.000025
 177	1.7512e+01	1.7457	-11.507020	0.000270	2.703306	0.457952	0.000027
 178	1.7611e+01	1.7580	-11.480135	0.000270	2.703306	0.457952	0.000027
 179	1.7711e+01	1.7677	-11.454065	0.000262	2.621387	0.444075	0.000026
 180	1.7811e+01	1.7748	-11.427181	0.000270	2.703306	0.457952	0.000027
 181	1.7910e+01	1.7880	-11.404777	0.000225	2.252755	0.381627	0.000023
 182	1.8009e+01	1.7951	-11.372597	0.000324	3.235775	0.548155	0.000032
 183	1.8109e+01	1.8074	-11.346527	0.000262	2.621387	0.444075	0.000026
 184	1.8209e+01	1.8164	-11.324123	0.000225	2.252755	0.381627	0.000023
 185	1.8308e+01	1.8259	-11.298053	0.000262	2.621387	0.444075	0.000026
 186	1.8407e+01	1.8375	-11.270761	0.000274	2.744265	0.464891	0.000027
 187	1.8507e+01	1.8441	-11.246321	0.000246	2.457551	0.416320	0.000025
 188	1.8607e+01	1.8572	-11.220658	0.000258	2.580428	0.437136	0.000026
 189	1.8706e+01	1.8661	-11.194181	0.000266	2.662346	0.451014	0.000027
 190	1.8805e+01	1.8772	-11.165259	0.000291	2.908101	0.492646	0.000029
 191	1.8905e+01	1.8851	-11.142448	0.000229	2.293714	0.388566	0.000023
 192	1.9005e+01	1.8981	-11.114749	0.000279	2.785224	0.471830	0.000028
 193	1.9104e+01	1.9079	-11.088679	0.000262	2.621387	0.444075	0.000026
 194	1.9203e+01	1.9152	-11.062609	0.000262	2.621387	0.444075	0.000026
 195	1.9303e+01	1.9269	-11.032873	0.000299	2.990020	0.506523	0.000030
 196	1.9402e+01	1.9390	-11.004766	0.000283	2.826183	0.478768	0.000028
 197	1.9502e+01	1.9483	-10.976660	0.000283	2.826183	0.478768	0.000028
 198	1.9602e+01	1.9559	-10.946109	0.000307	3.071938	0.520400	0.000031
 199	1.9701e+01	1.9685	-10.919632	0.000266	2.662346	0.451014	0.000027
 200	1.9800e+01	1.9746	-10.891932	0.000279	2.785224	0.471830	0.000028
 201	1.9900e+01	1.9840	-10.867085	0.000250	2.498510	0.423259	0.000025
 202	2.0000e+01	1.9933	-10.836941	0.000303	3.030979	0.513462	0.000030
 203	2.0099e+01	2.0037	-10.805576	0.000315	3.153857	0.534278	0.000032
 204	2.0198e+01	2.0141	-10.776655	0.000291	2.908101	0.492646	0.000029
 205	2.0298e+01	2.0243	-10.748548	0.000283	2.826183	0.478768	0.000028
 206	2.0398e+01	2.0349	-10.717183	0.000315	3.153857	0.534278	0.000032
 207	2.0497e+01	2.0476	-10.687854	0.000295	2.949061	0.499584	0.000029
 208	2.0596e+01	2.0524	-10.661784	0.000262	2.621387	0.444075	0.000026
 209	2.0696e+01	2.0660	-10.638973	0.000229	2.293714	0.388566	0.000023
 210	2.0796e+01	2.0748	-10.609644	0.000295	2.949061	0.499584	0.000029
 211	2.0895e+01	2.0866	-10.577464	0.000324	3.235775	0.548155	0.000032
 212	2.0994e+01	2.0981	-10.553431	0.000242	2.416591	0.409382	0.000024
 213	2.1094e+01	2.1045	-10.527361	0.000262	2.621387	0.444075	0.000026
 214	2.1194e+01	2.1143	-10.496810	0.000307	3.071938	0.520400	0.000031
 215	2.1293e+01	2.1255	-10.469926	0.000270	2.703306	0.457952	0.000027
 216	2.1392e+01	2.1355	-10.445078	0.000250	2.498510	0.423259	0.000025
 217	2.1492e+01	2.1426	-10.419415	0.000258	2.580428	0.437136	0.000026
 218	2.1591e+01	2.1535	-10.391308	0.000283	2.826183	0.478768	0.000028
 219	2.1691e+01	2.1660	-10.368905	0.000225	2.252755	0.381627	0.000023
 220	2.1791e+01	2.1749	-10.340798	0.000283	2.826183	0.478768	0.000028
 221	2.1890e+01	2.1862	-10.320838	0.000201	2.007000	0.339995	0.000020
 222	2.1989e+01	2.1923	-10.293954	0.000270	2.703306	0.457952	0.000027
 223	2.2089e+01	2.2062	-10.264218	0.000299	2.990020	0.506523	0.000030
 224	2.2189e+01	2.2124	-10.241814	0.000225	2.252755	0.381627	0.000023
 225	2.2288e+01	2.2248	-10.219003	0.000229	2.293714	0.388566	0.000023
 226	2.2387e+01	2.2344	-10.191711	0.000274	2.744265	0.464891	0.000027
 227	2.2487e+01	2.2467	-10.168492	0.000233	2.334673	0.395504	0.000023
 228	2.2587e+01	2.2538	-10.147310	0.000213	2.129877	0.360811	0.000021
 229	2.2686e+01	2.2641	-10.118796	0.000287	2.867142	0.485707	0.000029
 230	2.2785e+01	2.2735	-10.094763	0.000242	2.416591	0.409382	0.000024
 231	2.2885e+01	2.2839	-10.066249	0.000287	2.867142	0.485707	0.000029
 232	2.2985e+01	2.2932	-10.043845	0.000225	2.252755	0.381627	0.000023
 233	2.3084e+01	2.3052	-10.020219	0.000238	2.375632	0.402443	0.000024
 234	2.3183e+01	2.3133	-9.997816	0.000225	2.252755	0.381627	0.000023
 235	2.3283e+01	2.3232	-9.969302	0.000287	2.867142	0.485707	0.000029
 236	2.3383e+01	2.3325	-9.946898	0.000225	2.252755	0.381627	0.000023
 237	2.3482e+01	2.3424	-9.924494	0.000225	2.252755	0.381627	0.000023
 238	2.3581e+01	2.3528	-9.896795	0.000279	2.785224	0.471830	0.000028
 239	2.3681e+01	2.3643	-9.874798	0.000221	2.211796	0.374688	0.000022
 240	2.3780e+01	2.3742	-9.851580	0.000233	2.334673	0.395504	0.000023
 241	2.3880e+01	2.3839	-9.826732	0.000250	2.498510	0.423259	0.000025
 242	2.3980e+01	2.3933	-9.803513	0.000233	2.334673	0.395504	0.000023
 243	2.4079e+01	2.4032	-9.780295	0.000233	2.334673	0.395504	0.000023
 244	2.4178e+01	2.4120	-9.760335	0.000201	2.007000	0.339995	0.000020
 245	2.4278e+01	2.4249	-9.732636	0.000279	2.785224	0.471830	0.000028
 246	2.4378e+01	2.4315	-9.711046	0.000217	2.170836	0.367750	0.000022
 247	2.4477e+01	2.4440	-9.689865	0.000213	2.129877	0.360811	0.000021
 248	2.4576e+01	2.4535	-9.660129	0.000299	2.990020	0.506523	0.000030
 249	2.4676e+01	2.4624	-9.643835	0.000164	1.638367	0.277547	0.000016
 250	2.4776e+01	2.4743	-9.616543	0.000274	2.744265	0.464891	0.000027
 251	2.4875e+01	2.4810	-9.591288	0.000254	2.539469	0.430198	0.000025
 252	2.4974e+01	2.4914	-9.567662	0.000238	2.375632	0.402443	0.000024
 253	2.5074e+01	2.5046	-9.547295	0.000205	2.047959	0.346934	0.000020
 254	2.5174e+01	2.5126	-9.526520	0.000209	2.088918	0.353872	0.000021
 255	2.5273e+01	2.5231	-9.503709	0.000229	2.293714	0.388566	0.000023
 256	2.5372e+01	2.5307	-9.479269	0.000246	2.457551	0.416320	0.000025
 257	2.5472e+01	2.5420	-9.455643	0.000238	2.375632	0.402443	0.000024
 258	2.5572e+01	2.5539	-9.436090	0.000197	1.966040	0.333056	0.000020
 259	2.5671e+01	2.5626	-9.407169	0.000291	2.908101	0.492646	0.000029
 260	2.5770e+01	2.5733	-9.388431	0.000188	1.884122	0.319179	0.000019
 261	2.5870e+01	2.5822	-9.362769	0.000258	2.580428	0.437136	0.000026
 262	2.5970e+01	2.5927	-9.339550	0.000233	2.334673	0.395504	0.000023
 263	2.6069e+01	2.6019	-9.315924	0.000238	2.375632	0.402443	0.000024
 264	2.6169e+01	2.6122	-9.290262	0.000258	2.580428	0.437136	0.000026
 265	2.6268e+01	2.6229	-9.269080	0.000213	2.129877	0.360811	0.000021
 266	2.6367e+01	2.6322	-9.247083	0.000221	2.211796	0.374688	0.000022
 267	2.6467e+01	2.6437	-9.224272	0.000229	2.293714	0.388566	0.000023
 268	2.6567e+01	2.6510	-9.201868	0.000225	2.252755	0.381627	0.000023
 269	2.6666e+01	2.6594	-9.174576	0.000274	2.744265	0.464891	0.000027
 270	2.6765e+01	2.6711	-9.157061	0.000176	1.761245	0.298363	0.000018
 271	2.6865e+01	2.6829	-9.135064	0.000221	2.211796	0.374688	0.000022
 272	2.6965e+01	2.6931	-9.109401	0.000258	2.580428	0.437136	0.000026
 273	2.7064e+01	2.7023	-9.087812	0.000217	2.170836	0.367750	0.000022
 274	2.7163e+01	2.7133	-9.062964	0.000250	2.498510	0.423259	0.000025
 275	2.7263e+01	2.7222	-9.044634	0.000184	1.843163	0.312240	0.000018
 276	2.7363e+01	2.7337	-9.019379	0.000254	2.539469	0.430198	0.000025
 277	2.7462e+01	2.7428	-8.998604	0.000209	2.088918	0.353872	0.000021
 278	2.7561e+01	2.7529	-8.976200	0.000225	2.252755	0.381627	0.000023
 279	2.7661e+01	2.7609	-8.952982	0.000233	2.334673	0.395504	0.000023
 280	2.7761e+01	2.7718	-8.937096	0.000160	1.597408	0.270608	0.000016
 281	2.7860e+01	2.7831	-8.909396	0.000279	2.785224	0.471830	0.000028
 282	2.7959e+01	2.7927	-8.893917	0.000156	1.556449	0.263670	0.000016
 283	2.8059e+01	2.8021	-8.871106	0.000229	2.293714	0.388566	0.000023
 284	2.8159e+01	2.8103	-8.847888	0.000233	2.334673	0.395504	0.000023
 285	2.8258e+01	2.8200	-8.832001	0.000160	1.597408	0.270608	0.000016
 286	2.8358e+01	2.8322	-8.810005	0.000221	2.211796	0.374688	0.000022
 287	2.8457e+01	2.8428	-8.790860	0.000193	1.925081	0.326118	0.000019
 288	2.8556e+01	2.8486	-8.771715	0.000193	1.925081	0.326118	0.000019
 289	2.8656e+01	2.8625	-8.751347	0.000205	2.047959	0.346934	0.000020
 290	2.8756e+01	2.8732	-8.731388	0.000201	2.007000	0.339995	0.000020
 291	2.8855e+01	2.8808	-8.710613	0.000209	2.088918	0.353872	0.000021
 292	2.8954e+01	2.8897	-8.689839	0.000209	2.088918	0.353872	0.000021
 293	2.9054e+01	2.8979	-8.667435	0.000225	2.252755	0.381627	0.000023
 294	2.9154e+01	2.9104	-8.647475	0.000201	2.007000	0.339995	0.000020
 295	2.9253e+01	2.9212	-8.625886	0.000217	2.170836	0.367750	0.000022
 296	2.9352e+01	2.9305	-8.606741	0.000193	1.925081	0.326118	0.000019
 297	2.9452e+01	2.9412	-8.581893	0.000250	2.498510	0.423259	0.000025
 298	2.9552e+01	2.9513	-8.561118	0.000209	2.088918	0.353872	0.000021
 299	2.9651e+01	2.9601	-8.539122	0.000221	2.211796	0.374688	0.000022
 300	2.9750e+01	2.9704	-8.516718	0.000225	2.252755	0.381627	0.000023
 301	2.9850e+01	2.9797	-8.495944	0.000209	2.088918	0.353872	0.000021
 302	2.9950e+01	2.9883	-8.472318	0.000238	2.375632	0.402443	0.000024
 303	3.0049e+01	3.0012	-8.451136	0.000213	2.129877	0.360811	0.000021
 304	3.0148e+01	3.0109	-8.425066	0.000262	2.621387	0.444075	0.000026
 305	3.0248e+01	3.0233	-8.403069	0.000221	2.211796	0.374688	0.000022
 306	3.0348e+01	3.0339	-8.377407	0.000258	2.580428	0.437136	0.000026
 307	3.0447e+01	3.0410	-8.357040	0.000205	2.047959	0.346934	0.000020
 308	3.0547e+01	3.0515	-8.332192	0.000250	2.498510	0.423259	0.000025
 309	3.0646e+01	3.0611	-8.307344	0.000250	2.498510	0.423259	0.000025
 310	3.0745e+01	3.0691	-8.286977	0.000205	2.047959	0.346934	0.000020
 311	3.0845e+01	3.0820	-8.262129	0.000250	2.498510	0.423259	0.000025
 312	3.0945e+01	3.0909	-8.236059	0.000262	2.621387	0.444075	0.000026
 313	3.1044e+01	3.1003	-8.212026	0.000242	2.416591	0.409382	0.000024
 314	3.1143e+01	3.1110	-8.186771	0.000254	2.539469	0.430198	0.000025
 315	3.1243e+01	3.1201	-8.166811	0.000201	2.007000	0.339995	0.000020
 316	3.1343e+01	3.1300	-8.143592	0.000233	2.334673	0.395504	0.000023
 317	3.1442e+01	3.1409	-8.118744	0.000250	2.498510	0.423259	0.000025
 318	3.1541e+01	3.1496	-8.092674	0.000262	2.621387	0.444075	0.000026
 319	3.1641e+01	3.1587	-8.069049	0.000238	2.375632	0.402443	0.000024
 320	3.1741e+01	3.1698	-8.044201	0.000250	2.498510	0.423259	0.000025
 321	3.1840e+01	3.1829	-8.020167	0.000242	2.416591	0.409382	0.000024
 322	3.1939e+01	3.1870	-7.997356	0.000229	2.293714	0.388566	0.000023
 323	3.2039e+01	3.2006	-7.974545	0.000229	2.293714	0.388566	0.000023
 324	3.2139e+01	3.2080	-7.947661	0.000270	2.703306	0.457952	0.000027
 325	3.2238e+01	3.2193	-7.920369	0.000274	2.744265	0.464891	0.000027
 326	3.2337e+01	3.2306	-7.899187	0.000213	2.129877	0.360811	0.000021
 327	3.2437e+01	3.2409	-7.872709	0.000266	2.662346	0.451014	0.000027
 328	3.2536e+01	3.2484	-7.845825	0.000270	2.703306	0.457952	0.000027
 329	3.2636e+01	3.2577	-7.824236	0.000217	2.170836	0.367750	0.000022
 330	3.2736e+01	3.2665	-7.800610	0.000238	2.375632	0.402443	0.000024
 331	3.2835e+01	3.2767	-7.774947	0.000258	2.580428	0.437136	0.000026
 332	3.2934e+01	3.2887	-7.745211	0.000299	2.990020	0.506523	0.000030
 333	3.3034e+01	3.2999	-7.726066	0.000193	1.925081	0.326118	0.000019
 334	3.3133e+01	3.3088	-7.697960	0.000283	2.826183	0.478768	0.000028
 335	3.3233e+01	3.3193	-7.671890	0.000262	2.621387	0.444075	0.000026
 336	3.3333e+01	3.3293	-7.651930	0.000201	2.007000	0.339995	0.000020
 337	3.3432e+01	3.3395	-7.627489	0.000246	2.457551	0.416320	0.000025
 338	3.3532e+01	3.3517	-7.600605	0.000270	2.703306	0.457952	0.000027
 339	3.3631e+01	3.3566	-7.574535	0.000262	2.621387	0.444075	0.000026
 340	3.3730e+01	3.3707	-7.551316	0.000233	2.334673	0.395504	0.000023
 341	3.3830e+01	3.3789	-7.525654	0.000258	2.580428	0.437136	0.000026
 342	3.3929e+01	3.3848	-7.495918	0.000299	2.990020	0.506523	0.000030
 343	3.4029e+01	3.4014	-7.474328	0.000217	2.170836	0.367750	0.000022
 344	3.4129e+01	3.4091	-7.451517	0.000229	2.293714	0.388566	0.000023
 345	3.4228e+01	3.4170	-7.425447	0.000262	2.621387	0.444075	0.000026
 346	3.4328e+01	3.4268	-7.401007	0.000246	2.457551	0.416320	0.000025
 347	3.4427e+01	3.4396	-7.376566	0.000246	2.457551	0.416320	0.000025
 348	3.4526e+01	3.4492	-7.346830	0.000299	2.990020	0.506523	0.000030
 349	3.4626e+01	3.4590	-7.326463	0.000205	2.047959	0.346934	0.000020
 350	3.4725e+01	3.4692	-7.302023	0.000246	2.457551	0.416320	0.000025
 351	3.4825e+01	3.4777	-7.275953	0.000262	2.621387	0.444075	0.000026
 352	3.4925e+01	3.4863	-7.249068	0.000270	2.703306	0.457952	0.000027
 353	3.5024e+01	3.4967	-7.227479	0.000217	2.170836	0.367750	0.000022
 354	3.5123e+01	3.5070	-7.203038	0.000246	2.457551	0.416320	0.000025
 355	3.5223e+01	3.5162	-7.175746	0.000274	2.744265	0.464891	0.000027
 356	3.5322e+01	3.5284	-7.151306	0.000246	2.457551	0.416320	0.000025
 357	3.5422e+01	3.5377	-7.127273	0.000242	2.416591	0.409382	0.000024
 358	3.5522e+01	3.5476	-7.100795	0.000266	2.662346	0.451014	0.000027
 359	3.5621e+01	3.5577	-7.075540	0.000254	2.539469	0.430198	0.000025
 360	3.5721e+01	3.5679	-7.050692	0.000250	2.498510	0.423259	0.000025
 361	3.5820e+01	3.5772	-7.022178	0.000287	2.867142	0.485707	0.000029
 362	3.5919e+01	3.5873	-6.996108	0.000262	2.621387	0.444075	0.000026
 363	3.6019e+01	3.5986	-6.967594	0.000287	2.867142	0.485707	0.000029
 364	3.6118e+01	3.6102	-6.939488	0.000283	2.826183	0.478768	0.000028
 365	3.6218e+01	3.6160	-6.915454	0.000242	2.416591	0.409382	0.000024
 366	3.6318e+01	3.6289	-6.885311	0.000303	3.030979	0.513462	0.000030
 367	3.6417e+01	3.6382	-6.862907	0.000225	2.252755	0.381627	0.000023
 368	3.6517e+01	3.6462	-6.836837	0.000262	2.621387	0.444075	0.000026
 369	3.6616e+01	3.6579	-6.809138	0.000279	2.785224	0.471830	0.000028
 370	3.6715e+01	3.6655	-6.783476	0.000258	2.580428	0.437136	0.000026
 371	3.6815e+01	3.6744	-6.751703	0.000319	3.194816	0.541216	0.000032
 372	3.6914e+01	3.6887	-6.725633	0.000262	2.621387	0.444075	0.000026
 373	3.7014e+01	3.6959	-6.696304	0.000295	2.949061	0.499584	0.000029
 374	3.7114e+01	3.7063	-6.667790	0.000287	2.867142	0.485707	0.000029
 375	3.7213e+01	3.7145	-6.643350	0.000246	2.457551	0.416320	0.000025
 376	3.7313e+01	3.7281	-6.613206	0.000303	3.030979	0.513462	0.000030
 377	3.7412e+01	3.7355	-6.586322	0.000270	2.703306	0.457952	0.000027
 378	3.7511e+01	3.7460	-6.563511	0.000229	2.293714	0.388566	0.000023
 379	3.7611e+01	3.7579	-6.537848	0.000258	2.580428	0.437136	0.000026
 380	3.7711e+01	3.7682	-6.511778	0.000262	2.621387	0.444075	0.000026
 381	3.7810e+01	3.7769	-6.484079	0.000279	2.785224	0.471830	0.000028
 382	3.7910e+01	3.7861	-6.456787	0.000274	2.744265	0.464891	0.000027
 383	3.8009e+01	3.7980	-6.433161	0.000238	2.375632	0.402443	0.000024
 384	3.8108e+01	3.8044	-6.402610	0.000307	3.071938	0.520400	0.000031
 385	3.8208e+01	3.8139	-6.383872	0.000188	1.884122	0.319179	0.000019
 386	3.8307e+01	3.8237	-6.353729	0.000303	3.030979	0.513462	0.000030
 387	3.8407e+01	3.8345	-6.334177	0.000197	1.966040	0.333056	0.000020
 388	3.8507e+01	3.8464	-6.308514	0.000258	2.580428	0.437136	0.000026
 389	3.8606e+01	3.8583	-6.284481	0.000242	2.416591	0.409382	0.000024
 390	3.8706e+01	3.8642	-6.260855	0.000238	2.375632	0.402443	0.000024
 391	3.8805e+01	3.8779	-6.238859	0.000221	2.211796	0.374688	0.000022
 392	3.8904e+01	3.8867	-6.216455	0.000225	2.252755	0.381627	0.000023
 393	3.9004e+01	3.8955	-6.186719	0.000299	2.990020	0.506523	0.000030
 394	3.9103e+01	3.9058	-6.167574	0.000193	1.925081	0.326118	0.000019
 395	3.9203e+01	3.9128	-6.141911	0.000258	2.580428	0.437136	0.000026
 396	3.9303e+01	3.9269	-6.122359	0.000197	1.966040	0.333056	0.000020
 397	3.9402e+01	3.9339	-6.096696	0.000258	2.580428	0.437136	0.000026
 398	3.9502e+01	3.9458	-6.075107	0.000217	2.170836	0.367750	0.000022
 399	3.9601e+01	3.9548	-6.046593	0.000287	2.867142	0.485707	0.000029
 400	3.9700e+01	3.9643	-6.025818	0.000209	2.088918	0.353872	0.000021
 401	3.9800e+01	3.9733	-6.005044	0.000209	2.088918	0.353872	0.000021
 402	3.9900e+01	3.9856	-5.981418	0.000238	2.375632	0.402443	0.000024
 403	3.9999e+01	3.9979	-5.955755	0.000258	2.580428	0.437136	0.000026
 404	4.0099e+01	4.0076	-5.933352	0.000225	2.252755	0.381627	0.000023
 405	4.0198e+01	4.0157	-5.910540	0.000229	2.293714	0.388566	0.000023
 406	4.0297e+01	4.0229	-5.887729	0.000229	2.293714	0.388566	0.000023
 407	4.0397e+01	4.0357	-5.865733	0.000221	2.211796	0.374688	0.000022
 408	4.0496e+01	4.0465	-5.842514	0.000233	2.334673	0.395504	0.000023
 409	4.0596e+01	4.0560	-5.818481	0.000242	2.416591	0.409382	0.000024
 410	4.0696e+01	4.0627	-5.795670	0.000229	2.293714	0.388566	0.000023
 411	4.0795e+01	4.0759	-5.772451	0.000233	2.334673	0.395504	0.000023
 412	4.0895e+01	4.0873	-5.751269	0.000213	2.129877	0.360811	0.000021
 413	4.0994e+01	4.0932	-5.728458	0.000229	2.293714	0.388566	0.000023
 414	4.1093e+01	4.1067	-5.705647	0.000229	2.293714	0.388566	0.000023
 415	4.1193e+01	4.1132	-5.682429	0.000233	2.334673	0.395504	0.000023
 416	4.1292e+01	4.1257	-5.663691	0.000188	1.884122	0.319179	0.000019
 417	4.1392e+01	4.1326	-5.639250	0.000246	2.457551	0.416320	0.000025
 418	4.1492e+01	4.1454	-5.618883	0.000205	2.047959	0.346934	0.000020
 419	4.1591e+01	4.1564	-5.594443	0.000246	2.457551	0.416320	0.000025
 420	4.1691e+01	4.1642	-5.573668	0.000209	2.088918	0.353872	0.000021
 421	4.1790e+01	4.1747	-5.549228	0.000246	2.457551	0.416320	0.000025
 422	4.1889e+01	4.1857	-5.530897	0.000184	1.843163	0.312240	0.000018
 423	4.1989e+01	4.1950	-5.508086	0.000229	2.293714	0.388566	0.000023
 424	4.2089e+01	4.2019	-5.484460	0.000238	2.375632	0.402443	0.000024
 425	4.2188e+01	4.2141	-5.464500	0.000201	2.007000	0.339995	0.000020
 426	4.2288e+01	4.2233	-5.438430	0.000262	2.621387	0.444075	0.000026
 427	4.2387e+01	4.2329	-5.421322	0.000172	1.720285	0.291424	0.000017
 428	4.2486e+01	4.2451	-5.394845	0.000266	2.662346	0.451014	0.000027
 429	4.2586e+01	4.2544	-5.374885	0.000201	2.007000	0.339995	0.000020
 430	4.2685e+01	4.2636	-5.352481	0.000225	2.252755	0.381627	0.000023
 431	4.2785e+01	4.2737	-5.330485	0.000221	2.211796	0.374688	0.000022
 432	4.2885e+01	4.2823	-5.308488	0.000221	2.211796	0.374688	0.000022
 433	4.2984e+01	4.2941	-5.288936	0.000197	1.966040	0.333056	0.000020
 434	4.3084e+01	4.3066	-5.265310	0.000238	2.375632	0.402443	0.000024
 435	4.3183e+01	4.3156	-5.244535	0.000209	2.088918	0.353872	0.000021
 436	4.3282e+01	4.3240	-5.221724	0.000229	2.293714	0.388566	0.000023
 437	4.3382e+01	4.3332	-5.200542	0.000213	2.129877	0.360811	0.000021
 438	4.3481e+01	4.3432	-5.175694	0.000250	2.498510	0.423259	0.000025
 439	4.3581e+01	4.3543	-5.155327	0.000205	2.047959	0.346934	0.000020
 440	4.3681e+01	4.3639	-5.137404	0.000180	1.802204	0.305302	0.000018
 441	4.3780e+01	4.3710	-5.114186	0.000233	2.334673	0.395504	0.000023
 442	4.3880e+01	4.3853	-5.091375	0.000229	2.293714	0.388566	0.000023
 443	4.3979e+01	4.3952	-5.068563	0.000229	2.293714	0.388566	0.000023
 444	4.4078e+01	4.4037	-5.053084	0.000156	1.556449	0.263670	0.000016
 445	4.4178e+01	4.4123	-5.031088	0.000221	2.211796	0.374688	0.000022
 446	4.4278e+01	4.4209	-5.009091	0.000221	2.211796	0.374688	0.000022
 447	4.4377e+01	4.4338	-4.991168	0.000180	1.802204	0.305302	0.000018
 448	4.4477e+01	4.4448	-4.969986	0.000213	2.129877	0.360811	0.000021
 449	4.4576e+01	4.4548	-4.946361	0.000238	2.375632	0.402443	0.000024
 450	4.4675e+01	4.4622	-4.928030	0.000184	1.843163	0.312240	0.000018
 451	4.4775e+01	4.4737	-4.908070	0.000201	2.007000	0.339995	0.000020
 452	4.4874e+01	4.4836	-4.890555	0.000176	1.761245	0.298363	0.000018
 453	4.4974e+01	4.4938	-4.871817	0.000188	1.884122	0.319179	0.000019
 454	4.5074e+01	4.5016	-4.853079	0.000188	1.884122	0.319179	0.000019
 455	4.5173e+01	4.5132	-4.833934	0.000193	1.925081	0.326118	0.000019
 456	4.5273e+01	4.5209	-4.811530	0.000225	2.252755	0.381627	0.000023
 457	4.5372e+01	4.5323	-4.797681	0.000139	1.392612	0.235915	0.000014
 458	4.5471e+01	4.5429	-4.774462	0.000233	2.334673	0.395504	0.000023
 459	4.5571e+01	4.5567	-4.755317	0.000193	1.925081	0.326118	0.000019
 460	4.5670e+01	4.5622	-4.734542	0.000209	2.088918	0.353872	0.000021
 461	4.5770e+01	4.5730	-4.716212	0.000184	1.843163	0.312240	0.000018
 462	4.5870e+01	4.5811	-4.695438	0.000209	2.088918	0.353872	0.000021
 463	4.5969e+01	4.5925	-4.677922	0.000176	1.761245	0.298363	0.000018
 464	4.6069e+01	4.6021	-4.653481	0.000246	2.457551	0.416320	0.000025
 465	4.6168e+01	4.6136	-4.633114	0.000205	2.047959	0.346934	0.000020
 466	4.6267e+01	4.6224	-4.616820	0.000164	1.638367	0.277547	0.000016
 467	4.6367e+01	4.6339	-4.592787	0.000242	2.416591	0.409382	0.000024
 468	4.6467e+01	4.6435	-4.573642	0.000193	1.925081	0.326118	0.000019
 469	4.6566e+01	4.6547	-4.553275	0.000205	2.047959	0.346934	0.000020
 470	4.6666e+01	4.6623	-4.531686	0.000217	2.170836	0.367750	0.000022
 471	4.6765e+01	4.6702	-4.508060	0.000238	2.375632	0.402443	0.000024
 472	4.6864e+01	4.6810	-4.484841	0.000233	2.334673	0.395504	0.000023
 473	4.6964e+01	4.6933	-4.461216	0.000238	2.375632	0.402443	0.000024
 474	4.7063e+01	4.7051	-4.441663	0.000197	1.966040	0.333056	0.000020
 475	4.7163e+01	4.7120	-4.419667	0.000221	2.211796	0.374688	0.000022
 476	4.7263e+01	4.7219	-4.394819	0.000250	2.498510	0.423259	0.000025
 477	4.7362e+01	4.7343	-4.374044	0.000209	2.088918	0.353872	0.000021
 478	4.7462e+01	4.7414	-4.346752	0.000274	2.744265	0.464891	0.000027
 479	4.7561e+01	4.7553	-4.328422	0.000184	1.843163	0.312240	0.000018
 480	4.7660e+01	4.7653	-4.305203	0.000233	2.334673	0.395504	0.000023
 481	4.7760e+01	4.7723	-4.283614	0.000217	2.170836	0.367750	0.000022
 482	4.7859e+01	4.7822	-4.258766	0.000250	2.498510	0.423259	0.000025
 483	4.7959e+01	4.7913	-4.234733	0.000242	2.416591	0.409382	0.000024
 484	4.8059e+01	4.8015	-4.211922	0.000229	2.293714	0.388566	0.000023
 485	4.8158e+01	4.8137	-4.187889	0.000242	2.416591	0.409382	0.000024
 486	4.8258e+01	4.8223	-4.167522	0.000205	2.047959	0.346934	0.000020
 487	4.8357e+01	4.8318	-4.145525	0.000221	2.211796	0.374688	0.000022
 488	4.8456e+01	4.8437	-4.115789	0.000299	2.990020	0.506523	0.000030
 489	4.8556e+01	4.8519	-4.098273	0.000176	1.761245	0.298363	0.000018
 490	4.8656e+01	4.8609	-4.075462	0.000229	2.293714	0.388566	0.000023
 491	4.8755e+01	4.8711	-4.048578	0.000270	2.703306	0.457952	0.000027
 492	4.8855e+01	4.8795	-4.026988	0.000217	2.170836	0.367750	0.000022
 493	4.8954e+01	4.8901	-4.003770	0.000233	2.334673	0.395504	0.000023
 494	4.9053e+01	4.9030	-3.980959	0.000229	2.293714	0.388566	0.000023
 495	4.9153e+01	4.9122	-3.957333	0.000238	2.375632	0.402443	0.000024
 496	4.9252e+01	4.9206	-3.930041	0.000274	2.744265	0.464891	0.000027
 497	4.9352e+01	4.9290	-3.909266	0.000209	2.088918	0.353872	0.000021
 498	4.9452e+01	4.9413	-3.882382	0.000270	2.703306	0.457952	0.000027
 499	4.9551e+01	4.9522	-3.861200	0.000213	2.129877	0.360811	0.000021
 500	4.9651e+01	4.9599	-3.834723	0.000266	2.662346	0.451014	0.000027
 501	4.9750e+01	4.9691	-3.812726	0.000221	2.211796	0.374688	0.000022
 502	4.9849e+01	4.9828	-3.789100	0.000238	2.375632	0.402443	0.000024
 503	4.9949e+01	4.9873	-3.762216	0.000270	2.703306	0.457952	0.000027
 504	5.0048e+01	5.0030	-3.742256	0.000201	2.007000	0.339995	0.000020
 505	5.0148e+01	5.0111	-3.715779	0.000266	2.662346	0.451014	0.000027
 506	5.0248e+01	5.0169	-3.692968	0.000229	2.293714	0.388566	0.000023
 507	5.0347e+01	5.0317	-3.671378	0.000217	2.170836	0.367750	0.000022
 508	5.0447e+01	5.0406	-3.643679	0.000279	2.785224	0.471830	0.000028
 509	5.0546e+01	5.0496	-3.619239	0.000246	2.457551	0.416320	0.000025
 510	5.0645e+01	5.0605	-3.597242	0.000221	2.211796	0.374688	0.000022
 511	5.0745e+01	5.0707	-3.576875	0.000205	2.047959	0.346934	0.000020
 512	5.0844e+01	5.0787	-3.546732	0.000303	3.030979	0.513462	0.000030
 513	5.0944e+01	5.0890	-3.526772	0.000201	2.007000	0.339995	0.000020
 514	5.1044e+01	5.0991	-3.498665	0.000283	2.826183	0.478768	0.000028
 515	5.1143e+01	5.1107	-3.475854	0.000229	2.293714	0.388566	0.000023
 516	5.1242e+01	5.1205	-3.451821	0.000242	2.416591	0.409382	0.000024
 517	5.1342e+01	5.1279	-3.428602	0.000233	2.334673	0.395504	0.000023
 518	5.1441e+01	5.1406	-3.405384	0.000233	2.334673	0.395504	0.000023
 519	5.1541e+01	5.1512	-3.378906	0.000266	2.662346	0.451014	0.000027
 520	5.1641e+01	5.1588	-3.356910	0.000221	2.211796	0.374688	0.000022
 521	5.1740e+01	5.1684	-3.331655	0.000254	2.539469	0.430198	0.000025
 522	5.1840e+01	5.1798	-3.308436	0.000233	2.334673	0.395504	0.000023
 523	5.1939e+01	5.1880	-3.286032	0.000225	2.252755	0.381627	0.000023
 524	5.2038e+01	5.1985	-3.259148	0.000270	2.703306	0.457952	0.000027
 525	5.2138e+01	5.2093	-3.232670	0.000266	2.662346	0.451014	0.000027
 526	5.2237e+01	5.2225	-3.211896	0.000209	2.088918	0.353872	0.000021
 527	5.2337e+01	5.2251	-3.187455	0.000246	2.457551	0.416320	0.000025
 528	5.2437e+01	5.2383	-3.159756	0.000279	2.785224	0.471830	0.000028
 529	5.2536e+01	5.2496	-3.134501	0.000254	2.539469	0.430198	0.000025
 530	5.2636e+01	5.2605	-3.110875	0.000238	2.375632	0.402443	0.000024
 531	5.2735e+01	5.2679	-3.081139	0.000299	2.990020	0.506523	0.000030
 532	5.2834e+01	5.2781	-3.060772	0.000205	2.047959	0.346934	0.000020
 533	5.2934e+01	5.2891	-3.032258	0.000287	2.867142	0.485707	0.000029
 534	5.3033e+01	5.2979	-3.004151	0.000283	2.826183	0.478768	0.000028
 535	5.3133e+01	5.3066	-2.978896	0.000254	2.539469	0.430198	0.000025
 536	5.3233e+01	5.3190	-2.950789	0.000283	2.826183	0.478768	0.000028
 537	5.3332e+01	5.3268	-2.925534	0.000254	2.539469	0.430198	0.000025
 538	5.3431e+01	5.3425	-2.895798	0.000299	2.990020	0.506523	0.000030
 539	5.3531e+01	5.3501	-2.873394	0.000225	2.252755	0.381627	0.000023
 540	5.3630e+01	5.3577	-2.846102	0.000274	2.744265	0.464891	0.000027
 541	5.3730e+01	5.3715	-2.820032	0.000262	2.621387	0.444075	0.000026
 542	5.3830e+01	5.3809	-2.790296	0.000299	2.990020	0.506523	0.000030
 543	5.3929e+01	5.3878	-2.765449	0.000250	2.498510	0.423259	0.000025
 544	5.4029e+01	5.3984	-2.739379	0.000262	2.621387	0.444075	0.000026
 545	5.4128e+01	5.4078	-2.713309	0.000262	2.621387	0.444075	0.000026
 546	5.4227e+01	5.4192	-2.688868	0.000246	2.457551	0.416320	0.000025
 547	5.4327e+01	5.4293	-2.663206	0.000258	2.580428	0.437136	0.000026
 548	5.4426e+01	5.4384	-2.636321	0.000270	2.703306	0.457952	0.000027
 549	5.4526e+01	5.4485	-2.609029	0.000274	2.744265	0.464891	0.000027
 550	5.4626e+01	5.4604	-2.583366	0.000258	2.580428	0.437136	0.000026
 551	5.4725e+01	5.4710	-2.562592	0.000209	2.088918	0.353872	0.000021
 552	5.4825e+01	5.4800	-2.538151	0.000246	2.457551	0.416320	0.000025
 553	5.4924e+01	5.4877	-2.514118	0.000242	2.416591	0.409382	0.000024
 554	5.5023e+01	5.4967	-2.492122	0.000221	2.211796	0.374688	0.000022
 555	5.5123e+01	5.5080	-2.466052	0.000262	2.621387	0.444075	0.000026
 556	5.5222e+01	5.5181	-2.444055	0.000221	2.211796	0.374688	0.000022
 557	5.5322e+01	5.5285	-2.416356	0.000279	2.785224	0.471830	0.000028
 558	5.5422e+01	5.5375	-2.397618	0.000188	1.884122	0.319179	0.000019
 559	5.5521e+01	5.5492	-2.374807	0.000229	2.293714	0.388566	0.000023
 560	5.5620e+01	5.5576	-2.350774	0.000242	2.416591	0.409382	0.000024
 561	5.5720e+01	5.5666	-2.329185	0.000217	2.170836	0.367750	0.000022
 562	5.5819e+01	5.5764	-2.304337	0.000250	2.498510	0.423259	0.000025
 563	5.5919e+01	5.5865	-2.281933	0.000225	2.252755	0.381627	0.000023
 564	5.6019e+01	5.5984	-2.257900	0.000242	2.416591	0.409382	0.000024
 565	5.6118e+01	5.6079	-2.233052	0.000250	2.498510	0.423259	0.000025
 566	5.6218e+01	5.6162	-2.213499	0.000197	1.966040	0.333056	0.000020
 567	5.6317e+01	5.6268	-2.191503	0.000221	2.211796	0.374688	0.000022
 568	5.6416e+01	5.6374	-2.171136	0.000205	2.047959	0.346934	0.000020
 569	5.6516e+01	5.6461	-2.145473	0.000258	2.580428	0.437136	0.000026
 570	5.6615e+01	5.6565	-2.123884	0.000217	2.170836	0.367750	0.000022
 571	5.6715e+01	5.6675	-2.100666	0.000233	2.334673	0.395504	0.000023
 572	5.6815e+01	5.6785	-2.077854	0.000229	2.293714	0.388566	0.000023
 573	5.6914e+01	5.6847	-2.057895	0.000201	2.007000	0.339995	0.000020
 574	5.7014e+01	5.6945	-2.034269	0.000238	2.375632	0.402443	0.000024
 575	5.7113e+01	5.7106	-2.008606	0.000258	2.580428	0.437136	0.000026
 576	5.7212e+01	5.7165	-1.990683	0.000180	1.802204	0.305302	0.000018
 577	5.7312e+01	5.7272	-1.967465	0.000233	2.334673	0.395504	0.000023
 578	5.7411e+01	5.7381	-1.946690	0.000209	2.088918	0.353872	0.000021
 579	5.7511e+01	5.7475	-1.922657	0.000242	2.416591	0.409382	0.000024
 580	5.7611e+01	5.7560	-1.900660	0.000221	2.211796	0.374688	0.000022
 581	5.7710e+01	5.7635	-1.877034	0.000238	2.375632	0.402443	0.000024
 582	5.7809e+01	5.7767	-1.858297	0.000188	1.884122	0.319179	0.000019
 583	5.7909e+01	5.7862	-1.835893	0.000225	2.252755	0.381627	0.000023
 584	5.8008e+01	5.7946	-1.816340	0.000197	1.966040	0.333056	0.000020
 585	5.8108e+01	5.8069	-1.792307	0.000242	2.416591	0.409382	0.000024
 586	5.8208e+01	5.8193	-1.772347	0.000201	2.007000	0.339995	0.000020
 587	5.8307e+01	5.8241	-1.751573	0.000209	2.088918	0.353872	0.000021
 588	5.8407e+01	5.8367	-1.729169	0.000225	2.252755	0.381627	0.000023
 589	5.8506e+01	5.8436	-1.708395	0.000209	2.088918	0.353872	0.000021
 590	5.8605e+01	5.8556	-1.686806	0.000217	2.170836	0.367750	0.000022
 591	5.8705e+01	5.8674	-1.666846	0.000201	2.007000	0.339995	0.000020
 592	5.8804e+01	5.8767	-1.641590	0.000254	2.539469	0.430198	0.000025
 593	5.8904e+01	5.8865	-1.620409	0.000213	2.129877	0.360811	0.000021
 594	5.9004e+01	5.8961	-1.598820	0.000217	2.170836	0.367750	0.000022
 595	5.9103e+01	5.9066	-1.576416	0.000225	2.252755	0.381627	0.000023
 596	5.9203e+01	5.9148	-1.558085	0.000184	1.843163	0.312240	0.000018
 597	5.9302e+01	5.9309	-1.535274	0.000229	2.293714	0.388566	0.000023
 598	5.9401e+01	5.9383	-1.513685	0.000217	2.170836	0.367750	0.000022
 599	5.9501e+01	5.9467	-1.488837	0.000250	2.498510	0.423259	0.000025
 600	5.9600e+01	5.9550	-1.470914	0.000180	1.802204	0.305302	0.000018
 601	5.9700e+01	5.9668	-1.449732	0.000213	2.129877	0.360811	0.000021
 602	5.9800e+01	5.9756	-1.428550	0.000213	2.129877	0.360811	0.000021
 603	5.9899e+01	5.9863	-1.408183	0.000205	2.047959	0.346934	0.000020
 604	5.9998e+01	5.9962	-1.381299	0.000270	2.703306	0.457952	0.000027
 605	6.0098e+01	6.0036	-1.367042	0.000143	1.433571	0.242854	0.000014
 606	6.0197e+01	6.0157	-1.339342	0.000279	2.785224	0.471830	0.000028
 607	6.0297e+01	6.0242	-1.316938	0.000225	2.252755	0.381627	0.000023
 608	6.0397e+01	6.0354	-1.299423	0.000176	1.761245	0.298363	0.000018
 609	6.0496e+01	6.0464	-1.275797	0.000238	2.375632	0.402443	0.000024
 610	6.0596e+01	6.0548	-1.257059	0.000188	1.884122	0.319179	0.000019
 611	6.0695e+01	6.0635	-1.237099	0.000201	2.007000	0.339995	0.000020
 612	6.0794e+01	6.0750	-1.214695	0.000225	2.252755	0.381627	0.000023
 613	6.0894e+01	6.0860	-1.193106	0.000217	2.170836	0.367750	0.000022
 614	6.0993e+01	6.0950	-1.175591	0.000176	1.761245	0.298363	0.000018
 615	6.1093e+01	6.1045	-1.153594	0.000221	2.211796	0.374688	0.000022
 616	6.1193e+01	6.1146	-1.135264	0.000184	1.843163	0.312240	0.000018
 617	6.1292e+01	6.1253	-1.114897	0.000205	2.047959	0.346934	0.000020
 618	6.1392e+01	6.1358	-1.093715	0.000213	2.129877	0.360811	0.000021
 619	6.1491e+01	6.1433	-1.074570	0.000193	1.925081	0.326118	0.000019
 620	6.1590e+01	6.1553	-1.057054	0.000176	1.761245	0.298363	0.000018
 621	6.1690e+01	6.1648	-1.036687	0.000205	2.047959	0.346934	0.000020
 622	6.1789e+01	6.1742	-1.019578	0.000172	1.720285	0.291424	0.000017
 623	6.1889e+01	6.1865	-1.000433	0.000193	1.925081	0.326118	0.000019
 624	6.1989e+01	6.1941	-0.984954	0.000156	1.556449	0.263670	0.000016
 625	6.2088e+01	6.2025	-0.962143	0.000229	2.293714	0.388566	0.000023
 626	6.2188e+01	6.2159	-0.943813	0.000184	1.843163	0.312240	0.000018
 627	6.2287e+01	6.2240	-0.923038	0.000209	2.088918	0.353872	0.000021
 628	6.2386e+01	6.2365	-0.904708	0.000184	1.843163	0.312240	0.000018
 629	6.2486e+01	6.2411	-0.887599	0.000172	1.720285	0.291424	0.000017
 630	6.2586e+01	6.2551	-0.863974	0.000238	2.375632	0.402443	0.000024
 631	6.2685e+01	6.2640	-0.846458	0.000176	1.761245	0.298363	0.000018
 632	6.2785e+01	6.2746	-0.824869	0.000217	2.170836	0.367750	0.000022
 633	6.2884e+01	6.2838	-0.801243	0.000238	2.375632	0.402443	0.000024
 634	6.2983e+01	6.2954	-0.780061	0.000213	2.129877	0.360811	0.000021
 635	6.3083e+01	6.3024	-0.764989	0.000152	1.515490	0.256731	0.000015
 636	6.3182e+01	6.3126	-0.744215	0.000209	2.088918	0.353872	0.000021
 637	6.3282e+01	6.3226	-0.722626	0.000217	2.170836	0.367750	0.000022
 638	6.3382e+01	6.3338	-0.699815	0.000229	2.293714	0.388566	0.000023
 639	6.3481e+01	6.3433	-0.677003	0.000229	2.293714	0.388566	0.000023
 640	6.3581e+01	6.3551	-0.655007	0.000221	2.211796	0.374688	0.000022
 641	6.3680e+01	6.3650	-0.632196	0.000229	2.293714	0.388566	0.000023
 642	6.3779e+01	6.3721	-0.607755	0.000246	2.457551	0.416320	0.000025
 643	6.3879e+01	6.3826	-0.585759	0.000221	2.211796	0.374688	0.000022
 644	6.3978e+01	6.3928	-0.566613	0.000193	1.925081	0.326118	0.000019
 645	6.4078e+01	6.4008	-0.542173	0.000246	2.457551	0.416320	0.000025
 646	6.4177e+01	6.4138	-0.518954	0.000233	2.334673	0.395504	0.000023
 647	6.4277e+01	6.4210	-0.497773	0.000213	2.129877	0.360811	0.000021
 648	6.4376e+01	6.4342	-0.474554	0.000233	2.334673	0.395504	0.000023
 649	6.4476e+01	6.4425	-0.450114	0.000246	2.457551	0.416320	0.000025
 650	6.4576e+01	6.4506	-0.424451	0.000258	2.580428	0.437136	0.000026
 651	6.4675e+01	6.4654	-0.401232	0.000233	2.334673	0.395504	0.000023
 652	6.4775e+01	6.4713	-0.381273	0.000201	2.007000	0.339995	0.000020
 653	6.4874e+01	6.4816	-0.354795	0.000266	2.662346	0.451014	0.000027
 654	6.4974e+01	6.4944	-0.330355	0.000246	2.457551	0.416320	0.000025
 655	6.5073e+01	6.5003	-0.306729	0.000238	2.375632	0.402443	0.000024
 656	6.5172e+01	6.5115	-0.283103	0.000238	2.375632	0.402443	0.000024
 657	6.5272e+01	6.5225	-0.262736	0.000205	2.047959	0.346934	0.000020
 658	6.5371e+01	6.5333	-0.238295	0.000246	2.457551	0.416320	0.000025
 659	6.5471e+01	6.5435	-0.216299	0.000221	2.211796	0.374688	0.000022
 660	6.5570e+01	6.5543	-0.186156	0.000303	3.030979	0.513462	0.000030
 661	6.5670e+01	6.5611	-0.165381	0.000209	2.088918	0.353872	0.000021
 662	6.5769e+01	6.5737	-0.140941	0.000246	2.457551	0.416320	0.000025
 663	6.5869e+01	6.5828	-0.118537	0.000225	2.252755	0.381627	0.000023
 664	6.5969e+01	6.5934	-0.094096	0.000246	2.457551	0.416320	0.000025
 665	6.6068e+01	6.6016	-0.068434	0.000258	2.580428	0.437136	0.000026
 666	6.6168e+01	6.6119	-0.045622	0.000229	2.293714	0.388566	0.000023
 667	6.6267e+01	6.6235	-0.019960	0.000258	2.580428	0.437136	0.000026
 668	6.6367e+01	6.6325	0.004073	0.000242	2.416591	0.409382	0.000024
 669	6.6466e+01	6.6399	0.028107	0.000242	2.416591	0.409382	0.000024
 670	6.6566e+01	6.6517	0.054584	0.000266	2.662346	0.451014	0.000027
 671	6.6665e+01	6.6619	0.077395	0.000229	2.293714	0.388566	0.000023
 672	6.6764e+01	6.6714	0.101021	0.000238	2.375632	0.402443	0.000024
 673	6.6864e+01	6.6808	0.125869	0.000250	2.498510	0.423259	0.000025
 674	6.6963e+01	6.6909	0.151124	0.000254	2.539469	0.430198	0.000025
 675	6.7063e+01	6.7044	0.175157	0.000242	2.416591	0.409382	0.000024
 676	6.7162e+01	6.7104	0.201227	0.000262	2.621387	0.444075	0.000026
 677	6.7262e+01	6.7199	0.222816	0.000217	2.170836	0.367750	0.000022
 678	6.7362e+01	6.7316	0.246442	0.000238	2.375632	0.402443	0.000024
 679	6.7461e+01	6.7422	0.274956	0.000287	2.867142	0.485707	0.000029
 680	6.7561e+01	6.7491	0.295731	0.000209	2.088918	0.353872	0.000021
 681	6.7660e+01	6.7611	0.322615	0.000270	2.703306	0.457952	0.000027
 682	6.7760e+01	6.7710	0.349907	0.000274	2.744265	0.464891	0.000027
 683	6.7859e+01	6.7822	0.370682	0.000209	2.088918	0.353872	0.000021
 684	6.7959e+01	6.7892	0.395937	0.000254	2.539469	0.430198	0.000025
 685	6.8058e+01	6.8022	0.421192	0.000254	2.539469	0.430198	0.000025
 686	6.8157e+01	6.8105	0.445225	0.000242	2.416591	0.409382	0.000024
 687	6.8257e+01	6.8202	0.470073	0.000250	2.498510	0.423259	0.000025
 688	6.8356e+01	6.8325	0.493292	0.000233	2.334673	0.395504	0.000023
 689	6.8456e+01	6.8401	0.524657	0.000315	3.153857	0.534278	0.000032
 690	6.8555e+01	6.8493	0.543395	0.000188	1.884122	0.319179	0.000019
 691	6.8655e+01	6.8587	0.569465	0.000262	2.621387	0.444075	0.000026
 692	6.8754e+01	6.8703	0.594313	0.000250	2.498510	0.423259	0.000025
 693	6.8854e+01	6.8804	0.617124	0.000229	2.293714	0.388566	0.000023
 694	6.8954e+01	6.8902	0.647675	0.000307	3.071938	0.520400	0.000031
 695	6.9053e+01	6.9012	0.672523	0.000250	2.498510	0.423259	0.000025
 696	6.9153e+01	6.9111	0.700629	0.000283	2.826183	0.478768	0.000028
 697	6.9252e+01	6.9205	0.724662	0.000242	2.416591	0.409382	0.000024
 698	6.9352e+01	6.9302	0.753584	0.000291	2.908101	0.492646	0.000029
 699	6.9451e+01	6.9403	0.780468	0.000270	2.703306	0.457952	0.000027
 700	6.9550e+01	6.9492	0.805316	0.000250	2.498510	0.423259	0.000025
 701	6.9650e+01	6.9585	0.834238	0.000291	2.908101	0.492646	0.000029
 702	6.9749e+01	6.9732	0.861122	0.000270	2.703306	0.457952	0.000027
 703	6.9849e+01	6.9813	0.888007	0.000270	2.703306	0.457952	0.000027
 704	6.9948e+01	6.9884	0.914484	0.000266	2.662346	0.451014	0.000027
 705	7.0048e+01	6.9995	0.940147	0.000258	2.580428	0.437136	0.000026
 706	7.0147e+01	7.0081	0.969883	0.000299	2.990020	0.506523	0.000030
 707	7.0247e+01	7.0192	0.993508	0.000238	2.375632	0.402443	0.000024
 708	7.0347e+01	7.0309	1.028133	0.000348	3.481530	0.589787	0.000035
 709	7.0446e+01	7.0384	1.055425	0.000274	2.744265	0.464891	0.000027
 710	7.0546e+01	7.0483	1.080680	0.000254	2.539469	0.430198	0.000025
 711	7.0645e+01	7.0596	1.105528	0.000250	2.498510	0.423259	0.000025
 712	7.0745e+01	7.0713	1.134449	0.000291	2.908101	0.492646	0.000029
 713	7.0844e+01	7.0774	1.161334	0.000270	2.703306	0.457952	0.000027
 714	7.0944e+01	7.0892	1.187811	0.000266	2.662346	0.451014	0.000027
 715	7.1043e+01	7.0989	1.215510	0.000279	2.785224	0.471830	0.000028
 716	7.1142e+01	7.1108	1.244024	0.000287	2.867142	0.485707	0.000029
 717	7.1242e+01	7.1187	1.269279	0.000254	2.539469	0.430198	0.000025
 718	7.1341e+01	7.1285	1.296979	0.000279	2.785224	0.471830	0.000028
 719	7.1441e+01	7.1375	1.323456	0.000266	2.662346	0.451014	0.000027
 720	7.1540e+01	7.1478	1.351563	0.000283	2.826183	0.478768	0.000028
 721	7.1640e+01	7.1587	1.372744	0.000213	2.129877	0.360811	0.000021
 722	7.1740e+01	7.1705	1.399629	0.000270	2.703306	0.457952	0.000027
 723	7.1839e+01	7.1791	1.424070	0.000246	2.457551	0.416320	0.000025
 724	7.1939e+01	7.1913	1.450547	0.000266	2.662346	0.451014	0.000027
 725	7.2038e+01	7.2009	1.472136	0.000217	2.170836	0.367750	0.000022
 726	7.2138e+01	7.2091	1.496577	0.000246	2.457551	0.416320	0.000025
 727	7.2237e+01	7.2217	1.523054	0.000266	2.662346	0.451014	0.000027
 728	7.2337e+01	7.2269	1.548309	0.000254	2.539469	0.430198	0.000025
 729	7.2436e+01	7.2388	1.573972	0.000258	2.580428	0.437136	0.000026
 730	7.2535e+01	7.2497	1.599227	0.000254	2.539469	0.430198	0.000025
 731	7.2635e+01	7.2596	1.623260	0.000242	2.416591	0.409382	0.000024
 732	7.2734e+01	7.2689	1.647701	0.000246	2.457551	0.416320	0.000025
 733	7.2834e+01	7.2775	1.671326	0.000238	2.375632	0.402443	0.000024
 734	7.2933e+01	7.2886	1.697804	0.000266	2.662346	0.451014	0.000027
 735	7.3033e+01	7.3000	1.720615	0.000229	2.293714	0.388566	0.000023
 736	7.3132e+01	7.3092	1.746685	0.000262	2.621387	0.444075	0.000026
 737	7.3232e+01	7.3211	1.770718	0.000242	2.416591	0.409382	0.000024
 738	7.3332e+01	7.3286	1.795159	0.000246	2.457551	0.416320	0.000025
 739	7.3431e+01	7.3408	1.819192	0.000242	2.416591	0.409382	0.000024
 740	7.3531e+01	7.3496	1.841596	0.000225	2.252755	0.381627	0.000023
 741	7.3630e+01	7.3584	1.871739	0.000303	3.030979	0.513462	0.000030
 742	7.3730e+01	7.3702	1.893328	0.000217	2.170836	0.367750	0.000022
 743	7.3829e+01	7.3782	1.918583	0.000254	2.539469	0.430198	0.000025
 744	7.3928e+01	7.3878	1.941802	0.000233	2.334673	0.395504	0.000023
 745	7.4028e+01	7.3988	1.965020	0.000233	2.334673	0.395504	0.000023
 746	7.4127e+01	7.4075	1.989461	0.000246	2.457551	0.416320	0.000025
 747	7.4227e+01	7.4168	2.016753	0.000274	2.744265	0.464891	0.000027
 748	7.4326e+01	7.4274	2.037120	0.000205	2.047959	0.346934	0.000020
 749	7.4426e+01	7.4390	2.063597	0.000266	2.662346	0.451014	0.000027
 750	7.4525e+01	7.4474	2.086409	0.000229	2.293714	0.388566	0.000023
 751	7.4625e+01	7.4582	2.111664	0.000254	2.539469	0.430198	0.000025
 752	7.4725e+01	7.4667	2.134475	0.000229	2.293714	0.388566	0.000023
 753	7.4824e+01	7.4764	2.160545	0.000262	2.621387	0.444075	0.000026
 754	7.4924e+01	7.4873	2.183763	0.000233	2.334673	0.395504	0.000023
 755	7.5023e+01	7.4987	2.208204	0.000246	2.457551	0.416320	0.000025
 756	7.5123e+01	7.5074	2.233867	0.000258	2.580428	0.437136	0.000026
 757	7.5222e+01	7.5182	2.259936	0.000262	2.621387	0.444075	0.000026
 758	7.5322e+01	7.5282	2.281526	0.000217	2.170836	0.367750	0.000022
 759	7.5421e+01	7.5382	2.306781	0.000254	2.539469	0.430198	0.000025
 760	7.5520e+01	7.5443	2.334888	0.000283	2.826183	0.478768	0.000028
 761	7.5620e+01	7.5588	2.356477	0.000217	2.170836	0.367750	0.000022
 762	7.5719e+01	7.5687	2.382954	0.000266	2.662346	0.451014	0.000027
 763	7.5819e+01	7.5769	2.407394	0.000246	2.457551	0.416320	0.000025
 764	7.5918e+01	7.5864	2.431835	0.000246	2.457551	0.416320	0.000025
 765	7.6018e+01	7.5943	2.452202	0.000205	2.047959	0.346934	0.000020
 766	7.6118e+01	7.6067	2.479494	0.000274	2.744265	0.464891	0.000027
 767	7.6217e+01	7.6155	2.501898	0.000225	2.252755	0.381627	0.000023
 768	7.6317e+01	7.6275	2.528783	0.000270	2.703306	0.457952	0.000027
 769	7.6416e+01	7.6364	2.553223	0.000246	2.457551	0.416320	0.000025
 770	7.6516e+01	7.6461	2.575220	0.000221	2.211796	0.374688	0.000022
 771	7.6615e+01	7.6569	2.603326	0.000283	2.826183	0.478768	0.000028
 772	7.6715e+01	7.6684	2.628989	0.000258	2.580428	0.437136	0.000026
 773	7.6814e+01	7.6760	2.653837	0.000250	2.498510	0.423259	0.000025
 774	7.6913e+01	7.6878	2.675833	0.000221	2.211796	0.374688	0.000022
 775	7.7013e+01	7.6975	2.704347	0.000287	2.867142	0.485707	0.000029
 776	7.7112e+01	7.7070	2.727973	0.000238	2.375632	0.402443	0.000024
 777	7.7212e+01	7.7148	2.750784	0.000229	2.293714	0.388566	0.000023
 778	7.7311e+01	7.7241	2.775225	0.000246	2.457551	0.416320	0.000025
 779	7.7411e+01	7.7357	2.801702	0.000266	2.662346	0.451014	0.000027
 780	7.7510e+01	7.7457	2.823699	0.000221	2.211796	0.374688	0.000022
 781	7.7610e+01	7.7559	2.847732	0.000242	2.416591	0.409382	0.000024
 782	7.7710e+01	7.7656	2.872172	0.000246	2.457551	0.416320	0.000025
 783	7.7809e+01	7.7740	2.895798	0.000238	2.375632	0.402443	0.000024
 784	7.7909e+01	7.7827	2.917795	0.000221	2.211796	0.374688	0.000022
 785	7.8008e+01	7.7941	2.943865	0.000262	2.621387	0.444075	0.000026
 786	7.8108e+01	7.8049	2.964639	0.000209	2.088918	0.353872	0.000021
 787	7.8207e+01	7.8167	2.985821	0.000213	2.129877	0.360811	0.000021
 788	7.8306e+01	7.8253	3.012298	0.000266	2.662346	0.451014	0.000027
 789	7.8406e+01	7.8368	3.034295	0.000221	2.211796	0.374688	0.000022
 790	7.8505e+01	7.8462	3.054662	0.000205	2.047959	0.346934	0.000020
 791	7.8605e+01	7.8568	3.082361	0.000279	2.785224	0.471830	0.000028
 792	7.8704e+01	7.8650	3.103950	0.000217	2.170836	0.367750	0.000022
 793	7.8804e+01	7.8760	3.129205	0.000254	2.539469	0.430198	0.000025
 794	7.8903e+01	7.8863	3.151202	0.000221	2.211796	0.374688	0.000022
 795	7.9003e+01	7.8968	3.177679	0.000266	2.662346	0.451014	0.000027
 796	7.9103e+01	7.9053	3.198046	0.000205	2.047959	0.346934	0.000020
 797	7.9202e+01	7.9142	3.227782	0.000299	2.990020	0.506523	0.000030
 798	7.9302e+01	7.9273	3.251816	0.000242	2.416591	0.409382	0.000024
 799	7.9401e+01	7.9353	3.276663	0.000250	2.498510	0.423259	0.000025
 800	7.9501e+01	7.9481	3.298253	0.000217	2.170836	0.367750	0.000022
 801	7.9600e+01	7.9543	3.330025	0.000319	3.194816	0.541216	0.000032
 802	7.9700e+01	7.9634	3.354059	0.000242	2.416591	0.409382	0.000024
 803	7.9799e+01	7.9743	3.381351	0.000274	2.744265	0.464891	0.000027
 804	7.9898e+01	7.9826	3.406198	0.000250	2.498510	0.423259	0.000025
 805	7.9998e+01	7.9974	3.433898	0.000279	2.785224	0.471830	0.000028
 806	8.0097e+01	8.0054	3.459560	0.000258	2.580428	0.437136	0.000026
 807	8.0197e+01	8.0137	3.488482	0.000291	2.908101	0.492646	0.000029
 808	8.0296e+01	8.0225	3.516181	0.000279	2.785224	0.471830	0.000028
 809	8.0396e+01	8.0355	3.543880	0.000279	2.785224	0.471830	0.000028
 810	8.0496e+01	8.0445	3.573209	0.000295	2.949061	0.499584	0.000029
 811	8.0595e+01	8.0540	3.600501	0.000274	2.744265	0.464891	0.000027
 812	8.0695e+01	8.0654	3.630237	0.000299	2.990020	0.506523	0.000030
 813	8.0794e+01	8.0755	3.656714	0.000266	2.662346	0.451014	0.000027
 814	8.0894e+01	8.0833	3.686450	0.000299	2.990020	0.506523	0.000030
 815	8.0993e+01	8.0927	3.713335	0.000270	2.703306	0.457952	0.000027
 816	8.1093e+01	8.1047	3.744700	0.000315	3.153857	0.534278	0.000032
 817	8.1192e+01	8.1165	3.774436	0.000299	2.990020	0.506523	0.000030
 818	8.1291e+01	8.1243	3.802135	0.000279	2.785224	0.471830	0.000028
 819	8.1391e+01	8.1342	3.833501	0.000315	3.153857	0.534278	0.000032
 820	8.1490e+01	8.1444	3.864866	0.000315	3.153857	0.534278	0.000032
 821	8.1590e+01	8.1574	3.890121	0.000254	2.539469	0.430198	0.000025
 822	8.1689e+01	8.1641	3.926375	0.000365	3.645367	0.617542	0.000036
 823	8.1789e+01	8.1751	3.952037	0.000258	2.580428	0.437136	0.000026
 824	8.1888e+01	8.1828	3.983810	0.000319	3.194816	0.541216	0.000032
 825	8.1988e+01	8.1950	4.013546	0.000299	2.990020	0.506523	0.000030
 826	8.2088e+01	8.2025	4.045319	0.000319	3.194816	0.541216	0.000032
 827	8.2187e+01	8.2131	4.075870	0.000307	3.071938	0.520400	0.000031
 828	8.2287e+01	8.2216	4.104791	0.000291	2.908101	0.492646	0.000029
 829	8.2386e+01	8.2330	4.137786	0.000332	3.317693	0.562032	0.000033
 830	8.2486e+01	8.2446	4.166707	0.000291	2.908101	0.492646	0.000029
 831	8.2585e+01	8.2539	4.196850	0.000303	3.030979	0.513462	0.000030
 832	8.2684e+01	8.2618	4.234326	0.000377	3.768244	0.638358	0.000038
 833	8.2784e+01	8.2702	4.263654	0.000295	2.949061	0.499584	0.000029
 834	8.2883e+01	8.2830	4.296649	0.000332	3.317693	0.562032	0.000033
 835	8.2983e+01	8.2941	4.327200	0.000307	3.071938	0.520400	0.000031
 836	8.3082e+01	8.3044	4.357343	0.000303	3.030979	0.513462	0.000030
 837	8.3182e+01	8.3136	4.394819	0.000377	3.768244	0.638358	0.000038
 838	8.3281e+01	8.3230	4.426999	0.000324	3.235775	0.548155	0.000032
 839	8.3381e+01	8.3331	4.460808	0.000340	3.399612	0.575910	0.000034
 840	8.3481e+01	8.3433	4.493396	0.000328	3.276734	0.555094	0.000033
 841	8.3580e+01	8.3521	4.527612	0.000344	3.440571	0.582848	0.000034
 842	8.3680e+01	8.3637	4.557756	0.000303	3.030979	0.513462	0.000030
 843	8.3779e+01	8.3765	4.594824	0.000373	3.727285	0.631419	0.000037
 844	8.3879e+01	8.3828	4.624153	0.000295	2.949061	0.499584	0.000029
 845	8.3978e+01	8.3939	4.659184	0.000352	3.522489	0.596726	0.000035
 846	8.4078e+01	8.4009	4.692586	0.000336	3.358652	0.568971	0.000034
 847	8.4177e+01	8.4133	4.730469	0.000381	3.809203	0.645297	0.000038
 848	8.4276e+01	8.4217	4.762649	0.000324	3.235775	0.548155	0.000032
 849	8.4376e+01	8.4319	4.798495	0.000360	3.604407	0.610603	0.000036
 850	8.4475e+01	8.4434	4.831083	0.000328	3.276734	0.555094	0.000033
 851	8.4575e+01	8.4512	4.865707	0.000348	3.481530	0.589787	0.000035
 852	8.4674e+01	8.4627	4.898702	0.000332	3.317693	0.562032	0.000033
 853	8.4774e+01	8.4738	4.933733	0.000352	3.522489	0.596726	0.000035
 854	8.4874e+01	8.4792	4.969172	0.000356	3.563448	0.603664	0.000036
 855	8.4973e+01	8.4940	5.005425	0.000365	3.645367	0.617542	0.000036
 856	8.5073e+01	8.5028	5.037605	0.000324	3.235775	0.548155	0.000032
 857	8.5172e+01	8.5126	5.075896	0.000385	3.850163	0.652235	0.000038
 858	8.5272e+01	8.5214	5.111742	0.000360	3.604407	0.610603	0.000036
 859	8.5371e+01	8.5325	5.147588	0.000360	3.604407	0.610603	0.000036
 860	8.5471e+01	8.5419	5.179361	0.000319	3.194816	0.541216	0.000032
 861	8.5570e+01	8.5537	5.215614	0.000365	3.645367	0.617542	0.000036
 862	8.5669e+01	8.5609	5.255941	0.000405	4.054958	0.686929	0.000041
 863	8.5769e+01	8.5731	5.290972	0.000352	3.522489	0.596726	0.000035
 864	8.5868e+01	8.5853	5.330892	0.000401	4.013999	0.679990	0.000040
 865	8.5968e+01	8.5898	5.366738	0.000360	3.604407	0.610603	0.000036
 866	8.6067e+01	8.6024	5.404621	0.000381	3.809203	0.645297	0.000038
 867	8.6167e+01	8.6124	5.444133	0.000397	3.973040	0.673051	0.000040
 868	8.6266e+01	8.6195	5.482423	0.000385	3.850163	0.652235	0.000038
 869	8.6366e+01	8.6314	5.518677	0.000365	3.645367	0.617542	0.000036
 870	8.6466e+01	8.6429	5.561041	0.000426	4.259754	0.721622	0.000043
 871	8.6565e+01	8.6524	5.600553	0.000397	3.973040	0.673051	0.000040
 872	8.6665e+01	8.6625	5.638028	0.000377	3.768244	0.638358	0.000038
 873	8.6764e+01	8.6711	5.679577	0.000418	4.177836	0.707745	0.000042
 874	8.6864e+01	8.6793	5.721533	0.000422	4.218795	0.714683	0.000042
 875	8.6963e+01	8.6907	5.760231	0.000389	3.891122	0.659174	0.000039
 876	8.7063e+01	8.7023	5.800965	0.000410	4.095918	0.693867	0.000041
 877	8.7162e+01	8.7112	5.841700	0.000410	4.095918	0.693867	0.000041
 878	8.7261e+01	8.7217	5.880397	0.000389	3.891122	0.659174	0.000039
 879	8.7361e+01	8.7323	5.923168	0.000430	4.300713	0.728561	0.000043
 880	8.7460e+01	8.7407	5.965939	0.000430	4.300713	0.728561	0.000043
 881	8.7560e+01	8.7492	6.004637	0.000389	3.891122	0.659174	0.000039
 882	8.7659e+01	8.7607	6.046593	0.000422	4.218795	0.714683	0.000042
 883	8.7759e+01	8.7714	6.088956	0.000426	4.259754	0.721622	0.000043
 884	8.7859e+01	8.7793	6.128469	0.000397	3.973040	0.673051	0.000040
 885	8.7958e+01	8.7904	6.171240	0.000430	4.300713	0.728561	0.000043
 886	8.8058e+01	8.8010	6.211159	0.000401	4.013999	0.679990	0.000040
 887	8.8157e+01	8.8094	6.254745	0.000438	4.382632	0.742438	0.000044
 888	8.8257e+01	8.8220	6.298738	0.000442	4.423591	0.749377	0.000044
 889	8.8356e+01	8.8322	6.333362	0.000348	3.481530	0.589787	0.000035
 890	8.8456e+01	8.8388	6.373689	0.000405	4.054958	0.686929	0.000041
 891	8.8555e+01	8.8493	6.415238	0.000418	4.177836	0.707745	0.000042
 892	8.8654e+01	8.8618	6.464119	0.000492	4.915101	0.832641	0.000049
 893	8.8754e+01	8.8703	6.504853	0.000410	4.095918	0.693867	0.000041
 894	8.8853e+01	8.8789	6.545587	0.000410	4.095918	0.693867	0.000041
 895	8.8953e+01	8.8887	6.592025	0.000467	4.669346	0.791009	0.000047
 896	8.9052e+01	8.8992	6.633573	0.000418	4.177836	0.707745	0.000042
 897	8.9152e+01	8.9091	6.678381	0.000451	4.505509	0.763254	0.000045
 898	8.9251e+01	8.9228	6.719930	0.000418	4.177836	0.707745	0.000042
 899	8.9351e+01	8.9283	6.768404	0.000487	4.874142	0.825702	0.000049
 900	8.9451e+01	8.9405	6.811582	0.000434	4.341673	0.735499	0.000043
 901	8.9550e+01	8.9493	6.859241	0.000479	4.792224	0.811825	0.000048
 902	8.9650e+01	8.9606	6.904456	0.000455	4.546469	0.770193	0.000045
 903	8.9749e+01	8.9706	6.950893	0.000467	4.669346	0.791009	0.000047
 904	8.9849e+01	8.9780	6.996516	0.000459	4.587428	0.777131	0.000046
 905	8.9948e+01	8.9886	7.043767	0.000475	4.751264	0.804886	0.000047
 906	9.0047e+01	8.9970	7.089797	0.000463	4.628387	0.784070	0.000046
 907	9.0147e+01	9.0079	7.137049	0.000475	4.751264	0.804886	0.000047
 908	9.0246e+01	9.0189	7.178190	0.000414	4.136877	0.700806	0.000041
 909	9.0346e+01	9.0298	7.227479	0.000496	4.956060	0.839579	0.000050
 910	9.0445e+01	9.0366	7.270657	0.000434	4.341673	0.735499	0.000043
 911	9.0545e+01	9.0482	7.316687	0.000463	4.628387	0.784070	0.000046
 912	9.0644e+01	9.0591	7.364753	0.000483	4.833183	0.818763	0.000048
 913	9.0744e+01	9.0699	7.409561	0.000451	4.505509	0.763254	0.000045
 914	9.0844e+01	9.0791	7.459664	0.000504	5.037979	0.853457	0.000050
 915	9.0943e+01	9.0894	7.507323	0.000479	4.792224	0.811825	0.000048
 916	9.1043e+01	9.0974	7.552131	0.000451	4.505509	0.763254	0.000045
 917	9.1142e+01	9.1080	7.603863	0.000520	5.201815	0.881211	0.000052
 918	9.1242e+01	9.1170	7.651522	0.000479	4.792224	0.811825	0.000048
 919	9.1341e+01	9.1285	7.699996	0.000487	4.874142	0.825702	0.000049
 920	9.1441e+01	9.1386	7.746026	0.000463	4.628387	0.784070	0.000046
 921	9.1540e+01	9.1487	7.797351	0.000516	5.160856	0.874273	0.000052
 922	9.1639e+01	9.1583	7.848676	0.000516	5.160856	0.874273	0.000052
 923	9.1739e+01	9.1679	7.900409	0.000520	5.201815	0.881211	0.000052
 924	9.1838e+01	9.1797	7.952549	0.000524	5.242775	0.888150	0.000052
 925	9.1938e+01	9.1909	8.011613	0.000594	5.939081	1.006107	0.000059
 926	9.2037e+01	9.1987	8.061716	0.000504	5.037979	0.853457	0.000050
 927	9.2137e+01	9.2090	8.118744	0.000573	5.734285	0.971414	0.000057
 928	9.2237e+01	9.2188	8.174958	0.000565	5.652366	0.957537	0.000056
 929	9.2336e+01	9.2280	8.229542	0.000549	5.488530	0.929782	0.000055
 930	9.2436e+01	9.2385	8.281274	0.000520	5.201815	0.881211	0.000052
 931	9.2535e+01	9.2489	8.339931	0.000590	5.898121	0.999169	0.000059
 932	9.2635e+01	9.2570	8.395737	0.000561	5.611407	0.950598	0.000056
 933	9.2734e+01	9.2667	8.451543	0.000561	5.611407	0.950598	0.000056
 934	9.2834e+01	9.2783	8.512237	0.000610	6.102917	1.033862	0.000061
 935	9.2933e+01	9.2886	8.570487	0.000586	5.857162	0.992230	0.000059
 936	9.3032e+01	9.2976	8.627923	0.000578	5.775244	0.978353	0.000058
 937	9.3132e+01	9.3115	8.686580	0.000590	5.898121	0.999169	0.000059
 938	9.3231e+01	9.3179	8.752977	0.000668	6.676346	1.131004	0.000067
 939	9.3331e+01	9.3277	8.803895	0.000512	5.119897	0.867334	0.000051
 940	9.3430e+01	9.3366	8.871921	0.000684	6.840182	1.158758	0.000068
 941	9.3530e+01	9.3427	8.929763	0.000582	5.816203	0.985291	0.000058
 942	9.3629e+01	9.3562	8.989235	0.000598	5.980040	1.013046	0.000060
 943	9.3729e+01	9.3686	9.052374	0.000635	6.348672	1.075494	0.000063
 944	9.3829e+01	9.3780	9.114697	0.000627	6.266754	1.061617	0.000063
 945	9.3928e+01	9.3890	9.173762	0.000594	5.939081	1.006107	0.000059
 946	9.4028e+01	9.3972	9.236085	0.000627	6.266754	1.061617	0.000063
 947	9.4127e+01	9.4067	9.305333	0.000696	6.963060	1.179574	0.000070
 948	9.4227e+01	9.4180	9.371323	0.000664	6.635387	1.124065	0.000066
 949	9.4326e+01	9.4269	9.435683	0.000647	6.471550	1.096310	0.000065
 950	9.4425e+01	9.4349	9.498414	0.000631	6.307713	1.068556	0.000063
 951	9.4525e+01	9.4475	9.565218	0.000672	6.717305	1.137942	0.000067
 952	9.4624e+01	9.4547	9.628763	0.000639	6.389631	1.082433	0.000064
 953	9.4724e+01	9.4696	9.695567	0.000672	6.717305	1.137942	0.000067
 954	9.4823e+01	9.4775	9.759113	0.000639	6.389631	1.082433	0.000064
 955	9.4923e+01	9.4854	9.824695	0.000659	6.594427	1.117126	0.000066
 956	9.5022e+01	9.4978	9.888648	0.000643	6.430591	1.089372	0.000064
 957	9.5122e+01	9.5059	9.954637	0.000664	6.635387	1.124065	0.000066
 958	9.5222e+01	9.5112	10.021441	0.000672	6.717305	1.137942	0.000067
 959	9.5321e+01	9.5264	10.088246	0.000672	6.717305	1.137942	0.000067
 960	9.5421e+01	9.5372	10.157087	0.000692	6.922101	1.172636	0.000069
 961	9.5520e+01	9.5477	10.223483	0.000668	6.676346	1.131004	0.000067
 962	9.5620e+01	9.5566	10.291102	0.000680	6.799223	1.151820	0.000068
 963	9.5719e+01	9.5673	10.358721	0.000680	6.799223	1.151820	0.000068
 964	9.5819e+01	9.5752	10.427562	0.000692	6.922101	1.172636	0.000069
 965	9.5918e+01	9.5858	10.502106	0.000750	7.495529	1.269777	0.000075
 966	9.6017e+01	9.5959	10.571354	0.000696	6.963060	1.179574	0.000070
 967	9.6117e+01	9.6045	10.641824	0.000709	7.085937	1.200390	0.000071
 968	9.6216e+01	9.6177	10.710258	0.000688	6.881142	1.165697	0.000069
 969	9.6316e+01	9.6261	10.781543	0.000717	7.167856	1.214268	0.000072
 970	9.6415e+01	9.6373	10.849162	0.000680	6.799223	1.151820	0.000068
 971	9.6515e+01	9.6460	10.922076	0.000733	7.331693	1.242022	0.000073
 972	9.6615e+01	9.6582	10.995397	0.000737	7.372652	1.248961	0.000074
 973	9.6714e+01	9.6665	11.068312	0.000733	7.331693	1.242022	0.000073
 974	9.6814e+01	9.6765	11.137153	0.000692	6.922101	1.172636	0.000069
 975	9.6913e+01	9.6863	11.208030	0.000713	7.126897	1.207329	0.000071
 976	9.7013e+01	9.6967	11.280945	0.000733	7.331693	1.242022	0.000073
 977	9.7112e+01	9.7038	11.356710	0.000762	7.618407	1.290593	0.000076
 978	9.7212e+01	9.7119	11.433291	0.000770	7.700325	1.304470	0.000077
 979	9.7311e+01	9.7250	11.509871	0.000770	7.700325	1.304470	0.000077
 980	9.7410e+01	9.7365	11.586859	0.000774	7.741284	1.311409	0.000077
 981	9.7510e+01	9.7455	11.661403	0.000750	7.495529	1.269777	0.000075
 982	9.7609e+01	9.7552	11.735946	0.000750	7.495529	1.269777	0.000075
 983	9.7709e+01	9.7656	11.814156	0.000786	7.864162	1.332225	0.000079
 984	9.7808e+01	9.7727	11.894403	0.000807	8.068958	1.366918	0.000081
 985	9.7908e+01	9.7852	11.975871	0.000819	8.191835	1.387734	0.000082
 986	9.8007e+01	9.7949	12.050822	0.000754	7.536488	1.276716	0.000075
 987	9.8107e+01	9.8041	12.128217	0.000778	7.782243	1.318348	0.000078
 988	9.8207e+01	9.8127	12.213759	0.000860	8.601427	1.457121	0.000086
 989	9.8306e+01	9.8260	12.296857	0.000836	8.355672	1.415489	0.000084
 990	9.8406e+01	9.8356	12.379140	0.000827	8.273754	1.401612	0.000083
 991	9.8505e+01	9.8438	12.463867	0.000852	8.519509	1.443244	0.000085
 992	9.8605e+01	9.8535	12.547373	0.000840	8.396631	1.422428	0.000084
 993	9.8704e+01	9.8637	12.634137	0.000872	8.724304	1.477937	0.000087
 994	9.8803e+01	9.8759	12.723752	0.000901	9.011019	1.526508	0.000090
 995	9.8903e+01	9.8847	12.809701	0.000864	8.642386	1.464060	0.000086
 996	9.9002e+01	9.8939	12.893206	0.000840	8.396631	1.422428	0.000084
 997	9.9102e+01	9.9054	12.975490	0.000827	8.273754	1.401612	0.000083
 998	9.9201e+01	9.9142	13.062661	0.000877	8.765264	1.484876	0.000088
 999	9.9301e+01	9.9243	13.153091	0.000909	9.092937	1.540385	0.000091
1000	9.9400e+01	9.9335	13.244336	0.000917	9.174855	1.554263	0.000092
1001	9.9500e+01	9.9446	13.333544	0.000897	8.970060	1.519569	0.000090
1002	9.9600e+01	9.9529	13.423974	0.000909	9.092937	1.540385	0.000091
1003	9.9699e+01	9.9630	13.515219	0.000917	9.174855	1.554263	0.000092
1004	9.9799e+01	9.9747	13.605649	0.000909	9.092937	1.540385	0.000091
1005	9.9898e+01	9.9844	13.696893	0.000917	9.174855	1.554263	0.000092
1006	9.9998e+01	9.9902	13.792619	0.000963	9.625406	1.630588	0.000096
1007	1.0010e+02	9.9823	13.850054	-0.000578	-5.775244	-0.978353	0.000058
1008	1.0020e+02	9.9741	13.902194	-0.000524	-5.242775	-0.888150	0.000052
1009	1.0030e+02	9.9634	13.958000	-0.000561	-5.611407	-0.950598	0.000056
1010	1.0040e+02	9.9526	14.008510	-0.000508	-5.078938	-0.860395	0.000051
1011	1.0050e+02	9.9463	14.062687	-0.000545	-5.447570	-0.922843	0.000054
1012	1.0059e+02	9.9354	14.118085	-0.000557	-5.570448	-0.943659	0.000056
1013	1.0069e+02	9.9252	14.166152	-0.000483	-4.833183	-0.818763	0.000048
1014	1.0079e+02	9.9139	14.214218	-0.000483	-4.833183	-0.818763	0.000048
1015	1.0089e+02	9.9042	14.254545	-0.000405	-4.054958	-0.686929	0.000041
1016	1.0099e+02	9.8946	14.302204	-0.000479	-4.792224	-0.811825	0.000048
1017	1.0109e+02	9.8869	14.344568	-0.000426	-4.259754	-0.721622	0.000043
1018	1.0119e+02	9.8737	14.386932	-0.000426	-4.259754	-0.721622	0.000043
1019	1.0129e+02	9.8653	14.430110	-0.000434	-4.341673	-0.735499	0.000043
1020	1.0139e+02	9.8536	14.470844	-0.000410	-4.095918	-0.693867	0.000041
1021	1.0149e+02	9.8438	14.511171	-0.000405	-4.054958	-0.686929	0.000041
1022	1.0159e+02	9.8359	14.549461	-0.000385	-3.850163	-0.652235	0.000038
1023	1.0169e+02	9.8258	14.588566	-0.000393	-3.932081	-0.666113	0.000039
1024	1.0179e+02	9.8147	14.630522	-0.000422	-4.218795	-0.714683	0.000042
1025	1.0189e+02	9.8059	14.671664	-0.000414	-4.136877	-0.700806	0.000041
1026	1.0199e+02	9.7916	14.712806	-0.000414	-4.136877	-0.700806	0.000041
1027	1.0209e+02	9.7855	14.749059	-0.000365	-3.645367	-0.617542	0.000036
1028	1.0219e+02	9.7778	14.785313	-0.000365	-3.645367	-0.617542	0.000036
1029	1.0229e+02	9.7641	14.824417	-0.000393	-3.932081	-0.666113	0.000039
1030	1.0239e+02	9.7544	14.863522	-0.000393	-3.932081	-0.666113	0.000039
1031	1.0248e+02	9.7452	14.901405	-0.000381	-3.809203	-0.645297	0.000038
1032	1.0258e+02	9.7330	14.937659	-0.000365	-3.645367	-0.617542	0.000036
1033	1.0268e+02	9.7284	14.975134	-0.000377	-3.768244	-0.638358	0.000038
1034	1.0278e+02	9.7158	15.001611	-0.000266	-2.662346	-0.451014	0.000027
1035	1.0288e+02	9.7044	15.041531	-0.000401	-4.013999	-0.679990	0.000040
1036	1.0298e+02	9.6942	15.078599	-0.000373	-3.727285	-0.631419	0.000037
1037	1.0308e+02	9.6854	15.111187	-0.000328	-3.276734	-0.555094	0.000033
1038	1.0318e+02	9.6753	15.140108	-0.000291	-2.908101	-0.492646	0.000029
1039	1.0328e+02	9.6639	15.169844	-0.000299	-2.990020	-0.506523	0.000030
1040	1.0338e+02	9.6558	15.200802	-0.000311	-3.112897	-0.527339	0.000031
1041	1.0348e+02	9.6453	15.228094	-0.000274	-2.744265	-0.464891	0.000027
1042	1.0358e+02	9.6366	15.255386	-0.000274	-2.744265	-0.464891	0.000027
1043	1.0368e+02	9.6261	15.283085	-0.000279	-2.785224	-0.471830	0.000028
1044	1.0378e+02	9.6171	15.311599	-0.000287	-2.867142	-0.485707	0.000029
1045	1.0388e+02	9.6067	15.338891	-0.000274	-2.744265	-0.464891	0.000027
1046	1.0398e+02	9.5960	15.363332	-0.000246	-2.457551	-0.416320	0.000025
1047	1.0408e+02	9.5864	15.387365	-0.000242	-2.416591	-0.409382	0.000024
1048	1.0418e+02	9.5752	15.414249	-0.000270	-2.703306	-0.457952	0.000027
1049	1.0428e+02	9.5662	15.435431	-0.000213	-2.129877	-0.360811	0.000021
1050	1.0438e+02	9.5548	15.461501	-0.000262	-2.621387	-0.444075	0.000026
1051	1.0447e+02	9.5473	15.482276	-0.000209	-2.088918	-0.353872	0.000021
1052	1.0457e+02	9.5362	15.507124	-0.000250	-2.498510	-0.423259	0.000025
1053	1.0467e+02	9.5271	15.525047	-0.000180	-1.802204	-0.305302	0.000018
1054	1.0477e+02	9.5178	15.549487	-0.000246	-2.457551	-0.416320	0.000025
1055	1.0487e+02	9.5069	15.564966	-0.000156	-1.556449	-0.263670	0.000016
1056	1.0497e+02	9.4946	15.588592	-0.000238	-2.375632	-0.402443	0.000024
1057	1.0507e+02	9.4839	15.602442	-0.000139	-1.392612	-0.235915	0.000014
1058	1.0517e+02	9.4789	15.616699	-0.000143	-1.433571	-0.242854	0.000014
1059	1.0527e+02	9.4669	15.637881	-0.000213	-2.129877	-0.360811	0.000021
1060	1.0537e+02	9.4556	15.653767	-0.000160	-1.597408	-0.270608	0.000016
1061	1.0547e+02	9.4458	15.672097	-0.000184	-1.843163	-0.312240	0.000018
1062	1.0557e+02	9.4370	15.680652	-0.000086	-0.860143	-0.145712	0.000009
1063	1.0567e+02	9.4276	15.696945	-0.000164	-1.638367	-0.277547	0.000016
1064	1.0577e+02	9.4180	15.701426	-0.000045	-0.450551	-0.076325	0.000005
1065	1.0587e+02	9.4080	15.714868	-0.000135	-1.351653	-0.228976	0.000014
1066	1.0597e+02	9.3958	15.725459	-0.000106	-1.064939	-0.180405	0.000011
1067	1.0607e+02	9.3875	15.740124	-0.000147	-1.474530	-0.249792	0.000015
1068	1.0617e+02	9.3802	15.749492	-0.000094	-0.942061	-0.159589	0.000009
1069	1.0627e+02	9.3659	15.759676	-0.000102	-1.023979	-0.173467	0.000010
1070	1.0637e+02	9.3580	15.774748	-0.000152	-1.515490	-0.256731	0.000015
1071	1.0647e+02	9.3457	15.784117	-0.000094	-0.942061	-0.159589	0.000009
1072	1.0656e+02	9.3391	15.795929	-0.000119	-1.187816	-0.201221	0.000012
1073	1.0666e+02	9.3262	15.803262	-0.000074	-0.737265	-0.124896	0.000007
1074	1.0676e+02	9.3143	15.815482	-0.000123	-1.228775	-0.208160	0.000012
1075	1.0686e+02	9.3079	15.821592	-0.000061	-0.614388	-0.104080	0.000006
1076	1.0696e+02	9.2963	15.835849	-0.000143	-1.433571	-0.242854	0.000014
1077	1.0706e+02	9.2905	15.843589	-0.000078	-0.778224	-0.131835	0.000008
1078	1.0716e+02	9.2783	15.848477	-0.000049	-0.491510	-0.083264	0.000005
1079	1.0726e+02	9.2669	15.851328	-0.000029	-0.286714	-0.048571	0.000003
1080	1.0736e+02	9.2590	15.857438	-0.000061	-0.614388	-0.104080	0.000006
1081	1.0746e+02	9.2475	15.866400	-0.000090	-0.901102	-0.152651	0.000009
1082	1.0756e+02	9.2371	15.876583	-0.000102	-1.023979	-0.173467	0.000010
1083	1.0766e+02	9.2285	15.880657	-0.000041	-0.409592	-0.069387	0.000004
1084	1.0776e+02	9.2196	15.892062	-0.000115	-1.146857	-0.194283	0.000011
1085	1.0786e+02	9.2103	15.899802	-0.000078	-0.778224	-0.131835	0.000008
1086	1.0796e+02	9.2003	15.911207	-0.000115	-1.146857	-0.194283	0.000011
1087	1.0806e+02	9.1870	15.913244	-0.000020	-0.204796	-0.034693	0.000002
1088	1.0816e+02	9.1769	15.922613	-0.000094	-0.942061	-0.159589	0.000009
1089	1.0826e+02	9.1682	15.923835	-0.000012	-0.122878	-0.020816	0.000001
1090	1.0836e+02	9.1609	15.929945	-0.000061	-0.614388	-0.104080	0.000006
1091	1.0845e+02	9.1504	15.930353	-0.000004	-0.040959	-0.006939	0.000000
1092	1.0855e+02	9.1375	15.939721	-0.000094	-0.942061	-0.159589	0.000009
1093	1.0865e+02	9.1244	15.940943	-0.000012	-0.122878	-0.020816	0.000001
1094	1.0875e+02	9.1191	15.942980	-0.000020	-0.204796	-0.034693	0.000002
1095	1.0885e+02	9.1071	15.947868	-0.000049	-0.491510	-0.083264	0.000005
1096	1.0895e+02	9.0979	15.953571	-0.000057	-0.573428	-0.097141	0.000006
1097	1.0905e+02	9.0874	15.956422	-0.000029	-0.286714	-0.048571	0.000003
1098	1.0915e+02	9.0802	15.956015	0.000004	0.040959	0.006939	-0.000000
1099	1.0925e+02	9.0701	15.956422	-0.000004	-0.040959	-0.006939	0.000000
1100	1.0935e+02	9.0598	15.956830	-0.000004	-0.040959	-0.006939	0.000000
1101	1.0945e+02	9.0495	15.958866	-0.000020	-0.204796	-0.034693	0.000002
1102	1.0955e+02	9.0372	15.960496	-0.000016	-0.163837	-0.027755	0.000002
1103	1.0965e+02	9.0308	15.962125	-0.000016	-0.163837	-0.027755	0.000002
1104	1.0975e+02	9.0208	15.962940	-0.000008	-0.081918	-0.013877	0.000001
1105	1.0985e+02	9.0091	15.962533	0.000004	0.040959	0.006939	-0.000000
1106	1.0995e+02	8.9967	15.960089	0.000025	0.245755	0.041632	-0.000002
1107	1.1005e+02	8.9918	15.960496	-0.000004	-0.040959	-0.006939	0.000000
1108	1.1015e+02	8.9775	15.955200	0.000053	0.532469	0.090203	-0.000005
1109	1.1025e+02	8.9664	15.950312	0.000049	0.491510	0.083264	-0.000005
1110	1.1035e+02	8.9600	15.950312	-0.000000	-0.000000	-0.000000	0.000000
1111	1.1044e+02	8.9481	15.948683	0.000016	0.163837	0.027755	-0.000002
1112	1.1054e+02	8.9384	15.942573	0.000061	0.614388	0.104080	-0.000006
1113	1.1064e+02	8.9307	15.939721	0.000029	0.286714	0.048571	-0.000003
1114	1.1074e+02	8.9185	15.933611	0.000061	0.614388	0.104080	-0.000006
1115	1.1084e+02	8.9130	15.926279	0.000074	0.737265	0.124896	-0.000007
1116	1.1094e+02	8.8996	15.916910	0.000094	0.942061	0.159589	-0.000009
1117	1.1104e+02	8.8941	15.911207	0.000057	0.573428	0.097141	-0.000006
1118	1.1114e+02	8.8786	15.901431	0.000098	0.983020	0.166528	-0.000010
1119	1.1124e+02	8.8712	15.894099	0.000074	0.737265	0.124896	-0.000007
1120	1.1134e+02	8.8586	15.886360	0.000078	0.778224	0.131835	-0.000008
1121	1.1144e+02	8.8495	15.876991	0.000094	0.942061	0.159589	-0.000009
1122	1.1154e+02	8.8412	15.865178	0.000119	1.187816	0.201221	-0.000012
1123	1.1164e+02	8.8295	15.856216	0.000090	0.901102	0.152651	-0.000009
1124	1.1174e+02	8.8221	15.846847	0.000094	0.942061	0.159589	-0.000009
1125	1.1184e+02	8.8098	15.836256	0.000106	1.064939	0.180405	-0.000011
1126	1.1194e+02	8.7988	15.826480	0.000098	0.983020	0.166528	-0.000010
1127	1.1204e+02	8.7945	15.815482	0.000111	1.105898	0.187344	-0.000011
1128	1.1214e+02	8.7823	15.807742	0.000078	0.778224	0.131835	-0.000008
1129	1.1224e+02	8.7699	15.795522	0.000123	1.228775	0.208160	-0.000012
1130	1.1234e+02	8.7623	15.784524	0.000111	1.105898	0.187344	-0.000011
1131	1.1244e+02	8.7513	15.775562	0.000090	0.901102	0.152651	-0.000009
1132	1.1253e+02	8.7431	15.764564	0.000111	1.105898	0.187344	-0.000011
1133	1.1263e+02	8.7319	15.756417	0.000082	0.819184	0.138773	-0.000008
1134	1.1273e+02	8.7221	15.748678	0.000078	0.778224	0.131835	-0.000008
1135	1.1283e+02	8.7109	15.740124	0.000086	0.860143	0.145712	-0.000009
1136	1.1293e+02	8.7057	15.726681	0.000135	1.351653	0.228976	-0.000014
1137	1.1303e+02	8.6925	15.713646	0.000131	1.310694	0.222038	-0.000013
1138	1.1313e+02	8.6811	15.707129	0.000066	0.655347	0.111019	-0.000007
1139	1.1323e+02	8.6733	15.694909	0.000123	1.228775	0.208160	-0.000012
1140	1.1333e+02	8.6636	15.685132	0.000098	0.983020	0.166528	-0.000010
1141	1.1343e+02	8.6497	15.681059	0.000041	0.409592	0.069387	-0.000004
1142	1.1353e+02	8.6415	15.667617	0.000135	1.351653	0.228976	-0.000014
1143	1.1363e+02	8.6324	15.658248	0.000094	0.942061	0.159589	-0.000009
1144	1.1373e+02	8.6211	15.649693	0.000086	0.860143	0.145712	-0.000009
1145	1.1383e+02	8.6123	15.641954	0.000078	0.778224	0.131835	-0.000008
1146	1.1393e+02	8.6028	15.630956	0.000111	1.105898	0.187344	-0.000011
1147	1.1403e+02	8.5941	15.622402	0.000086	0.860143	0.145712	-0.000009
1148	1.1413e+02	8.5816	15.610996	0.000115	1.146857	0.194283	-0.000011
1149	1.1423e+02	8.5718	15.605293	0.000057	0.573428	0.097141	-0.000006
1150	1.1433e+02	8.5630	15.595517	0.000098	0.983020	0.166528	-0.000010
1151	1.1442e+02	8.5512	15.584519	0.000111	1.105898	0.187344	-0.000011
1152	1.1452e+02	8.5414	15.577187	0.000074	0.737265	0.124896	-0.000007
1153	1.1462e+02	8.5303	15.569854	0.000074	0.737265	0.124896	-0.000007
1154	1.1472e+02	8.5222	15.557227	0.000127	1.269734	0.215099	-0.000013
1155	1.1482e+02	8.5132	15.550302	0.000070	0.696306	0.117957	-0.000007
1156	1.1492e+02	8.5023	15.538896	0.000115	1.146857	0.194283	-0.000011
1157	1.1502e+02	8.4948	15.529120	0.000098	0.983020	0.166528	-0.000010
1158	1.1512e+02	8.4832	15.519751	0.000094	0.942061	0.159589	-0.000009
1159	1.1522e+02	8.4735	15.509568	0.000102	1.023979	0.173467	-0.000010
1160	1.1532e+02	8.4626	15.498977	0.000106	1.064939	0.180405	-0.000011
1161	1.1542e+02	8.4513	15.486349	0.000127	1.269734	0.215099	-0.000013
1162	1.1552e+02	8.4441	15.479832	0.000066	0.655347	0.111019	-0.000007
1163	1.1562e+02	8.4329	15.470463	0.000094	0.942061	0.159589	-0.000009
1164	1.1572e+02	8.4214	15.457020	0.000135	1.351653	0.228976	-0.000014
1165	1.1582e+02	8.4132	15.446430	0.000106	1.064939	0.180405	-0.000011
1166	1.1592e+02	8.4015	15.435431	0.000111	1.105898	0.187344	-0.000011
1167	1.1602e+02	8.3942	15.425655	0.000098	0.983020	0.166528	-0.000010
1168	1.1612e+02	8.3833	15.413027	0.000127	1.269734	0.215099	-0.000013
1169	1.1622e+02	8.3720	15.404066	0.000090	0.901102	0.152651	-0.000009
1170	1.1632e+02	8.3643	15.394290	0.000098	0.983020	0.166528	-0.000010
1171	1.1642e+02	8.3516	15.384513	0.000098	0.983020	0.166528	-0.000010
1172	1.1651e+02	8.3416	15.369849	0.000147	1.474530	0.249792	-0.000015
1173	1.1661e+02	8.3326	15.356814	0.000131	1.310694	0.222038	-0.000013
1174	1.1671e+02	8.3252	15.348667	0.000082	0.819184	0.138773	-0.000008
1175	1.1681e+02	8.3149	15.334003	0.000147	1.474530	0.249792	-0.000015
1176	1.1691e+02	8.3011	15.325856	0.000082	0.819184	0.138773	-0.000008
1177	1.1701e+02	8.2944	15.314858	0.000111	1.105898	0.187344	-0.000011
1178	1.1711e+02	8.2822	15.303045	0.000119	1.187816	0.201221	-0.000012
1179	1.1721e+02	8.2728	15.291639	0.000115	1.146857	0.194283	-0.000011
1180	1.1731e+02	8.2642	15.279419	0.000123	1.228775	0.208160	-0.000012
1181	1.1741e+02	8.2520	15.264347	0.000152	1.515490	0.256731	-0.000015
1182	1.1751e+02	8.2435	15.253349	0.000111	1.105898	0.187344	-0.000011
1183	1.1761e+02	8.2330	15.241944	0.000115	1.146857	0.194283	-0.000011
1184	1.1771e+02	8.2214	15.226872	0.000152	1.515490	0.256731	-0.000015
1185	1.1781e+02	8.2149	15.214652	0.000123	1.228775	0.208160	-0.000012
1186	1.1791e+02	8.2031	15.203653	0.000111	1.105898	0.187344	-0.000011
1187	1.1801e+02	8.1909	15.189396	0.000143	1.433571	0.242854	-0.000014
1188	1.1811e+02	8.1857	15.179213	0.000102	1.023979	0.173467	-0.000010
1189	1.1821e+02	8.1719	15.164141	0.000152	1.515490	0.256731	-0.000015
1190	1.1831e+02	8.1651	15.150699	0.000135	1.351653	0.228976	-0.000014
1191	1.1841e+02	8.1509	15.140923	0.000098	0.983020	0.166528	-0.000010
1192	1.1850e+02	8.1445	15.124629	0.000164	1.638367	0.277547	-0.000016
1193	1.1860e+02	8.1315	15.112409	0.000123	1.228775	0.208160	-0.000012
1194	1.1870e+02	8.1223	15.099374	0.000131	1.310694	0.222038	-0.000013
1195	1.1880e+02	8.1133	15.091227	0.000082	0.819184	0.138773	-0.000008
1196	1.1890e+02	8.1036	15.076563	0.000147	1.474530	0.249792	-0.000015
1197	1.1900e+02	8.0940	15.064342	0.000123	1.228775	0.208160	-0.000012
1198	1.1910e+02	8.0840	15.051307	0.000131	1.310694	0.222038	-0.000013
1199	1.1920e+02	8.0748	15.042753	0.000086	0.860143	0.145712	-0.000009
1200	1.1930e+02	8.0633	15.026052	0.000168	1.679326	0.284486	-0.000017
1201	1.1940e+02	8.0551	15.014239	0.000119	1.187816	0.201221	-0.000012
1202	1.1950e+02	8.0470	15.004056	0.000102	1.023979	0.173467	-0.000010
1203	1.1960e+02	8.0338	14.992243	0.000119	1.187816	0.201221	-0.000012
1204	1.1970e+02	8.0241	14.979615	0.000127	1.269734	0.215099	-0.000013
1205	1.1980e+02	8.0144	14.968617	0.000111	1.105898	0.187344	-0.000011
1206	1.1990e+02	8.0056	14.959248	0.000094	0.942061	0.159589	-0.000009
1207	1.2000e+02	7.9956	14.949472	0.000098	0.983020	0.166528	-0.000010
1208	1.2010e+02	7.9847	14.938066	0.000115	1.146857	0.194283	-0.000011
1209	1.2020e+02	7.9751	14.924624	0.000135	1.351653	0.228976	-0.000014
1210	1.2030e+02	7.9660	14.913625	0.000111	1.105898	0.187344	-0.000011
1211	1.2039e+02	7.9554	14.901813	0.000119	1.187816	0.201221	-0.000012
1212	1.2049e+02	7.9468	14.887148	0.000147	1.474530	0.249792	-0.000015
1213	1.2059e+02	7.9350	14.873299	0.000139	1.392612	0.235915	-0.000014
1214	1.2069e+02	7.9244	14.864744	0.000086	0.860143	0.145712	-0.000009
1215	1.2079e+02	7.9139	14.847636	0.000172	1.720285	0.291424	-0.000017
1216	1.2089e+02	7.9041	14.837045	0.000106	1.064939	0.180405	-0.000011
1217	1.2099e+02	7.8930	14.826454	0.000106	1.064939	0.180405	-0.000011
1218	1.2109e+02	7.8882	14.811790	0.000147	1.474530	0.249792	-0.000015
1219	1.2119e+02	7.8760	14.799162	0.000127	1.269734	0.215099	-0.000013
1220	1.2129e+02	7.8635	14.782461	0.000168	1.679326	0.284486	-0.000017
1221	1.2139e+02	7.8555	14.770241	0.000123	1.228775	0.208160	-0.000012
1222	1.2149e+02	7.8448	14.752318	0.000180	1.802204	0.305302	-0.000018
1223	1.2159e+02	7.8350	14.740505	0.000119	1.187816	0.201221	-0.000012
1224	1.2169e+02	7.8262	14.722582	0.000180	1.802204	0.305302	-0.000018
1225	1.2179e+02	7.8160	14.707510	0.000152	1.515490	0.256731	-0.000015
1226	1.2189e+02	7.8070	14.688365	0.000193	1.925081	0.326118	-0.000019
1227	1.2199e+02	7.7980	14.672071	0.000164	1.638367	0.277547	-0.000016
1228	1.2209e+02	7.7860	14.661073	0.000111	1.105898	0.187344	-0.000011
1229	1.2219e+02	7.7765	14.642743	0.000184	1.843163	0.312240	-0.000018
1230	1.2229e+02	7.7662	14.626449	0.000164	1.638367	0.277547	-0.000016
1231	1.2239e+02	7.7551	14.609748	0.000168	1.679326	0.284486	-0.000017
1232	1.2248e+02	7.7447	14.592640	0.000172	1.720285	0.291424	-0.000017
1233	1.2258e+02	7.7357	14.576753	0.000160	1.597408	0.270608	-0.000016
1234	1.2268e+02	7.7254	14.558830	0.000180	1.802204	0.305302	-0.000018
1235	1.2278e+02	7.7154	14.543758	0.000152	1.515490	0.256731	-0.000015
1236	1.2288e+02	7.7075	14.527465	0.000164	1.638367	0.277547	-0.000016
1237	1.2298e+02	7.6965	14.510356	0.000172	1.720285	0.291424	-0.000017
1238	1.2308e+02	7.6862	14.492433	0.000180	1.802204	0.305302	-0.000018
1239	1.2318e+02	7.6794	14.474510	0.000180	1.802204	0.305302	-0.000018
1240	1.2328e+02	7.6690	14.459439	0.000152	1.515490	0.256731	-0.000015
1241	1.2338e+02	7.6578	14.441108	0.000184	1.843163	0.312240	-0.000018
1242	1.2348e+02	7.6456	14.421148	0.000201	2.007000	0.339995	-0.000020
1243	1.2358e+02	7.6371	14.404040	0.000172	1.720285	0.291424	-0.000017
1244	1.2368e+02	7.6257	14.388154	0.000160	1.597408	0.270608	-0.000016
1245	1.2378e+02	7.6182	14.370231	0.000180	1.802204	0.305302	-0.000018
1246	1.2388e+02	7.6062	14.350271	0.000201	2.007000	0.339995	-0.000020
1247	1.2398e+02	7.5978	14.332348	0.000180	1.802204	0.305302	-0.000018
1248	1.2408e+02	7.5848	14.315239	0.000172	1.720285	0.291424	-0.000017
1249	1.2418e+02	7.5778	14.297316	0.000180	1.802204	0.305302	-0.000018
1250	1.2428e+02	7.5693	14.280208	0.000172	1.720285	0.291424	-0.000017
1251	1.2438e+02	7.5588	14.262692	0.000176	1.761245	0.298363	-0.000018
1252	1.2447e+02	7.5464	14.241918	0.000209	2.088918	0.353872	-0.000021
1253	1.2457e+02	7.5372	14.226031	0.000160	1.597408	0.270608	-0.000016
1254	1.2467e+02	7.5261	14.207701	0.000184	1.843163	0.312240	-0.000018
1255	1.2477e+02	7.5175	14.184890	0.000229	2.293714	0.388566	-0.000023
1256	1.2487e+02	7.5073	14.167781	0.000172	1.720285	0.291424	-0.000017
1257	1.2497e+02	7.4993	14.148636	0.000193	1.925081	0.326118	-0.000019
1258	1.2507e+02	7.4873	14.130713	0.000180	1.802204	0.305302	-0.000018
1259	1.2517e+02	7.4807	14.112790	0.000180	1.802204	0.305302	-0.000018
1260	1.2527e+02	7.4670	14.092830	0.000201	2.007000	0.339995	-0.000020
1261	1.2537e+02	7.4609	14.077351	0.000156	1.556449	0.263670	-0.000016
1262	1.2547e+02	7.4468	14.056984	0.000205	2.047959	0.346934	-0.000020
1263	1.2557e+02	7.4343	14.035395	0.000217	2.170836	0.367750	-0.000022
1264	1.2567e+02	7.4264	14.018287	0.000172	1.720285	0.291424	-0.000017
1265	1.2577e+02	7.4183	13.999549	0.000188	1.884122	0.319179	-0.000019
1266	1.2587e+02	7.4105	13.975923	0.000238	2.375632	0.402443	-0.000024
1267	1.2597e+02	7.3997	13.958000	0.000180	1.802204	0.305302	-0.000018
1268	1.2607e+02	7.3913	13.942928	0.000152	1.515490	0.256731	-0.000015
1269	1.2617e+02	7.3768	13.922561	0.000205	2.047959	0.346934	-0.000020
1270	1.2627e+02	7.3662	13.903823	0.000188	1.884122	0.319179	-0.000019
1271	1.2636e+02	7.3586	13.881827	0.000221	2.211796	0.374688	-0.000022
1272	1.2646e+02	7.3464	13.863904	0.000180	1.802204	0.305302	-0.000018
1273	1.2656e+02	7.3378	13.843944	0.000201	2.007000	0.339995	-0.000020
1274	1.2666e+02	7.3270	13.822762	0.000213	2.129877	0.360811	-0.000021
1275	1.2676e+02	7.3196	13.802802	0.000201	2.007000	0.339995	-0.000020
1276	1.2686e+02	7.3072	13.786101	0.000168	1.679326	0.284486	-0.000017
1277	1.2696e+02	7.2981	13.764919	0.000213	2.129877	0.360811	-0.000021
1278	1.2706e+02	7.2887	13.744552	0.000205	2.047959	0.346934	-0.000020
1279	1.2716e+02	7.2786	13.724593	0.000201	2.007000	0.339995	-0.000020
1280	1.2726e+02	7.2664	13.704225	0.000205	2.047959	0.346934	-0.000020
1281	1.2736e+02	7.2615	13.684673	0.000197	1.966040	0.333056	-0.000020
1282	1.2746e+02	7.2492	13.662677	0.000221	2.211796	0.374688	-0.000022
1283	1.2756e+02	7.2388	13.644346	0.000184	1.843163	0.312240	-0.000018
1284	1.2766e+02	7.2277	13.621535	0.000229	2.293714	0.388566	-0.000023
1285	1.2776e+02	7.2210	13.599538	0.000221	2.211796	0.374688	-0.000022
1286	1.2786e+02	7.2097	13.576727	0.000229	2.293714	0.388566	-0.000023
1287	1.2796e+02	7.1953	13.557175	0.000197	1.966040	0.333056	-0.000020
1288	1.2806e+02	7.1905	13.534771	0.000225	2.252755	0.381627	-0.000023
1289	1.2816e+02	7.1806	13.511552	0.000233	2.334673	0.395504	-0.000023
1290	1.2826e+02	7.1682	13.487927	0.000238	2.375632	0.402443	-0.000024
1291	1.2835e+02	7.1602	13.466745	0.000213	2.129877	0.360811	-0.000021
1292	1.2845e+02	7.1497	13.445563	0.000213	2.129877	0.360811	-0.000021
1293	1.2855e+02	7.1387	13.422752	0.000229	2.293714	0.388566	-0.000023
1294	1.2865e+02	7.1345	13.397497	0.000254	2.539469	0.430198	-0.000025
1295	1.2875e+02	7.1191	13.380388	0.000172	1.720285	0.291424	-0.000017
1296	1.2885e+02	7.1087	13.354726	0.000258	2.580428	0.437136	-0.000026
1297	1.2895e+02	7.1001	13.335580	0.000193	1.925081	0.326118	-0.000019
1298	1.2905e+02	7.0889	13.306659	0.000291	2.908101	0.492646	-0.000029
1299	1.2915e+02	7.0810	13.285885	0.000209	2.088918	0.353872	-0.000021
1300	1.2925e+02	7.0705	13.265518	0.000205	2.047959	0.346934	-0.000020
1301	1.2935e+02	7.0620	13.244743	0.000209	2.088918	0.353872	-0.000021
1302	1.2945e+02	7.0527	13.225191	0.000197	1.966040	0.333056	-0.000020
1303	1.2955e+02	7.0412	13.204416	0.000209	2.088918	0.353872	-0.000021
1304	1.2965e+02	7.0302	13.180383	0.000242	2.416591	0.409382	-0.000024
1305	1.2975e+02	7.0197	13.157979	0.000225	2.252755	0.381627	-0.000023
1306	1.2985e+02	7.0110	13.138834	0.000193	1.925081	0.326118	-0.000019
1307	1.2995e+02	6.9998	13.120504	0.000184	1.843163	0.312240	-0.000018
1308	1.3005e+02	6.9891	13.098507	0.000221	2.211796	0.374688	-0.000022
1309	1.3015e+02	6.9825	13.080177	0.000184	1.843163	0.312240	-0.000018
1310	1.3025e+02	6.9729	13.061439	0.000188	1.884122	0.319179	-0.000019
1311	1.3034e+02	6.9610	13.040664	0.000209	2.088918	0.353872	-0.000021
1312	1.3044e+02	6.9502	13.022741	0.000180	1.802204	0.305302	-0.000018
1313	1.3054e+02	6.9411	13.002782	0.000201	2.007000	0.339995	-0.000020
1314	1.3064e+02	6.9289	12.985266	0.000176	1.761245	0.298363	-0.000018
1315	1.3074e+02	6.9212	12.965306	0.000201	2.007000	0.339995	-0.000020
1316	1.3084e+02	6.9106	12.945754	0.000197	1.966040	0.333056	-0.000020
1317	1.3094e+02	6.9009	12.927831	0.000180	1.802204	0.305302	-0.000018
1318	1.3104e+02	6.8911	12.908685	0.000193	1.925081	0.326118	-0.000019
1319	1.3114e+02	6.8831	12.888318	0.000205	2.047959	0.346934	-0.000020
1320	1.3124e+02	6.8679	12.869988	0.000184	1.843163	0.312240	-0.000018
1321	1.3134e+02	6.8633	12.850843	0.000193	1.925081	0.326118	-0.000019
1322	1.3144e+02	6.8486	12.829661	0.000213	2.129877	0.360811	-0.000021
1323	1.3154e+02	6.8404	12.812960	0.000168	1.679326	0.284486	-0.000017
1324	1.3164e+02	6.8294	12.792593	0.000205	2.047959	0.346934	-0.000020
1325	1.3174e+02	6.8205	12.773040	0.000197	1.966040	0.333056	-0.000020
1326	1.3184e+02	6.8119	12.754710	0.000184	1.843163	0.312240	-0.000018
1327	1.3194e+02	6.7980	12.735565	0.000193	1.925081	0.326118	-0.000019
1328	1.3204e+02	6.7924	12.716827	0.000188	1.884122	0.319179	-0.000019
1329	1.3214e+02	6.7817	12.698497	0.000184	1.843163	0.312240	-0.000018
1330	1.3224e+02	6.7692	12.678537	0.000201	2.007000	0.339995	-0.000020
1331	1.3234e+02	6.7629	12.662243	0.000164	1.638367	0.277547	-0.000016
1332	1.3243e+02	6.7510	12.642691	0.000197	1.966040	0.333056	-0.000020
1333	1.3253e+02	6.7426	12.622731	0.000201	2.007000	0.339995	-0.000020
1334	1.3263e+02	6.7345	12.606845	0.000160	1.597408	0.270608	-0.000016
1335	1.3273e+02	6.7214	12.591773	0.000152	1.515490	0.256731	-0.000015
1336	1.3283e+02	6.7115	12.571813	0.000201	2.007000	0.339995	-0.000020
1337	1.3293e+02	6.7010	12.552668	0.000193	1.925081	0.326118	-0.000019
1338	1.3303e+02	6.6897	12.531894	0.000209	2.088918	0.353872	-0.000021
1339	1.3313e+02	6.6805	12.513156	0.000188	1.884122	0.319179	-0.000019
1340	1.3323e+02	6.6703	12.495640	0.000176	1.761245	0.298363	-0.000018
1341	1.3333e+02	6.6619	12.474051	0.000217	2.170836	0.367750	-0.000022
1342	1.3343e+02	6.6533	12.457350	0.000168	1.679326	0.284486	-0.000017
1343	1.3353e+02	6.6424	12.443908	0.000135	1.351653	0.228976	-0.000014
1344	1.3363e+02	6.6319	12.420282	0.000238	2.375632	0.402443	-0.000024
1345	1.3373e+02	6.6225	12.405617	0.000147	1.474530	0.249792	-0.000015
1346	1.3383e+02	6.6111	12.389324	0.000164	1.638367	0.277547	-0.000016
1347	1.3393e+02	6.6033	12.367327	0.000221	2.211796	0.374688	-0.000022
1348	1.3403e+02	6.5942	12.350219	0.000172	1.720285	0.291424	-0.000017
1349	1.3413e+02	6.5847	12.331074	0.000193	1.925081	0.326118	-0.000019
1350	1.3423e+02	6.5745	12.315187	0.000160	1.597408	0.270608	-0.000016
1351	1.3432e+02	6.5625	12.295228	0.000201	2.007000	0.339995	-0.000020
1352	1.3442e+02	6.5520	12.274860	0.000205	2.047959	0.346934	-0.000020
1353	1.3452e+02	6.5423	12.255308	0.000197	1.966040	0.333056	-0.000020
1354	1.3462e+02	6.5337	12.238607	0.000168	1.679326	0.284486	-0.000017
1355	1.3472e+02	6.5228	12.219869	0.000188	1.884122	0.319179	-0.000019
1356	1.3482e+02	6.5101	12.203983	0.000160	1.597408	0.270608	-0.000016
1357	1.3492e+02	6.5020	12.179950	0.000242	2.416591	0.409382	-0.000024
1358	1.3502e+02	6.4915	12.163249	0.000168	1.679326	0.284486	-0.000017
1359	1.3512e+02	6.4828	12.146140	0.000172	1.720285	0.291424	-0.000017
1360	1.3522e+02	6.4708	12.129032	0.000172	1.720285	0.291424	-0.000017
1361	1.3532e+02	6.4632	12.106628	0.000225	2.252755	0.381627	-0.000023
1362	1.3542e+02	6.4533	12.091149	0.000156	1.556449	0.263670	-0.000016
1363	1.3552e+02	6.4432	12.072411	0.000188	1.884122	0.319179	-0.000019
1364	1.3562e+02	6.4336	12.056525	0.000160	1.597408	0.270608	-0.000016
1365	1.3572e+02	6.4223	12.037380	0.000193	1.925081	0.326118	-0.000019
1366	1.3582e+02	6.4126	12.023123	0.000143	1.433571	0.242854	-0.000014
1367	1.3592e+02	6.4025	12.004792	0.000184	1.843163	0.312240	-0.000018
1368	1.3602e+02	6.3953	11.990128	0.000147	1.474530	0.249792	-0.000015
1369	1.3612e+02	6.3805	11.970983	0.000193	1.925081	0.326118	-0.000019
1370	1.3622e+02	6.3737	11.954282	0.000168	1.679326	0.284486	-0.000017
1371	1.3631e+02	6.3616	11.935951	0.000184	1.843163	0.312240	-0.000018
1372	1.3641e+02	6.3543	11.922509	0.000135	1.351653	0.228976	-0.000014
1373	1.3651e+02	6.3433	11.907437	0.000152	1.515490	0.256731	-0.000015
1374	1.3661e+02	6.3352	11.890736	0.000168	1.679326	0.284486	-0.000017
1375	1.3671e+02	6.3235	11.873221	0.000176	1.761245	0.298363	-0.000018
1376	1.3681e+02	6.3139	11.858556	0.000147	1.474530	0.249792	-0.000015
1377	1.3691e+02	6.3042	11.841448	0.000172	1.720285	0.291424	-0.000017
1378	1.3701e+02	6.2954	11.828006	0.000135	1.351653	0.228976	-0.000014
1379	1.3711e+02	6.2829	11.808861	0.000193	1.925081	0.326118	-0.000019
1380	1.3721e+02	6.2734	11.794604	0.000143	1.433571	0.242854	-0.000014
1381	1.3731e+02	6.2637	11.777088	0.000176	1.761245	0.298363	-0.000018
1382	1.3741e+02	6.2533	11.758350	0.000188	1.884122	0.319179	-0.000019
1383	1.3751e+02	6.2441	11.744500	0.000139	1.392612	0.235915	-0.000014
1384	1.3761e+02	6.2322	11.726985	0.000176	1.761245	0.298363	-0.000018
1385	1.3771e+02	6.2237	11.709469	0.000176	1.761245	0.298363	-0.000018
1386	1.3781e+02	6.2167	11.692361	0.000172	1.720285	0.291424	-0.000017
1387	1.3791e+02	6.2061	11.672808	0.000197	1.966040	0.333056	-0.000020
1388	1.3801e+02	6.1933	11.652848	0.000201	2.007000	0.339995	-0.000020
1389	1.3811e+02	6.1829	11.637369	0.000156	1.556449	0.263670	-0.000016
1390	1.3821e+02	6.1745	11.624742	0.000127	1.269734	0.215099	-0.000013
1391	1.3831e+02	6.1639	11.599894	0.000250	2.498510	0.423259	-0.000025
1392	1.3840e+02	6.1565	11.583193	0.000168	1.679326	0.284486	-0.000017
1393	1.3850e+02	6.1425	11.559974	0.000233	2.334673	0.395504	-0.000023
1394	1.3860e+02	6.1321	11.540829	0.000193	1.925081	0.326118	-0.000019
1395	1.3870e+02	6.1243	11.522091	0.000188	1.884122	0.319179	-0.000019
1396	1.3880e+02	6.1143	11.499280	0.000229	2.293714	0.388566	-0.000023
1397	1.3890e+02	6.1057	11.479320	0.000201	2.007000	0.339995	-0.000020
1398	1.3900e+02	6.0965	11.459768	0.000197	1.966040	0.333056	-0.000020
1399	1.3910e+02	6.0842	11.438179	0.000217	2.170836	0.367750	-0.000022
1400	1.3920e+02	6.0784	11.420256	0.000180	1.802204	0.305302	-0.000018
1401	1.3930e+02	6.0644	11.405184	0.000152	1.515490	0.256731	-0.000015
1402	1.3940e+02	6.0567	11.381151	0.000242	2.416591	0.409382	-0.000024
1403	1.3950e+02	6.0452	11.359154	0.000221	2.211796	0.374688	-0.000022
1404	1.3960e+02	6.0360	11.340417	0.000188	1.884122	0.319179	-0.000019
1405	1.3970e+02	6.0256	11.320864	0.000197	1.966040	0.333056	-0.000020
1406	1.3980e+02	6.0150	11.295609	0.000254	2.539469	0.430198	-0.000025
1407	1.3990e+02	6.0073	11.273612	0.000221	2.211796	0.374688	-0.000022
1408	1.4000e+02	5.9956	11.256097	0.000176	1.761245	0.298363	-0.000018
1409	1.4010e+02	5.9869	11.236137	0.000201	2.007000	0.339995	-0.000020
1410	1.4020e+02	5.9768	11.220658	0.000156	1.556449	0.263670	-0.000016
1411	1.4029e+02	5.9670	11.193773	0.000270	2.703306	0.457952	-0.000027
1412	1.4039e+02	5.9565	11.177072	0.000168	1.679326	0.284486	-0.000017
1413	1.4049e+02	5.9454	11.153039	0.000242	2.416591	0.409382	-0.000024
1414	1.4059e+02	5.9361	11.133079	0.000201	2.007000	0.339995	-0.000020
1415	1.4069e+02	5.9266	11.111897	0.000213	2.129877	0.360811	-0.000021
1416	1.4079e+02	5.9180	11.087864	0.000242	2.416591	0.409382	-0.000024
1417	1.4089e+02	5.9067	11.066275	0.000217	2.170836	0.367750	-0.000022
1418	1.4099e+02	5.8965	11.047537	0.000188	1.884122	0.319179	-0.000019
1419	1.4109e+02	5.8849	11.028800	0.000188	1.884122	0.319179	-0.000019
1420	1.4119e+02	5.8764	11.004359	0.000246	2.457551	0.416320	-0.000025
1421	1.4129e+02	5.8657	10.985621	0.000188	1.884122	0.319179	-0.000019
1422	1.4139e+02	5.8579	10.961995	0.000238	2.375632	0.402443	-0.000024
1423	1.4149e+02	5.8486	10.937962	0.000242	2.416591	0.409382	-0.000024
1424	1.4159e+02	5.8346	10.918410	0.000197	1.966040	0.333056	-0.000020
1425	1.4169e+02	5.8274	10.897228	0.000213	2.129877	0.360811	-0.000021
1426	1.4179e+02	5.8168	10.872787	0.000246	2.457551	0.416320	-0.000025
1427	1.4189e+02	5.8054	10.852828	0.000201	2.007000	0.339995	-0.000020
1428	1.4199e+02	5.7944	10.832053	0.000209	2.088918	0.353872	-0.000021
1429	1.4209e+02	5.7815	10.809649	0.000225	2.252755	0.381627	-0.000023
1430	1.4219e+02	5.7777	10.785209	0.000246	2.457551	0.416320	-0.000025
1431	1.4228e+02	5.7660	10.765249	0.000201	2.007000	0.339995	-0.000020
1432	1.4238e+02	5.7575	10.743252	0.000221	2.211796	0.374688	-0.000022
1433	1.4248e+02	5.7491	10.723700	0.000197	1.966040	0.333056	-0.000020
1434	1.4258e+02	5.7359	10.696001	0.000279	2.785224	0.471830	-0.000028
1435	1.4268e+02	5.7265	10.678892	0.000172	1.720285	0.291424	-0.000017
1436	1.4278e+02	5.7174	10.654044	0.000250	2.498510	0.423259	-0.000025
1437	1.4288e+02	5.7047	10.638973	0.000152	1.515490	0.256731	-0.000015
1438	1.4298e+02	5.6968	10.611681	0.000274	2.744265	0.464891	-0.000027
1439	1.4308e+02	5.6882	10.590499	0.000213	2.129877	0.360811	-0.000021
1440	1.4318e+02	5.6762	10.570539	0.000201	2.007000	0.339995	-0.000020
1441	1.4328e+02	5.6675	10.549765	0.000209	2.088918	0.353872	-0.000021
1442	1.4338e+02	5.6565	10.527361	0.000225	2.252755	0.381627	-0.000023
1443	1.4348e+02	5.6495	10.499662	0.000279	2.785224	0.471830	-0.000028
1444	1.4358e+02	5.6377	10.482553	0.000172	1.720285	0.291424	-0.000017
1445	1.4368e+02	5.6283	10.458927	0.000238	2.375632	0.402443	-0.000024
1446	1.4378e+02	5.6174	10.438560	0.000205	2.047959	0.346934	-0.000020
1447	1.4388e+02	5.6071	10.413712	0.000250	2.498510	0.423259	-0.000025
1448	1.4398e+02	5.5988	10.386420	0.000274	2.744265	0.464891	-0.000027
1449	1.4408e+02	5.5851	10.363609	0.000229	2.293714	0.388566	-0.000023
1450	1.4418e+02	5.5791	10.342427	0.000213	2.129877	0.360811	-0.000021
1451	1.4428e+02	5.5672	10.321246	0.000213	2.129877	0.360811	-0.000021
1452	1.4437e+02	5.5576	10.294768	0.000266	2.662346	0.451014	-0.000027
1453	1.4447e+02	5.5489	10.271142	0.000238	2.375632	0.402443	-0.000024
1454	1.4457e+02	5.5384	10.248331	0.000229	2.293714	0.388566	-0.000023
1455	1.4467e+02	5.5270	10.223076	0.000254	2.539469	0.430198	-0.000025
1456	1.4477e+02	5.5163	10.199043	0.000242	2.416591	0.409382	-0.000024
1457	1.4487e+02	5.5064	10.175824	0.000233	2.334673	0.395504	-0.000023
1458	1.4497e+02	5.4983	10.147718	0.000283	2.826183	0.478768	-0.000028
1459	1.4507e+02	5.4879	10.122462	0.000254	2.539469	0.430198	-0.000025
1460	1.4517e+02	5.4827	10.097207	0.000254	2.539469	0.430198	-0.000025
1461	1.4527e+02	5.4655	10.073989	0.000233	2.334673	0.395504	-0.000023
1462	1.4537e+02	5.4588	10.049141	0.000250	2.498510	0.423259	-0.000025
1463	1.4547e+02	5.4490	10.025108	0.000242	2.416591	0.409382	-0.000024
1464	1.4557e+02	5.4409	10.001074	0.000242	2.416591	0.409382	-0.000024
1465	1.4567e+02	5.4255	9.977856	0.000233	2.334673	0.395504	-0.000023
1466	1.4577e+02	5.4189	9.952601	0.000254	2.539469	0.430198	-0.000025
1467	1.4587e+02	5.4096	9.927345	0.000254	2.539469	0.430198	-0.000025
1468	1.4597e+02	5.4008	9.908200	0.000193	1.925081	0.326118	-0.000019
1469	1.4607e+02	5.3883	9.881723	0.000266	2.662346	0.451014	-0.000027
1470	1.4617e+02	5.3780	9.855653	0.000262	2.621387	0.444075	-0.000026
1471	1.4626e+02	5.3661	9.834064	0.000217	2.170836	0.367750	-0.000022
1472	1.4636e+02	5.3587	9.810031	0.000242	2.416591	0.409382	-0.000024
1473	1.4646e+02	5.3522	9.792108	0.000180	1.802204	0.305302	-0.000018
1474	1.4656e+02	5.3403	9.766852	0.000254	2.539469	0.430198	-0.000025
1475	1.4666e+02	5.3278	9.741597	0.000254	2.539469	0.430198	-0.000025
1476	1.4676e+02	5.3178	9.721230	0.000205	2.047959	0.346934	-0.000020
1477	1.4686e+02	5.3082	9.698826	0.000225	2.252755	0.381627	-0.000023
1478	1.4696e+02	5.2996	9.677644	0.000213	2.129877	0.360811	-0.000021
1479	1.4706e+02	5.2909	9.652389	0.000254	2.539469	0.430198	-0.000025
1480	1.4716e+02	5.2818	9.631207	0.000213	2.129877	0.360811	-0.000021
1481	1.4726e+02	5.2680	9.613692	0.000176	1.761245	0.298363	-0.000018
1482	1.4736e+02	5.2578	9.590066	0.000238	2.375632	0.402443	-0.000024
1483	1.4746e+02	5.2479	9.569699	0.000205	2.047959	0.346934	-0.000020
1484	1.4756e+02	5.2393	9.548109	0.000217	2.170836	0.367750	-0.000022
1485	1.4766e+02	5.2268	9.524484	0.000238	2.375632	0.402443	-0.000024
1486	1.4776e+02	5.2200	9.505338	0.000193	1.925081	0.326118	-0.000019
1487	1.4786e+02	5.2103	9.484564	0.000209	2.088918	0.353872	-0.000021
1488	1.4796e+02	5.1954	9.462975	0.000217	2.170836	0.367750	-0.000022
1489	1.4806e+02	5.1904	9.443830	0.000193	1.925081	0.326118	-0.000019
1490	1.4816e+02	5.1800	9.417352	0.000266	2.662346	0.451014	-0.000027
1491	1.4825e+02	5.1690	9.398207	0.000193	1.925081	0.326118	-0.000019
1492	1.4835e+02	5.1580	9.379877	0.000184	1.843163	0.312240	-0.000018
1493	1.4845e+02	5.1501	9.355029	0.000250	2.498510	0.423259	-0.000025
1494	1.4855e+02	5.1383	9.335884	0.000193	1.925081	0.326118	-0.000019
1495	1.4865e+02	5.1327	9.315109	0.000209	2.088918	0.353872	-0.000021
1496	1.4875e+02	5.1193	9.291891	0.000233	2.334673	0.395504	-0.000023
1497	1.4885e+02	5.1092	9.273153	0.000188	1.884122	0.319179	-0.000019
1498	1.4895e+02	5.1006	9.255637	0.000176	1.761245	0.298363	-0.000018
1499	1.4905e+02	5.0884	9.230790	0.000250	2.498510	0.423259	-0.000025
1500	1.4915e+02	5.0782	9.210015	0.000209	2.088918	0.353872	-0.000021
1501	1.4925e+02	5.0723	9.190870	0.000193	1.925081	0.326118	-0.000019
1502	1.4935e+02	5.0591	9.172540	0.000184	1.843163	0.312240	-0.000018
1503	1.4945e+02	5.0485	9.150136	0.000225	2.252755	0.381627	-0.000023
1504	1.4955e+02	5.0402	9.130991	0.000193	1.925081	0.326118	-0.000019
1505	1.4965e+02	5.0321	9.109809	0.000213	2.129877	0.360811	-0.000021
1506	1.4975e+02	5.0214	9.090256	0.000197	1.966040	0.333056	-0.000020
1507	1.4985e+02	5.0140	9.073148	0.000172	1.720285	0.291424	-0.000017
1508	1.4995e+02	5.0005	9.049522	0.000238	2.375632	0.402443	-0.000024
1509	1.5005e+02	4.9908	9.030377	0.000193	1.925081	0.326118	-0.000019
1510	1.5015e+02	4.9793	9.008381	0.000221	2.211796	0.374688	-0.000022
1511	1.5025e+02	4.9697	8.988421	0.000201	2.007000	0.339995	-0.000020
1512	1.5034e+02	4.9611	8.967646	0.000209	2.088918	0.353872	-0.000021
1513	1.5044e+02	4.9506	8.951353	0.000164	1.638367	0.277547	-0.000016
1514	1.5054e+02	4.9419	8.929763	0.000217	2.170836	0.367750	-0.000022
1515	1.5064e+02	4.9312	8.906545	0.000233	2.334673	0.395504	-0.000023
1516	1.5074e+02	4.9235	8.889844	0.000168	1.679326	0.284486	-0.000017
1517	1.5084e+02	4.9115	8.867440	0.000225	2.252755	0.381627	-0.000023
1518	1.5094e+02	4.8998	8.846258	0.000213	2.129877	0.360811	-0.000021
1519	1.5104e+02	4.8913	8.824669	0.000217	2.170836	0.367750	-0.000022
1520	1.5114e+02	4.8829	8.801858	0.000229	2.293714	0.388566	-0.000023
1521	1.5124e+02	4.8716	8.783120	0.000188	1.884122	0.319179	-0.000019
1522	1.5134e+02	4.8629	8.763568	0.000197	1.966040	0.333056	-0.000020
1523	1.5144e+02	4.8522	8.743201	0.000205	2.047959	0.346934	-0.000020
1524	1.5154e+02	4.8409	8.724055	0.000193	1.925081	0.326118	-0.000019
1525	1.5164e+02	4.8309	8.700837	0.000233	2.334673	0.395504	-0.000023
1526	1.5174e+02	4.8202	8.683729	0.000172	1.720285	0.291424	-0.000017
1527	1.5184e+02	4.8145	8.664176	0.000197	1.966040	0.333056	-0.000020
1528	1.5194e+02	4.8014	8.640550	0.000238	2.375632	0.402443	-0.000024
1529	1.5204e+02	4.7945	8.620183	0.000205	2.047959	0.346934	-0.000020
1530	1.5214e+02	4.7820	8.602667	0.000176	1.761245	0.298363	-0.000018
1531	1.5224e+02	4.7732	8.582708	0.000201	2.007000	0.339995	-0.000020
1532	1.5233e+02	4.7602	8.562340	0.000205	2.047959	0.346934	-0.000020
1533	1.5243e+02	4.7526	8.539937	0.000225	2.252755	0.381627	-0.000023
1534	1.5253e+02	4.7433	8.525680	0.000143	1.433571	0.242854	-0.000014
1535	1.5263e+02	4.7320	8.504498	0.000213	2.129877	0.360811	-0.000021
1536	1.5273e+02	4.7224	8.484538	0.000201	2.007000	0.339995	-0.000020
1537	1.5283e+02	4.7115	8.469466	0.000152	1.515490	0.256731	-0.000015
1538	1.5293e+02	4.7007	8.447877	0.000217	2.170836	0.367750	-0.000022
1539	1.5303e+02	4.6911	8.427510	0.000205	2.047959	0.346934	-0.000020
1540	1.5313e+02	4.6807	8.411624	0.000160	1.597408	0.270608	-0.000016
1541	1.5323e+02	4.6731	8.391257	0.000205	2.047959	0.346934	-0.000020
1542	1.5333e+02	4.6615	8.374556	0.000168	1.679326	0.284486	-0.000017
1543	1.5343e+02	4.6511	8.361521	0.000131	1.310694	0.222038	-0.000013
1544	1.5353e+02	4.6422	8.341153	0.000205	2.047959	0.346934	-0.000020
1545	1.5363e+02	4.6319	8.323638	0.000176	1.761245	0.298363	-0.000018
1546	1.5373e+02	4.6230	8.304493	0.000193	1.925081	0.326118	-0.000019
1547	1.5383e+02	4.6158	8.289421	0.000152	1.515490	0.256731	-0.000015
1548	1.5393e+02	4.6014	8.265795	0.000238	2.375632	0.402443	-0.000024
1549	1.5403e+02	4.5927	8.247465	0.000184	1.843163	0.312240	-0.000018
1550	1.5413e+02	4.5824	8.227505	0.000201	2.007000	0.339995	-0.000020
1551	1.5422e+02	4.5727	8.212841	0.000147	1.474530	0.249792	-0.000015
1552	1.5432e+02	4.5639	8.188400	0.000246	2.457551	0.416320	-0.000025
1553	1.5442e+02	4.5538	8.174958	0.000135	1.351653	0.228976	-0.000014
1554	1.5452e+02	4.5430	8.152961	0.000221	2.211796	0.374688	-0.000022
1555	1.5462e+02	4.5325	8.133409	0.000197	1.966040	0.333056	-0.000020
1556	1.5472e+02	4.5231	8.113042	0.000205	2.047959	0.346934	-0.000020
1557	1.5482e+02	4.5138	8.091045	0.000221	2.211796	0.374688	-0.000022
1558	1.5492e+02	4.5023	8.072307	0.000188	1.884122	0.319179	-0.000019
1559	1.5502e+02	4.4933	8.048681	0.000238	2.375632	0.402443	-0.000024
1560	1.5512e+02	4.4836	8.028722	0.000201	2.007000	0.339995	-0.000020
1561	1.5522e+02	4.4727	8.007947	0.000209	2.088918	0.353872	-0.000021
1562	1.5532e+02	4.4632	7.986358	0.000217	2.170836	0.367750	-0.000022
1563	1.5542e+02	4.4531	7.961918	0.000246	2.457551	0.416320	-0.000025
1564	1.5552e+02	4.4416	7.940736	0.000213	2.129877	0.360811	-0.000021
1565	1.5562e+02	4.4341	7.922813	0.000180	1.802204	0.305302	-0.000018
1566	1.5572e+02	4.4241	7.899187	0.000238	2.375632	0.402443	-0.000024
1567	1.5582e+02	4.4146	7.875968	0.000233	2.334673	0.395504	-0.000023
1568	1.5592e+02	4.4056	7.857638	0.000184	1.843163	0.312240	-0.000018
1569	1.5602e+02	4.3905	7.832790	0.000250	2.498510	0.423259	-0.000025
1570	1.5612e+02	4.3838	7.809979	0.000229	2.293714	0.388566	-0.000023
1571	1.5622e+02	4.3739	7.788797	0.000213	2.129877	0.360811	-0.000021
1572	1.5631e+02	4.3633	7.767208	0.000217	2.170836	0.367750	-0.000022
1573	1.5641e+02	4.3549	7.738694	0.000287	2.867142	0.485707	-0.000029
1574	1.5651e+02	4.3435	7.720363	0.000184	1.843163	0.312240	-0.000018
1575	1.5661e+02	4.3360	7.698774	0.000217	2.170836	0.367750	-0.000022
1576	1.5671e+02	4.3224	7.673519	0.000254	2.539469	0.430198	-0.000025
1577	1.5681e+02	4.3142	7.654374	0.000193	1.925081	0.326118	-0.000019
1578	1.5691e+02	4.3046	7.631563	0.000229	2.293714	0.388566	-0.000023
1579	1.5701e+02	4.2964	7.607937	0.000238	2.375632	0.402443	-0.000024
1580	1.5711e+02	4.2840	7.586348	0.000217	2.170836	0.367750	-0.000022
1581	1.5721e+02	4.2753	7.561907	0.000246	2.457551	0.416320	-0.000025
1582	1.5731e+02	4.2651	7.537467	0.000246	2.457551	0.416320	-0.000025
1583	1.5741e+02	4.2561	7.515470	0.000221	2.211796	0.374688	-0.000022
1584	1.5751e+02	4.2449	7.495103	0.000205	2.047959	0.346934	-0.000020
1585	1.5761e+02	4.2348	7.470662	0.000246	2.457551	0.416320	-0.000025
1586	1.5771e+02	4.2278	7.447037	0.000238	2.375632	0.402443	-0.000024
1587	1.5781e+02	4.2129	7.424225	0.000229	2.293714	0.388566	-0.000023
1588	1.5791e+02	4.2043	7.399377	0.000250	2.498510	0.423259	-0.000025
1589	1.5801e+02	4.1933	7.375752	0.000238	2.375632	0.402443	-0.000024
1590	1.5811e+02	4.1840	7.351311	0.000246	2.457551	0.416320	-0.000025
1591	1.5821e+02	4.1715	7.329722	0.000217	2.170836	0.367750	-0.000022
1592	1.5830e+02	4.1657	7.304467	0.000254	2.539469	0.430198	-0.000025
1593	1.5840e+02	4.1529	7.279211	0.000254	2.539469	0.430198	-0.000025
1594	1.5850e+02	4.1438	7.255586	0.000238	2.375632	0.402443	-0.000024
1595	1.5860e+02	4.1337	7.234811	0.000209	2.088918	0.353872	-0.000021
1596	1.5870e+02	4.1246	7.210371	0.000246	2.457551	0.416320	-0.000025
1597	1.5880e+02	4.1140	7.185930	0.000246	2.457551	0.416320	-0.000025
1598	1.5890e+02	4.1057	7.166785	0.000193	1.925081	0.326118	-0.000019
1599	1.5900e+02	4.0969	7.142344	0.000246	2.457551	0.416320	-0.000025
1600	1.5910e+02	4.0862	7.115867	0.000266	2.662346	0.451014	-0.000027
1601	1.5920e+02	4.0744	7.090204	0.000258	2.580428	0.437136	-0.000026
1602	1.5930e+02	4.0660	7.066579	0.000238	2.375632	0.402443	-0.000024
1603	1.5940e+02	4.0550	7.045397	0.000213	2.129877	0.360811	-0.000021
1604	1.5950e+02	4.0465	7.018920	0.000266	2.662346	0.451014	-0.000027
1605	1.5960e+02	4.0331	6.997738	0.000213	2.129877	0.360811	-0.000021
1606	1.5970e+02	4.0255	6.971260	0.000266	2.662346	0.451014	-0.000027
1607	1.5980e+02	4.0163	6.948042	0.000233	2.334673	0.395504	-0.000023
1608	1.5990e+02	4.0057	6.922787	0.000254	2.539469	0.430198	-0.000025
1609	1.6000e+02	3.9949	6.902420	0.000205	2.047959	0.346934	-0.000020
1610	1.6010e+02	3.9839	6.875942	0.000266	2.662346	0.451014	-0.000027
1611	1.6019e+02	3.9744	6.851502	0.000246	2.457551	0.416320	-0.000025
1612	1.6029e+02	3.9652	6.827061	0.000246	2.457551	0.416320	-0.000025
1613	1.6039e+02	3.9555	6.805472	0.000217	2.170836	0.367750	-0.000022
1614	1.6049e+02	3.9458	6.779402	0.000262	2.621387	0.444075	-0.000026
1615	1.6059e+02	3.9359	6.753332	0.000262	2.621387	0.444075	-0.000026
1616	1.6069e+02	3.9258	6.734594	0.000188	1.884122	0.319179	-0.000019
1617	1.6079e+02	3.9168	6.698748	0.000360	3.604407	0.610603	-0.000036
1618	1.6089e+02	3.9068	6.677566	0.000213	2.129877	0.360811	-0.000021
1619	1.6099e+02	3.8965	6.653941	0.000238	2.375632	0.402443	-0.000024
1620	1.6109e+02	3.8863	6.629907	0.000242	2.416591	0.409382	-0.000024
1621	1.6119e+02	3.8796	6.600579	0.000295	2.949061	0.499584	-0.000029
1622	1.6129e+02	3.8671	6.576953	0.000238	2.375632	0.402443	-0.000024
1623	1.6139e+02	3.8574	6.553327	0.000238	2.375632	0.402443	-0.000024
1624	1.6149e+02	3.8464	6.526442	0.000270	2.703306	0.457952	-0.000027
1625	1.6159e+02	3.8368	6.495077	0.000315	3.153857	0.534278	-0.000032
1626	1.6169e+02	3.8264	6.472673	0.000225	2.252755	0.381627	-0.000023
1627	1.6179e+02	3.8169	6.440493	0.000324	3.235775	0.548155	-0.000032
1628	1.6189e+02	3.8080	6.415238	0.000254	2.539469	0.430198	-0.000025
1629	1.6199e+02	3.7971	6.390390	0.000250	2.498510	0.423259	-0.000025
1630	1.6209e+02	3.7866	6.361469	0.000291	2.908101	0.492646	-0.000029
1631	1.6219e+02	3.7769	6.339472	0.000221	2.211796	0.374688	-0.000022
1632	1.6228e+02	3.7670	6.310958	0.000287	2.867142	0.485707	-0.000029
1633	1.6238e+02	3.7578	6.284481	0.000266	2.662346	0.451014	-0.000027
1634	1.6248e+02	3.7480	6.259633	0.000250	2.498510	0.423259	-0.000025
1635	1.6258e+02	3.7354	6.235600	0.000242	2.416591	0.409382	-0.000024
1636	1.6268e+02	3.7249	6.207493	0.000283	2.826183	0.478768	-0.000028
1637	1.6278e+02	3.7183	6.181831	0.000258	2.580428	0.437136	-0.000026
1638	1.6288e+02	3.7070	6.153724	0.000283	2.826183	0.478768	-0.000028
1639	1.6298e+02	3.6980	6.130098	0.000238	2.375632	0.402443	-0.000024
1640	1.6308e+02	3.6880	6.107694	0.000225	2.252755	0.381627	-0.000023
1641	1.6318e+02	3.6783	6.082032	0.000258	2.580428	0.437136	-0.000026
1642	1.6328e+02	3.6662	6.058406	0.000238	2.375632	0.402443	-0.000024
1643	1.6338e+02	3.6570	6.033558	0.000250	2.498510	0.423259	-0.000025
1644	1.6348e+02	3.6483	6.008303	0.000254	2.539469	0.430198	-0.000025
1645	1.6358e+02	3.6382	5.985899	0.000225	2.252755	0.381627	-0.000023
1646	1.6368e+02	3.6285	5.964717	0.000213	2.129877	0.360811	-0.000021
1647	1.6378e+02	3.6181	5.939462	0.000254	2.539469	0.430198	-0.000025
1648	1.6388e+02	3.6080	5.917058	0.000225	2.252755	0.381627	-0.000023
1649	1.6398e+02	3.5976	5.893432	0.000238	2.375632	0.402443	-0.000024
1650	1.6408e+02	3.5876	5.869806	0.000238	2.375632	0.402443	-0.000024
1651	1.6418e+02	3.5781	5.847810	0.000221	2.211796	0.374688	-0.000022
1652	1.6427e+02	3.5671	5.822147	0.000258	2.580428	0.437136	-0.000026
1653	1.6437e+02	3.5596	5.796485	0.000258	2.580428	0.437136	-0.000026
1654	1.6447e+02	3.5474	5.776932	0.000197	1.966040	0.333056	-0.000020
1655	1.6457e+02	3.5394	5.751677	0.000254	2.539469	0.430198	-0.000025
1656	1.6467e+02	3.5277	5.731717	0.000201	2.007000	0.339995	-0.000020
1657	1.6477e+02	3.5162	5.706869	0.000250	2.498510	0.423259	-0.000025
1658	1.6487e+02	3.5065	5.684058	0.000229	2.293714	0.388566	-0.000023
1659	1.6497e+02	3.4959	5.659210	0.000250	2.498510	0.423259	-0.000025
1660	1.6507e+02	3.4869	5.639250	0.000201	2.007000	0.339995	-0.000020
1661	1.6517e+02	3.4806	5.617254	0.000221	2.211796	0.374688	-0.000022
1662	1.6527e+02	3.4653	5.591999	0.000254	2.539469	0.430198	-0.000025
1663	1.6537e+02	3.4602	5.568780	0.000233	2.334673	0.395504	-0.000023
1664	1.6547e+02	3.4492	5.546784	0.000221	2.211796	0.374688	-0.000022
1665	1.6557e+02	3.4390	5.524380	0.000225	2.252755	0.381627	-0.000023
1666	1.6567e+02	3.4286	5.500346	0.000242	2.416591	0.409382	-0.000024
1667	1.6577e+02	3.4164	5.479165	0.000213	2.129877	0.360811	-0.000021
1668	1.6587e+02	3.4101	5.457168	0.000221	2.211796	0.374688	-0.000022
1669	1.6597e+02	3.3978	5.433542	0.000238	2.375632	0.402443	-0.000024
1670	1.6607e+02	3.3863	5.412768	0.000209	2.088918	0.353872	-0.000021
1671	1.6616e+02	3.3826	5.392401	0.000205	2.047959	0.346934	-0.000020
1672	1.6626e+02	3.3672	5.367960	0.000246	2.457551	0.416320	-0.000025
1673	1.6636e+02	3.3575	5.347186	0.000209	2.088918	0.353872	-0.000021
1674	1.6646e+02	3.3481	5.320301	0.000270	2.703306	0.457952	-0.000027
1675	1.6656e+02	3.3398	5.296268	0.000242	2.416591	0.409382	-0.000024
1676	1.6666e+02	3.3295	5.281604	0.000147	1.474530	0.249792	-0.000015
1677	1.6676e+02	3.3193	5.260422	0.000213	2.129877	0.360811	-0.000021
1678	1.6686e+02	3.3083	5.234352	0.000262	2.621387	0.444075	-0.000026
1679	1.6696e+02	3.2990	5.212763	0.000217	2.170836	0.367750	-0.000022
1680	1.6706e+02	3.2898	5.189137	0.000238	2.375632	0.402443	-0.000024
1681	1.6716e+02	3.2807	5.167955	0.000213	2.129877	0.360811	-0.000021
1682	1.6726e+02	3.2700	5.146366	0.000217	2.170836	0.367750	-0.000022
1683	1.6736e+02	3.2584	5.121518	0.000250	2.498510	0.423259	-0.000025
1684	1.6746e+02	3.2518	5.100743	0.000209	2.088918	0.353872	-0.000021
1685	1.6756e+02	3.2375	5.079154	0.000217	2.170836	0.367750	-0.000022
1686	1.6766e+02	3.2296	5.057158	0.000221	2.211796	0.374688	-0.000022
1687	1.6776e+02	3.2206	5.029866	0.000274	2.744265	0.464891	-0.000027
1688	1.6786e+02	3.2060	5.010721	0.000193	1.925081	0.326118	-0.000019
1689	1.6796e+02	3.2030	4.989132	0.000217	2.170836	0.367750	-0.000022
1690	1.6806e+02	3.1893	4.964691	0.000246	2.457551	0.416320	-0.000025
1691	1.6816e+02	3.1791	4.943509	0.000213	2.129877	0.360811	-0.000021
1692	1.6825e+02	3.1683	4.921513	0.000221	2.211796	0.374688	-0.000022
1693	1.6835e+02	3.1593	4.899924	0.000217	2.170836	0.367750	-0.000022
1694	1.6845e+02	3.1481	4.875890	0.000242	2.416591	0.409382	-0.000024
1695	1.6855e+02	3.1381	4.854301	0.000217	2.170836	0.367750	-0.000022
1696	1.6865e+02	3.1295	4.833527	0.000209	2.088918	0.353872	-0.000021
1697	1.6875e+02	3.1205	4.809901	0.000238	2.375632	0.402443	-0.000024
1698	1.6885e+02	3.1081	4.789941	0.000201	2.007000	0.339995	-0.000020
1699	1.6895e+02	3.0999	4.767130	0.000229	2.293714	0.388566	-0.000023
1700	1.6905e+02	3.0907	4.743911	0.000233	2.334673	0.395504	-0.000023
1701	1.6915e+02	3.0819	4.724359	0.000197	1.966040	0.333056	-0.000020
1702	1.6925e+02	3.0686	4.703177	0.000213	2.129877	0.360811	-0.000021
1703	1.6935e+02	3.0611	4.684032	0.000193	1.925081	0.326118	-0.000019
1704	1.6945e+02	3.0494	4.664072	0.000201	2.007000	0.339995	-0.000020
1705	1.6955e+02	3.0391	4.646149	0.000180	1.802204	0.305302	-0.000018
1706	1.6965e+02	3.0303	4.623338	0.000229	2.293714	0.388566	-0.000023
1707	1.6975e+02	3.0196	4.601749	0.000217	2.170836	0.367750	-0.000022
1708	1.6985e+02	3.0119	4.583418	0.000184	1.843163	0.312240	-0.000018
1709	1.6995e+02	3.0023	4.559385	0.000242	2.416591	0.409382	-0.000024
1710	1.7005e+02	2.9884	4.543091	0.000164	1.638367	0.277547	-0.000016
1711	1.7015e+02	2.9816	4.521502	0.000217	2.170836	0.367750	-0.000022
1712	1.7024e+02	2.9693	4.501543	0.000201	2.007000	0.339995	-0.000020
1713	1.7034e+02	2.9618	4.480361	0.000213	2.129877	0.360811	-0.000021
1714	1.7044e+02	2.9501	4.461216	0.000193	1.925081	0.326118	-0.000019
1715	1.7054e+02	2.9411	4.442885	0.000184	1.843163	0.312240	-0.000018
1716	1.7064e+02	2.9322	4.422111	0.000209	2.088918	0.353872	-0.000021
1717	1.7074e+02	2.9220	4.401336	0.000209	2.088918	0.353872	-0.000021
1718	1.7084e+02	2.9093	4.378932	0.000225	2.252755	0.381627	-0.000023
1719	1.7094e+02	2.9030	4.359787	0.000193	1.925081	0.326118	-0.000019
1720	1.7104e+02	2.8936	4.336976	0.000229	2.293714	0.388566	-0.000023
1721	1.7114e+02	2.8790	4.315794	0.000213	2.129877	0.360811	-0.000021
1722	1.7124e+02	2.8723	4.296649	0.000193	1.925081	0.326118	-0.000019
1723	1.7134e+02	2.8611	4.273838	0.000229	2.293714	0.388566	-0.000023
1724	1.7144e+02	2.8509	4.249805	0.000242	2.416591	0.409382	-0.000024
1725	1.7154e+02	2.8437	4.227401	0.000225	2.252755	0.381627	-0.000023
1726	1.7164e+02	2.8289	4.202960	0.000246	2.457551	0.416320	-0.000025
1727	1.7174e+02	2.8215	4.180557	0.000225	2.252755	0.381627	-0.000023
1728	1.7184e+02	2.8115	4.158967	0.000217	2.170836	0.367750	-0.000022
1729	1.7194e+02	2.8011	4.136971	0.000221	2.211796	0.374688	-0.000022
1730	1.7204e+02	2.7920	4.112530	0.000246	2.457551	0.416320	-0.000025
1731	1.7213e+02	2.7830	4.086868	0.000258	2.580428	0.437136	-0.000026
1732	1.7223e+02	2.7740	4.064057	0.000229	2.293714	0.388566	-0.000023
1733	1.7233e+02	2.7622	4.039209	0.000250	2.498510	0.423259	-0.000025
1734	1.7243e+02	2.7506	4.012731	0.000266	2.662346	0.451014	-0.000027
1735	1.7253e+02	2.7415	3.991142	0.000217	2.170836	0.367750	-0.000022
1736	1.7263e+02	2.7322	3.965887	0.000254	2.539469	0.430198	-0.000025
1737	1.7273e+02	2.7190	3.943891	0.000221	2.211796	0.374688	-0.000022
1738	1.7283e+02	2.7129	3.918228	0.000258	2.580428	0.437136	-0.000026
1739	1.7293e+02	2.7024	3.897454	0.000209	2.088918	0.353872	-0.000021
1740	1.7303e+02	2.6918	3.872606	0.000250	2.498510	0.423259	-0.000025
1741	1.7313e+02	2.6814	3.846128	0.000266	2.662346	0.451014	-0.000027
1742	1.7323e+02	2.6734	3.818836	0.000274	2.744265	0.464891	-0.000027
1743	1.7333e+02	2.6637	3.798062	0.000209	2.088918	0.353872	-0.000021
1744	1.7343e+02	2.6505	3.774436	0.000238	2.375632	0.402443	-0.000024
1745	1.7353e+02	2.6411	3.751218	0.000233	2.334673	0.395504	-0.000023
1746	1.7363e+02	2.6315	3.721482	0.000299	2.990020	0.506523	-0.000030
1747	1.7373e+02	2.6229	3.701114	0.000205	2.047959	0.346934	-0.000020
1748	1.7383e+02	2.6125	3.675044	0.000262	2.621387	0.444075	-0.000026
1749	1.7393e+02	2.6015	3.651011	0.000242	2.416591	0.409382	-0.000024
1750	1.7403e+02	2.5921	3.627385	0.000238	2.375632	0.402443	-0.000024
1751	1.7413e+02	2.5804	3.600908	0.000266	2.662346	0.451014	-0.000027
1752	1.7422e+02	2.5744	3.572802	0.000283	2.826183	0.478768	-0.000028
1753	1.7432e+02	2.5642	3.546324	0.000266	2.662346	0.451014	-0.000027
1754	1.7442e+02	2.5523	3.523920	0.000225	2.252755	0.381627	-0.000023
1755	1.7452e+02	2.5427	3.498258	0.000258	2.580428	0.437136	-0.000026
1756	1.7462e+02	2.5326	3.471781	0.000266	2.662346	0.451014	-0.000027
1757	1.7472e+02	2.5231	3.448562	0.000233	2.334673	0.395504	-0.000023
1758	1.7482e+02	2.5112	3.422492	0.000262	2.621387	0.444075	-0.000026
1759	1.7492e+02	2.5014	3.397237	0.000254	2.539469	0.430198	-0.000025
1760	1.7502e+02	2.4926	3.371167	0.000262	2.621387	0.444075	-0.000026
1761	1.7512e+02	2.4856	3.346726	0.000246	2.457551	0.416320	-0.000025
1762	1.7522e+02	2.4725	3.319842	0.000270	2.703306	0.457952	-0.000027
1763	1.7532e+02	2.4632	3.294587	0.000254	2.539469	0.430198	-0.000025
1764	1.7542e+02	2.4561	3.271775	0.000229	2.293714	0.388566	-0.000023
1765	1.7552e+02	2.4430	3.242039	0.000299	2.990020	0.506523	-0.000030
1766	1.7562e+02	2.4322	3.218006	0.000242	2.416591	0.409382	-0.000024
1767	1.7572e+02	2.4230	3.190307	0.000279	2.785224	0.471830	-0.000028
1768	1.7582e+02	2.4128	3.165459	0.000250	2.498510	0.423259	-0.000025
1769	1.7592e+02	2.4008	3.141018	0.000246	2.457551	0.416320	-0.000025
1770	1.7602e+02	2.3941	3.114134	0.000270	2.703306	0.457952	-0.000027
1771	1.7612e+02	2.3832	3.086842	0.000274	2.744265	0.464891	-0.000027
1772	1.7621e+02	2.3746	3.064438	0.000225	2.252755	0.381627	-0.000023
1773	1.7631e+02	2.3636	3.039590	0.000250	2.498510	0.423259	-0.000025
1774	1.7641e+02	2.3540	3.010669	0.000291	2.908101	0.492646	-0.000029
1775	1.7651e+02	2.3458	2.988265	0.000225	2.252755	0.381627	-0.000023
1776	1.7661e+02	2.3341	2.960158	0.000283	2.826183	0.478768	-0.000028
1777	1.7671e+02	2.3228	2.934496	0.000258	2.580428	0.437136	-0.000026
1778	1.7681e+02	2.3144	2.905982	0.000287	2.867142	0.485707	-0.000029
1779	1.7691e+02	2.3067	2.882356	0.000238	2.375632	0.402443	-0.000024
1780	1.7701e+02	2.2938	2.856693	0.000258	2.580428	0.437136	-0.000026
1781	1.7711e+02	2.2845	2.827772	0.000291	2.908101	0.492646	-0.000029
1782	1.7721e+02	2.2729	2.803331	0.000246	2.457551	0.416320	-0.000025
1783	1.7731e+02	2.2640	2.773188	0.000303	3.030979	0.513462	-0.000030
1784	1.7741e+02	2.2552	2.749970	0.000233	2.334673	0.395504	-0.000023
1785	1.7751e+02	2.2424	2.722678	0.000274	2.744265	0.464891	-0.000027
1786	1.7761e+02	2.2342	2.693756	0.000291	2.908101	0.492646	-0.000029
1787	1.7771e+02	2.2243	2.661984	0.000319	3.194816	0.541216	-0.000032
1788	1.7781e+02	2.2119	2.636728	0.000254	2.539469	0.430198	-0.000025
1789	1.7791e+02	2.2057	2.612695	0.000242	2.416591	0.409382	-0.000024
1790	1.7801e+02	2.1944	2.587847	0.000250	2.498510	0.423259	-0.000025
1791	1.7810e+02	2.1823	2.558111	0.000299	2.990020	0.506523	-0.000030
1792	1.7820e+02	2.1719	2.527968	0.000303	3.030979	0.513462	-0.000030
1793	1.7830e+02	2.1651	2.496195	0.000319	3.194816	0.541216	-0.000032
1794	1.7840e+02	2.1546	2.470940	0.000254	2.539469	0.430198	-0.000025
1795	1.7850e+02	2.1441	2.442019	0.000291	2.908101	0.492646	-0.000029
1796	1.7860e+02	2.1330	2.409024	0.000332	3.317693	0.562032	-0.000033
1797	1.7870e+02	2.1239	2.382954	0.000262	2.621387	0.444075	-0.000026
1798	1.7880e+02	2.1138	2.352403	0.000307	3.071938	0.520400	-0.000031
1799	1.7890e+02	2.1044	2.323075	0.000295	2.949061	0.499584	-0.000029
1800	1.7900e+02	2.0972	2.298227	0.000250	2.498510	0.423259	-0.000025
1801	1.7910e+02	2.0879	2.270935	0.000274	2.744265	0.464891	-0.000027
1802	1.7920e+02	2.0751	2.239569	0.000315	3.153857	0.534278	-0.000032
1803	1.7930e+02	2.0669	2.213907	0.000258	2.580428	0.437136	-0.000026
1804	1.7940e+02	2.0566	2.186207	0.000279	2.785224	0.471830	-0.000028
1805	1.7950e+02	2.0435	2.159323	0.000270	2.703306	0.457952	-0.000027
1806	1.7960e+02	2.0354	2.129994	0.000295	2.949061	0.499584	-0.000029
1807	1.7970e+02	2.0240	2.102295	0.000279	2.785224	0.471830	-0.000028
1808	1.7980e+02	2.0152	2.080706	0.000217	2.170836	0.367750	-0.000022
1809	1.7990e+02	2.0057	2.053414	0.000274	2.744265	0.464891	-0.000027
1810	1.8000e+02	1.9967	2.023270	0.000303	3.030979	0.513462	-0.000030
1811	1.8009e+02	1.9851	1.999645	0.000238	2.375632	0.402443	-0.000024
1812	1.8019e+02	1.9738	1.971131	0.000287	2.867142	0.485707	-0.000029
1813	1.8029e+02	1.9653	1.943024	0.000283	2.826183	0.478768	-0.000028
1814	1.8039e+02	1.9546	1.925101	0.000180	1.802204	0.305302	-0.000018
1815	1.8049e+02	1.9453	1.898216	0.000270	2.703306	0.457952	-0.000027
1816	1.8059e+02	1.9350	1.872146	0.000262	2.621387	0.444075	-0.000026
1817	1.8069e+02	1.9279	1.845669	0.000266	2.662346	0.451014	-0.000027
1818	1.8079e+02	1.9125	1.820821	0.000250	2.498510	0.423259	-0.000025
1819	1.8089e+02	1.9077	1.796788	0.000242	2.416591	0.409382	-0.000024
1820	1.8099e+02	1.8976	1.769903	0.000270	2.703306	0.457952	-0.000027
1821	1.8109e+02	1.8871	1.744241	0.000258	2.580428	0.437136	-0.000026
1822	1.8119e+02	1.8781	1.723874	0.000205	2.047959	0.346934	-0.000020
1823	1.8129e+02	1.8639	1.699433	0.000246	2.457551	0.416320	-0.000025
1824	1.8139e+02	1.8583	1.672956	0.000266	2.662346	0.451014	-0.000027
1825	1.8149e+02	1.8461	1.644442	0.000287	2.867142	0.485707	-0.000029
1826	1.8159e+02	1.8369	1.622853	0.000217	2.170836	0.367750	-0.000022
1827	1.8169e+02	1.8276	1.597597	0.000254	2.539469	0.430198	-0.000025
1828	1.8179e+02	1.8154	1.571935	0.000258	2.580428	0.437136	-0.000026
1829	1.8189e+02	1.8066	1.548716	0.000233	2.334673	0.395504	-0.000023
1830	1.8199e+02	1.7981	1.522239	0.000266	2.662346	0.451014	-0.000027
1831	1.8209e+02	1.7886	1.493725	0.000287	2.867142	0.485707	-0.000029
1832	1.8218e+02	1.7764	1.471729	0.000221	2.211796	0.374688	-0.000022
1833	1.8228e+02	1.7657	1.447288	0.000246	2.457551	0.416320	-0.000025
1834	1.8238e+02	1.7573	1.424477	0.000229	2.293714	0.388566	-0.000023
1835	1.8248e+02	1.7457	1.401258	0.000233	2.334673	0.395504	-0.000023
1836	1.8258e+02	1.7372	1.376410	0.000250	2.498510	0.423259	-0.000025
1837	1.8268e+02	1.7273	1.351970	0.000246	2.457551	0.416320	-0.000025
1838	1.8278e+02	1.7188	1.327122	0.000250	2.498510	0.423259	-0.000025
1839	1.8288e+02	1.7068	1.303904	0.000233	2.334673	0.395504	-0.000023
1840	1.8298e+02	1.6962	1.278241	0.000258	2.580428	0.437136	-0.000026
1841	1.8308e+02	1.6888	1.253800	0.000246	2.457551	0.416320	-0.000025
1842	1.8318e+02	1.6783	1.228952	0.000250	2.498510	0.423259	-0.000025
1843	1.8328e+02	1.6677	1.204512	0.000246	2.457551	0.416320	-0.000025
1844	1.8338e+02	1.6581	1.179664	0.000250	2.498510	0.423259	-0.000025
1845	1.8348e+02	1.6477	1.157668	0.000221	2.211796	0.374688	-0.000022
1846	1.8358e+02	1.6370	1.134042	0.000238	2.375632	0.402443	-0.000024
1847	1.8368e+02	1.6262	1.108786	0.000254	2.539469	0.430198	-0.000025
1848	1.8378e+02	1.6154	1.084753	0.000242	2.416591	0.409382	-0.000024
1849	1.8388e+02	1.6076	1.059498	0.000254	2.539469	0.430198	-0.000025
1850	1.8398e+02	1.5972	1.036687	0.000229	2.293714	0.388566	-0.000023
1851	1.8407e+02	1.5922	1.013061	0.000238	2.375632	0.402443	-0.000024
1852	1.8417e+02	1.5778	0.989842	0.000233	2.334673	0.395504	-0.000023
1853	1.8427e+02	1.5668	0.963772	0.000262	2.621387	0.444075	-0.000026
1854	1.8437e+02	1.5572	0.938925	0.000250	2.498510	0.423259	-0.000025
1855	1.8447e+02	1.5496	0.914077	0.000250	2.498510	0.423259	-0.000025
1856	1.8457e+02	1.5394	0.889229	0.000250	2.498510	0.423259	-0.000025
1857	1.8467e+02	1.5282	0.865196	0.000242	2.416591	0.409382	-0.000024
1858	1.8477e+02	1.5167	0.840348	0.000250	2.498510	0.423259	-0.000025
1859	1.8487e+02	1.5091	0.818351	0.000221	2.211796	0.374688	-0.000022
1860	1.8497e+02	1.4988	0.789837	0.000287	2.867142	0.485707	-0.000029
1861	1.8507e+02	1.4877	0.763360	0.000266	2.662346	0.451014	-0.000027
1862	1.8517e+02	1.4796	0.742178	0.000213	2.129877	0.360811	-0.000021
1863	1.8527e+02	1.4654	0.717738	0.000246	2.457551	0.416320	-0.000025
1864	1.8537e+02	1.4590	0.694926	0.000229	2.293714	0.388566	-0.000023
1865	1.8547e+02	1.4469	0.670893	0.000242	2.416591	0.409382	-0.000024
1866	1.8557e+02	1.4355	0.650119	0.000209	2.088918	0.353872	-0.000021
1867	1.8567e+02	1.4252	0.623641	0.000266	2.662346	0.451014	-0.000027
1868	1.8577e+02	1.4179	0.600423	0.000233	2.334673	0.395504	-0.000023
1869	1.8587e+02	1.4100	0.578834	0.000217	2.170836	0.367750	-0.000022
1870	1.8597e+02	1.3991	0.554801	0.000242	2.416591	0.409382	-0.000024
1871	1.8606e+02	1.3877	0.534433	0.000205	2.047959	0.346934	-0.000020
1872	1.8616e+02	1.3772	0.508771	0.000258	2.580428	0.437136	-0.000026
1873	1.8626e+02	1.3669	0.487182	0.000217	2.170836	0.367750	-0.000022
1874	1.8636e+02	1.3565	0.463963	0.000233	2.334673	0.395504	-0.000023
1875	1.8646e+02	1.3472	0.442781	0.000213	2.129877	0.360811	-0.000021
1876	1.8656e+02	1.3370	0.424044	0.000188	1.884122	0.319179	-0.000019
1877	1.8666e+02	1.3285	0.398381	0.000258	2.580428	0.437136	-0.000026
1878	1.8676e+02	1.3210	0.377199	0.000213	2.129877	0.360811	-0.000021
1879	1.8686e+02	1.3078	0.355203	0.000221	2.211796	0.374688	-0.000022
1880	1.8696e+02	1.2967	0.334021	0.000213	2.129877	0.360811	-0.000021
1881	1.8706e+02	1.2878	0.308766	0.000254	2.539469	0.430198	-0.000025
1882	1.8716e+02	1.2784	0.287991	0.000209	2.088918	0.353872	-0.000021
1883	1.8726e+02	1.2683	0.264365	0.000238	2.375632	0.402443	-0.000024
1884	1.8736e+02	1.2587	0.243998	0.000205	2.047959	0.346934	-0.000020
1885	1.8746e+02	1.2498	0.222409	0.000217	2.170836	0.367750	-0.000022
1886	1.8756e+02	1.2413	0.200005	0.000225	2.252755	0.381627	-0.000023
1887	1.8766e+02	1.2313	0.175972	0.000242	2.416591	0.409382	-0.000024
1888	1.8776e+02	1.2229	0.156420	0.000197	1.966040	0.333056	-0.000020
1889	1.8786e+02	1.2100	0.132794	0.000238	2.375632	0.402443	-0.000024
1890	1.8796e+02	1.2001	0.103872	0.000291	2.908101	0.492646	-0.000029
1891	1.8806e+02	1.1903	0.083913	0.000201	2.007000	0.339995	-0.000020
1892	1.8815e+02	1.1804	0.058657	0.000254	2.539469	0.430198	-0.000025
1893	1.8825e+02	1.1685	0.033402	0.000254	2.539469	0.430198	-0.000025
1894	1.8835e+02	1.1601	0.009776	0.000238	2.375632	0.402443	-0.000024
1895	1.8845e+02	1.1520	-0.016294	0.000262	2.621387	0.444075	-0.000026
1896	1.8855e+02	1.1407	-0.041956	0.000258	2.580428	0.437136	-0.000026
1897	1.8865e+02	1.1302	-0.066804	0.000250	2.498510	0.423259	-0.000025
1898	1.8875e+02	1.1206	-0.093689	0.000270	2.703306	0.457952	-0.000027
1899	1.8885e+02	1.1111	-0.121388	0.000279	2.785224	0.471830	-0.000028
1900	1.8895e+02	1.1011	-0.146236	0.000250	2.498510	0.423259	-0.000025
1901	1.8905e+02	1.0904	-0.172713	0.000266	2.662346	0.451014	-0.000027
1902	1.8915e+02	1.0787	-0.199191	0.000266	2.662346	0.451014	-0.000027
1903	1.8925e+02	1.0681	-0.224446	0.000254	2.539469	0.430198	-0.000025
1904	1.8935e+02	1.0612	-0.250516	0.000262	2.621387	0.444075	-0.000026
1905	1.8945e+02	1.0522	-0.275771	0.000254	2.539469	0.430198	-0.000025
1906	1.8955e+02	1.0397	-0.303063	0.000274	2.744265	0.464891	-0.000027
1907	1.8965e+02	1.0291	-0.325059	0.000221	2.211796	0.374688	-0.000022
1908	1.8975e+02	1.0213	-0.354795	0.000299	2.990020	0.506523	-0.000030
1909	1.8985e+02	1.0094	-0.382495	0.000279	2.785224	0.471830	-0.000028
1910	1.8995e+02	0.9991	-0.408565	0.000262	2.621387	0.444075	-0.000026
1911	1.9004e+02	0.9915	-0.433820	0.000254	2.539469	0.430198	-0.000025
1912	1.9014e+02	0.9825	-0.458668	0.000250	2.498510	0.423259	-0.000025
1913	1.9024e+02	0.9699	-0.483923	0.000254	2.539469	0.430198	-0.000025
1914	1.9034e+02	0.9624	-0.514881	0.000311	3.112897	0.527339	-0.000031
1915	1.9044e+02	0.9513	-0.538914	0.000242	2.416591	0.409382	-0.000024
1916	1.9054e+02	0.9422	-0.562947	0.000242	2.416591	0.409382	-0.000024
1917	1.9064e+02	0.9293	-0.592683	0.000299	2.990020	0.506523	-0.000030
1918	1.9074e+02	0.9203	-0.621605	0.000291	2.908101	0.492646	-0.000029
1919	1.9084e+02	0.9126	-0.647267	0.000258	2.580428	0.437136	-0.000026
1920	1.9094e+02	0.8999	-0.677003	0.000299	2.990020	0.506523	-0.000030
1921	1.9104e+02	0.8898	-0.702666	0.000258	2.580428	0.437136	-0.000026
1922	1.9114e+02	0.8818	-0.731180	0.000287	2.867142	0.485707	-0.000029
1923	1.9124e+02	0.8720	-0.756435	0.000254	2.539469	0.430198	-0.000025
1924	1.9134e+02	0.8625	-0.786578	0.000303	3.030979	0.513462	-0.000030
1925	1.9144e+02	0.8492	-0.812648	0.000262	2.621387	0.444075	-0.000026
1926	1.9154e+02	0.8431	-0.839533	0.000270	2.703306	0.457952	-0.000027
1927	1.9164e+02	0.8317	-0.868454	0.000291	2.908101	0.492646	-0.000029
1928	1.9174e+02	0.8205	-0.894117	0.000258	2.580428	0.437136	-0.000026
1929	1.9184e+02	0.8106	-0.925482	0.000315	3.153857	0.534278	-0.000032
1930	1.9194e+02	0.7992	-0.954811	0.000295	2.949061	0.499584	-0.000029
1931	1.9203e+02	0.7951	-0.979251	0.000246	2.457551	0.416320	-0.000025
1932	1.9213e+02	0.7849	-1.006543	0.000274	2.744265	0.464891	-0.000027
1933	1.9223e+02	0.7715	-1.035872	0.000295	2.949061	0.499584	-0.000029
1934	1.9233e+02	0.7612	-1.061127	0.000254	2.539469	0.430198	-0.000025
1935	1.9243e+02	0.7497	-1.090456	0.000295	2.949061	0.499584	-0.000029
1936	1.9253e+02	0.7420	-1.117341	0.000270	2.703306	0.457952	-0.000027
1937	1.9263e+02	0.7316	-1.141781	0.000246	2.457551	0.416320	-0.000025
1938	1.9273e+02	0.7221	-1.171925	0.000303	3.030979	0.513462	-0.000030
1939	1.9283e+02	0.7142	-1.197587	0.000258	2.580428	0.437136	-0.000026
1940	1.9293e+02	0.7014	-1.229767	0.000324	3.235775	0.548155	-0.000032
1941	1.9303e+02	0.6902	-1.252986	0.000233	2.334673	0.395504	-0.000023
1942	1.9313e+02	0.6831	-1.280685	0.000279	2.785224	0.471830	-0.000028
1943	1.9323e+02	0.6700	-1.311236	0.000307	3.071938	0.520400	-0.000031
1944	1.9333e+02	0.6629	-1.339342	0.000283	2.826183	0.478768	-0.000028
1945	1.9343e+02	0.6535	-1.364598	0.000254	2.539469	0.430198	-0.000025
1946	1.9353e+02	0.6416	-1.393926	0.000295	2.949061	0.499584	-0.000029
1947	1.9363e+02	0.6344	-1.422440	0.000287	2.867142	0.485707	-0.000029
1948	1.9373e+02	0.6222	-1.453806	0.000315	3.153857	0.534278	-0.000032
1949	1.9383e+02	0.6136	-1.479468	0.000258	2.580428	0.437136	-0.000026
1950	1.9393e+02	0.6039	-1.508797	0.000295	2.949061	0.499584	-0.000029
1951	1.9403e+02	0.5952	-1.536496	0.000279	2.785224	0.471830	-0.000028
1952	1.9412e+02	0.5818	-1.572750	0.000365	3.645367	0.617542	-0.000036
1953	1.9422e+02	0.5742	-1.599634	0.000270	2.703306	0.457952	-0.000027
1954	1.9432e+02	0.5633	-1.624889	0.000254	2.539469	0.430198	-0.000025
1955	1.9442e+02	0.5502	-1.657069	0.000324	3.235775	0.548155	-0.000032
1956	1.9452e+02	0.5451	-1.684769	0.000279	2.785224	0.471830	-0.000028
1957	1.9462e+02	0.5373	-1.715727	0.000311	3.112897	0.527339	-0.000031
1958	1.9472e+02	0.5234	-1.747907	0.000324	3.235775	0.548155	-0.000032
1959	1.9482e+02	0.5120	-1.777236	0.000295	2.949061	0.499584	-0.000029
1960	1.9492e+02	0.5031	-1.804935	0.000279	2.785224	0.471830	-0.000028
1961	1.9502e+02	0.4930	-1.839152	0.000344	3.440571	0.582848	-0.000034
1962	1.9512e+02	0.4838	-1.873776	0.000348	3.481530	0.589787	-0.000035
1963	1.9522e+02	0.4753	-1.904326	0.000307	3.071938	0.520400	-0.000031
1964	1.9532e+02	0.4642	-1.934062	0.000299	2.990020	0.506523	-0.000030
1965	1.9542e+02	0.4543	-1.962576	0.000287	2.867142	0.485707	-0.000029
1966	1.9552e+02	0.4422	-1.995979	0.000336	3.358652	0.568971	-0.000034
1967	1.9562e+02	0.4323	-2.022048	0.000262	2.621387	0.444075	-0.000026
1968	1.9572e+02	0.4235	-2.054636	0.000328	3.276734	0.555094	-0.000033
1969	1.9582e+02	0.4121	-2.083150	0.000287	2.867142	0.485707	-0.000029
1970	1.9592e+02	0.4053	-2.113293	0.000303	3.030979	0.513462	-0.000030
1971	1.9601e+02	0.3925	-2.141807	0.000287	2.867142	0.485707	-0.000029
1972	1.9611e+02	0.3826	-2.174802	0.000332	3.317693	0.562032	-0.000033
1973	1.9621e+02	0.3754	-2.204945	0.000303	3.030979	0.513462	-0.000030
1974	1.9631e+02	0.3632	-2.232237	0.000274	2.744265	0.464891	-0.000027
1975	1.9641e+02	0.3547	-2.261159	0.000291	2.908101	0.492646	-0.000029
1976	1.9651e+02	0.3445	-2.290487	0.000295	2.949061	0.499584	-0.000029
1977	1.9661e+02	0.3342	-2.319408	0.000291	2.908101	0.492646	-0.000029
1978	1.9671e+02	0.3266	-2.346293	0.000270	2.703306	0.457952	-0.000027
1979	1.9681e+02	0.3139	-2.373992	0.000279	2.785224	0.471830	-0.000028
1980	1.9691e+02	0.3044	-2.405358	0.000315	3.153857	0.534278	-0.000032
1981	1.9701e+02	0.2937	-2.428984	0.000238	2.375632	0.402443	-0.000024
1982	1.9711e+02	0.2851	-2.459942	0.000311	3.112897	0.527339	-0.000031
1983	1.9721e+02	0.2734	-2.485197	0.000254	2.539469	0.430198	-0.000025
1984	1.9731e+02	0.2645	-2.512082	0.000270	2.703306	0.457952	-0.000027
1985	1.9741e+02	0.2538	-2.538559	0.000266	2.662346	0.451014	-0.000027
1986	1.9751e+02	0.2445	-2.567887	0.000295	2.949061	0.499584	-0.000029
1987	1.9761e+02	0.2361	-2.593957	0.000262	2.621387	0.444075	-0.000026
1988	1.9771e+02	0.2242	-2.621657	0.000279	2.785224	0.471830	-0.000028
1989	1.9781e+02	0.2194	-2.649356	0.000279	2.785224	0.471830	-0.000028
1990	1.9791e+02	0.2048	-2.678277	0.000291	2.908101	0.492646	-0.000029
1991	1.9800e+02	0.1952	-2.702718	0.000246	2.457551	0.416320	-0.000025
1992	1.9810e+02	0.1852	-2.730417	0.000279	2.785224	0.471830	-0.000028
1993	1.9820e+02	0.1736	-2.758524	0.000283	2.826183	0.478768	-0.000028
1994	1.9830e+02	0.1625	-2.785816	0.000274	2.744265	0.464891	-0.000027
1995	1.9840e+02	0.1550	-2.812293	0.000266	2.662346	0.451014	-0.000027
1996	1.9850e+02	0.1439	-2.839585	0.000274	2.744265	0.464891	-0.000027
1997	1.9860e+02	0.1350	-2.867284	0.000279	2.785224	0.471830	-0.000028
1998	1.9870e+02	0.1227	-2.896206	0.000291	2.908101	0.492646	-0.000029
1999	1.9880e+02	0.1172	-2.922275	0.000262	2.621387	0.444075	-0.000026
2000	1.9890e+02	0.1047	-2.946309	0.000242	2.416591	0.409382	-0.000024
2001	1.9900e+02	0.0957	-2.973601	0.000274	2.744265	0.464891	-0.000027
2002	1.9910e+02	0.0851	-3.000893	0.000274	2.744265	0.464891	-0.000027
2003	1.9920e+02	0.0759	-3.027370	0.000266	2.662346	0.451014	-0.000027
2004	1.9930e+02	0.0644	-3.051810	0.000246	2.457551	0.416320	-0.000025
2005	1.9940e+02	0.0539	-3.079510	0.000279	2.785224	0.471830	-0.000028
2006	1.9950e+02	0.0437	-3.108431	0.000291	2.908101	0.492646	-0.000029
2007	1.9960e+02	0.0343	-3.132872	0.000246	2.457551	0.416320	-0.000025
2008	1.9970e+02	0.0225	-3.160978	0.000283	2.826183	0.478768	-0.000028
2009	1.9980e+02	0.0153	-3.184604	0.000238	2.375632	0.402443	-0.000024
2010	1.9990e+02	0.0062	-3.213933	0.000295	2.949061	0.499584	-0.000029
2011	2.0000e+02	-0.0051	-3.238373	0.000295	2.949061	0.499584	-0.000025

PMax (uC/cm2):	2.98e+01
Pr (uC/cm2):	1.27e+01
-Pr (uC/cm2):	0.00e+00
PLoss (uC/cm2):	0.00e+00
C (Max-Eff) (nF):	2.98e-01
K (Eff):	5.05e+02
Vert. (+/-Pr) Shift (uC/cm2):	6.37e+00
Offset (uC/cm2):	1.60e+01

A (Loop Area - uC/cm2·Volts):	-8.28e-02



Hysteresis Version: 5.48.1 - Radiant Technologies, Inc., 1999 - 9/12/24

