»»»»»»»»»»»»»»»»»»»»»»»»»»»»»»»»»»»» Hysteresis ««««««««««««««««««««««««««««««««««««
»»»  Executed Version:	5.48.1
»»»  Vision Version:	5.48.4 (R)
»»»  Vision Compiled:	9/18/24
»»»  Driver Version:	5.47.0
»»»  Windows Version:	Windows 8 or 8.1
»»»  Processor Information:	x86 (AMD or Intel) - 32 Processors
»»»  Tester Name:	PMF21124-494 (100V)
»»»  Tester S/N:	PMF21124-494
»»»  Internal Amp Type:	100V RevK 270k
»»»  Internal Amp S/N:	iAB2-596/K     
»»»  Execution Count:	1
»»»»»»»»»»»»»»»»»»»»»»»»»»»»»»»»»»»»»»»»»»««««««««««««««««««««««««««««««««««««««««««

Stored:	6/26/2025 - 15:45:46
Configured:	06/26/25 10:24:47 AM
Executed:	06/26/25 03:45:17 PM

»»»»»»»»»»»»»»»»»»»»»»»»»»»»»»»»»»» Sample Info ««««««««««««««««««««««««««««««««««««
Sample Name:	
Lot Name:	
Wafer Name:	
Die Row/Column:	0/0
Capacitor Number:	0
Sample Area (cm2):	1.00e-04
Sample Thickness (microns):	1.50e-01

Amplifier:	Internal

»»»»»»»»»»»»»»»»»»»»»»»»»»»»»»»»»»» Tester Info «««««««««««««««««««««««««««««««««««
Tester Name:	PMF21124-494 (100V)
Tester Serial Number:	PMF21124-494
Return Signal Amp. Level:	1.9 [Index: 2]

»»»»»»»»»»»»»»»»»»»»»»»»»»»»»»»» Hysteresis Info ««««««««««««««««««««««««««««««««««
Task Name:	Hyst-562
Volts:	10.00
Field:	666.67 (kV/cm)
DCBias:	0.00
DCField:	0.00 (kV/cm)
Hysteresis Period (ms):	2.00e+02
Preset:	Enabled
Preset Delay (ms):	1.00e+03
Profile:	Standard Monopolar

»»»»»»»»»»»»»»»»»»»»»»»»»»»»»»»»»»»»»» Data «««««««««««««««««««««««««««««««««««««««
Points:	2011

Valid Data

Point	Time (ms)	Drive Voltage	Measured Polarization (uC/cm2)	Capacitance (uF)	Normalized Capacitance (uF/cm2)	Dielectric Constant	Instantaneous Current (mA)
   1	0.0000e+00	-0.0059	-10.601701	0.000258	2.579926	0.437051	0.000026
   2	9.9500e-02	0.0055	-10.576038	0.000258	2.579926	0.437051	0.000026
   3	1.9900e-01	0.0133	-10.556893	0.000192	1.924707	0.326054	0.000019
   4	2.9850e-01	0.0272	-10.537341	0.000197	1.965658	0.332991	0.000020
   5	3.9800e-01	0.0375	-10.512493	0.000250	2.498023	0.423177	0.000025
   6	4.9750e-01	0.0447	-10.488460	0.000242	2.416121	0.409302	0.000024
   7	5.9700e-01	0.0549	-10.466463	0.000221	2.211365	0.374615	0.000022
   8	6.9650e-01	0.0623	-10.444059	0.000225	2.252316	0.381553	0.000023
   9	7.9600e-01	0.0735	-10.421248	0.000229	2.293267	0.388490	0.000023
  10	8.9550e-01	0.0835	-10.395586	0.000258	2.579926	0.437051	0.000026
  11	9.9500e-01	0.0951	-10.373182	0.000225	2.252316	0.381553	0.000023
  12	1.0945e+00	0.1030	-10.353629	0.000197	1.965658	0.332991	0.000020
  13	1.1940e+00	0.1127	-10.333262	0.000205	2.047560	0.346866	0.000020
  14	1.2935e+00	0.1234	-10.310044	0.000233	2.334219	0.395427	0.000023
  15	1.3930e+00	0.1366	-10.291713	0.000184	1.842804	0.312179	0.000018
  16	1.4925e+00	0.1415	-10.269717	0.000221	2.211365	0.374615	0.000022
  17	1.5920e+00	0.1509	-10.251386	0.000184	1.842804	0.312179	0.000018
  18	1.6915e+00	0.1643	-10.225724	0.000258	2.579926	0.437051	0.000026
  19	1.7910e+00	0.1761	-10.205357	0.000205	2.047560	0.346866	0.000020
  20	1.8905e+00	0.1842	-10.185804	0.000197	1.965658	0.332991	0.000020
  21	1.9900e+00	0.1952	-10.163400	0.000225	2.252316	0.381553	0.000023
  22	2.0895e+00	0.2044	-10.143033	0.000205	2.047560	0.346866	0.000020
  23	2.1890e+00	0.2144	-10.119407	0.000238	2.375170	0.402365	0.000024
  24	2.2885e+00	0.2237	-10.097818	0.000217	2.170414	0.367678	0.000022
  25	2.3880e+00	0.2353	-10.077044	0.000209	2.088511	0.353803	0.000021
  26	2.4875e+00	0.2442	-10.057899	0.000192	1.924707	0.326054	0.000019
  27	2.5870e+00	0.2534	-10.040790	0.000172	1.719951	0.291368	0.000017
  28	2.6865e+00	0.2647	-10.019201	0.000217	2.170414	0.367678	0.000022
  29	2.7860e+00	0.2733	-9.992316	0.000270	2.702780	0.457863	0.000027
  30	2.8855e+00	0.2847	-9.974801	0.000176	1.760902	0.298305	0.000018
  31	2.9850e+00	0.2954	-9.948731	0.000262	2.620877	0.443989	0.000026
  32	3.0845e+00	0.3017	-9.929586	0.000192	1.924707	0.326054	0.000019
  33	3.1840e+00	0.3150	-9.906367	0.000233	2.334219	0.395427	0.000023
  34	3.2835e+00	0.3230	-9.885593	0.000209	2.088511	0.353803	0.000021
  35	3.3830e+00	0.3360	-9.861967	0.000238	2.375170	0.402365	0.000024
  36	3.4825e+00	0.3431	-9.835490	0.000266	2.661828	0.450926	0.000027
  37	3.5820e+00	0.3533	-9.815122	0.000205	2.047560	0.346866	0.000020
  38	3.6815e+00	0.3639	-9.794755	0.000205	2.047560	0.346866	0.000020
  39	3.7810e+00	0.3740	-9.770315	0.000246	2.457072	0.416239	0.000025
  40	3.8805e+00	0.3831	-9.746282	0.000242	2.416121	0.409302	0.000024
  41	3.9800e+00	0.3912	-9.721026	0.000254	2.538975	0.430114	0.000025
  42	4.0795e+00	0.4025	-9.699437	0.000217	2.170414	0.367678	0.000022
  43	4.1790e+00	0.4133	-9.678255	0.000213	2.129463	0.360741	0.000021
  44	4.2785e+00	0.4236	-9.654222	0.000242	2.416121	0.409302	0.000024
  45	4.3780e+00	0.4323	-9.633448	0.000209	2.088511	0.353803	0.000021
  46	4.4775e+00	0.4417	-9.611451	0.000221	2.211365	0.374615	0.000022
  47	4.5770e+00	0.4525	-9.586196	0.000254	2.538975	0.430114	0.000025
  48	4.6765e+00	0.4629	-9.565829	0.000205	2.047560	0.346866	0.000020
  49	4.7760e+00	0.4704	-9.541796	0.000242	2.416121	0.409302	0.000024
  50	4.8755e+00	0.4848	-9.525095	0.000168	1.678999	0.284430	0.000017
  51	4.9750e+00	0.4941	-9.502283	0.000229	2.293267	0.388490	0.000023
  52	5.0745e+00	0.5051	-9.480287	0.000221	2.211365	0.374615	0.000022
  53	5.1740e+00	0.5098	-9.459105	0.000213	2.129463	0.360741	0.000021
  54	5.2735e+00	0.5235	-9.437923	0.000213	2.129463	0.360741	0.000021
  55	5.3730e+00	0.5338	-9.414705	0.000233	2.334219	0.395427	0.000023
  56	5.4725e+00	0.5417	-9.390264	0.000246	2.457072	0.416239	0.000025
  57	5.5720e+00	0.5529	-9.366638	0.000238	2.375170	0.402365	0.000024
  58	5.6715e+00	0.5626	-9.345864	0.000209	2.088511	0.353803	0.000021
  59	5.7710e+00	0.5717	-9.325497	0.000205	2.047560	0.346866	0.000020
  60	5.8705e+00	0.5812	-9.306759	0.000188	1.883755	0.319117	0.000019
  61	5.9700e+00	0.5904	-9.281504	0.000254	2.538975	0.430114	0.000025
  62	6.0695e+00	0.6032	-9.260729	0.000209	2.088511	0.353803	0.000021
  63	6.1690e+00	0.6134	-9.239140	0.000217	2.170414	0.367678	0.000022
  64	6.2685e+00	0.6235	-9.217958	0.000213	2.129463	0.360741	0.000021
  65	6.3680e+00	0.6296	-9.192703	0.000254	2.538975	0.430114	0.000025
  66	6.4675e+00	0.6439	-9.172336	0.000205	2.047560	0.346866	0.000020
  67	6.5670e+00	0.6526	-9.147895	0.000246	2.457072	0.416239	0.000025
  68	6.6665e+00	0.6625	-9.124677	0.000233	2.334219	0.395427	0.000023
  69	6.7660e+00	0.6715	-9.099829	0.000250	2.498023	0.423177	0.000025
  70	6.8655e+00	0.6818	-9.076203	0.000238	2.375170	0.402365	0.000024
  71	6.9650e+00	0.6953	-9.050948	0.000254	2.538975	0.430114	0.000025
  72	7.0645e+00	0.7010	-9.029359	0.000217	2.170414	0.367678	0.000022
  73	7.1640e+00	0.7096	-9.007362	0.000221	2.211365	0.374615	0.000022
  74	7.2635e+00	0.7224	-8.981292	0.000262	2.620877	0.443989	0.000026
  75	7.3630e+00	0.7307	-8.958074	0.000233	2.334219	0.395427	0.000023
  76	7.4625e+00	0.7440	-8.932411	0.000258	2.579926	0.437051	0.000026
  77	7.5620e+00	0.7537	-8.907971	0.000246	2.457072	0.416239	0.000025
  78	7.6615e+00	0.7613	-8.887196	0.000209	2.088511	0.353803	0.000021
  79	7.7610e+00	0.7716	-8.864792	0.000225	2.252316	0.381553	0.000023
  80	7.8605e+00	0.7810	-8.838722	0.000262	2.620877	0.443989	0.000026
  81	7.9600e+00	0.7925	-8.815504	0.000233	2.334219	0.395427	0.000023
  82	8.0595e+00	0.8030	-8.790656	0.000250	2.498023	0.423177	0.000025
  83	8.1590e+00	0.8132	-8.763771	0.000270	2.702780	0.457863	0.000027
  84	8.2585e+00	0.8207	-8.742590	0.000213	2.129463	0.360741	0.000021
  85	8.3580e+00	0.8300	-8.717334	0.000254	2.538975	0.430114	0.000025
  86	8.4575e+00	0.8414	-8.692894	0.000246	2.457072	0.416239	0.000025
  87	8.5570e+00	0.8511	-8.668861	0.000242	2.416121	0.409302	0.000024
  88	8.6565e+00	0.8607	-8.642791	0.000262	2.620877	0.443989	0.000026
  89	8.7560e+00	0.8691	-8.619165	0.000238	2.375170	0.402365	0.000024
  90	8.8555e+00	0.8804	-8.596354	0.000229	2.293267	0.388490	0.000023
  91	8.9550e+00	0.8905	-8.570691	0.000258	2.579926	0.437051	0.000026
  92	9.0545e+00	0.9022	-8.547880	0.000229	2.293267	0.388490	0.000023
  93	9.1540e+00	0.9114	-8.523847	0.000242	2.416121	0.409302	0.000024
  94	9.2535e+00	0.9212	-8.500628	0.000233	2.334219	0.395427	0.000023
  95	9.3530e+00	0.9344	-8.471299	0.000295	2.948487	0.499487	0.000029
  96	9.4525e+00	0.9425	-8.446859	0.000246	2.457072	0.416239	0.000025
  97	9.5520e+00	0.9513	-8.424862	0.000221	2.211365	0.374615	0.000022
  98	9.6515e+00	0.9607	-8.395534	0.000295	2.948487	0.499487	0.000029
  99	9.7510e+00	0.9706	-8.371500	0.000242	2.416121	0.409302	0.000024
 100	9.8505e+00	0.9785	-8.349097	0.000225	2.252316	0.381553	0.000023
 101	9.9500e+00	0.9910	-8.315287	0.000340	3.398950	0.575798	0.000034
 102	1.0050e+01	1.0001	-8.292476	0.000229	2.293267	0.388490	0.000023
 103	1.0149e+01	1.0104	-8.270072	0.000225	2.252316	0.381553	0.000023
 104	1.0248e+01	1.0188	-8.242780	0.000274	2.743731	0.464801	0.000027
 105	1.0348e+01	1.0300	-8.218747	0.000242	2.416121	0.409302	0.000024
 106	1.0447e+01	1.0403	-8.190640	0.000283	2.825633	0.478675	0.000028
 107	1.0547e+01	1.0496	-8.158460	0.000324	3.235145	0.548048	0.000032
 108	1.0646e+01	1.0590	-8.137686	0.000209	2.088511	0.353803	0.000021
 109	1.0746e+01	1.0690	-8.113245	0.000246	2.457072	0.416239	0.000025
 110	1.0845e+01	1.0793	-8.085953	0.000274	2.743731	0.464801	0.000027
 111	1.0945e+01	1.0901	-8.057847	0.000283	2.825633	0.478675	0.000028
 112	1.1044e+01	1.1008	-8.034221	0.000238	2.375170	0.402365	0.000024
 113	1.1144e+01	1.1111	-8.005707	0.000287	2.866584	0.485613	0.000029
 114	1.1243e+01	1.1185	-7.982896	0.000229	2.293267	0.388490	0.000023
 115	1.1343e+01	1.1329	-7.956418	0.000266	2.661828	0.450926	0.000027
 116	1.1443e+01	1.1370	-7.931570	0.000250	2.498023	0.423177	0.000025
 117	1.1542e+01	1.1485	-7.904686	0.000270	2.702780	0.457863	0.000027
 118	1.1642e+01	1.1599	-7.883911	0.000209	2.088511	0.353803	0.000021
 119	1.1741e+01	1.1727	-7.859471	0.000246	2.457072	0.416239	0.000025
 120	1.1841e+01	1.1796	-7.832994	0.000266	2.661828	0.450926	0.000027
 121	1.1940e+01	1.1919	-7.811812	0.000213	2.129463	0.360741	0.000021
 122	1.2040e+01	1.2002	-7.785742	0.000262	2.620877	0.443989	0.000026
 123	1.2139e+01	1.2103	-7.761709	0.000242	2.416121	0.409302	0.000024
 124	1.2239e+01	1.2205	-7.739712	0.000221	2.211365	0.374615	0.000022
 125	1.2338e+01	1.2310	-7.714864	0.000250	2.498023	0.423177	0.000025
 126	1.2438e+01	1.2415	-7.689609	0.000254	2.538975	0.430114	0.000025
 127	1.2537e+01	1.2500	-7.665983	0.000238	2.375170	0.402365	0.000024
 128	1.2636e+01	1.2574	-7.643579	0.000225	2.252316	0.381553	0.000023
 129	1.2736e+01	1.2718	-7.621990	0.000217	2.170414	0.367678	0.000022
 130	1.2835e+01	1.2789	-7.599179	0.000229	2.293267	0.388490	0.000023
 131	1.2935e+01	1.2881	-7.568628	0.000307	3.071340	0.520299	0.000031
 132	1.3034e+01	1.2981	-7.545817	0.000229	2.293267	0.388490	0.000023
 133	1.3134e+01	1.3037	-7.518932	0.000270	2.702780	0.457863	0.000027
 134	1.3233e+01	1.3201	-7.496936	0.000221	2.211365	0.374615	0.000022
 135	1.3333e+01	1.3273	-7.466793	0.000303	3.030389	0.513362	0.000030
 136	1.3432e+01	1.3403	-7.441130	0.000258	2.579926	0.437051	0.000026
 137	1.3532e+01	1.3488	-7.419134	0.000221	2.211365	0.374615	0.000022
 138	1.3632e+01	1.3589	-7.393064	0.000262	2.620877	0.443989	0.000026
 139	1.3731e+01	1.3696	-7.370252	0.000229	2.293267	0.388490	0.000023
 140	1.3831e+01	1.3794	-7.345812	0.000246	2.457072	0.416239	0.000025
 141	1.3930e+01	1.3886	-7.320557	0.000254	2.538975	0.430114	0.000025
 142	1.4030e+01	1.3984	-7.294487	0.000262	2.620877	0.443989	0.000026
 143	1.4129e+01	1.4074	-7.270046	0.000246	2.457072	0.416239	0.000025
 144	1.4229e+01	1.4172	-7.243976	0.000262	2.620877	0.443989	0.000026
 145	1.4328e+01	1.4275	-7.217092	0.000270	2.702780	0.457863	0.000027
 146	1.4428e+01	1.4388	-7.192244	0.000250	2.498023	0.423177	0.000025
 147	1.4527e+01	1.4465	-7.169840	0.000225	2.252316	0.381553	0.000023
 148	1.4627e+01	1.4561	-7.147843	0.000221	2.211365	0.374615	0.000022
 149	1.4726e+01	1.4664	-7.122181	0.000258	2.579926	0.437051	0.000026
 150	1.4825e+01	1.4787	-7.099370	0.000229	2.293267	0.388490	0.000023
 151	1.4925e+01	1.4871	-7.072892	0.000266	2.661828	0.450926	0.000027
 152	1.5024e+01	1.4975	-7.055377	0.000176	1.760902	0.298305	0.000018
 153	1.5124e+01	1.5078	-7.030936	0.000246	2.457072	0.416239	0.000025
 154	1.5223e+01	1.5185	-7.007310	0.000238	2.375170	0.402365	0.000024
 155	1.5323e+01	1.5271	-6.982870	0.000246	2.457072	0.416239	0.000025
 156	1.5422e+01	1.5361	-6.961688	0.000213	2.129463	0.360741	0.000021
 157	1.5522e+01	1.5477	-6.940913	0.000209	2.088511	0.353803	0.000021
 158	1.5621e+01	1.5564	-6.913621	0.000274	2.743731	0.464801	0.000027
 159	1.5721e+01	1.5640	-6.892032	0.000217	2.170414	0.367678	0.000022
 160	1.5820e+01	1.5787	-6.873295	0.000188	1.883755	0.319117	0.000019
 161	1.5920e+01	1.5849	-6.844373	0.000291	2.907536	0.492550	0.000029
 162	1.6020e+01	1.5981	-6.824413	0.000201	2.006609	0.339929	0.000020
 163	1.6119e+01	1.6090	-6.803639	0.000209	2.088511	0.353803	0.000021
 164	1.6218e+01	1.6175	-6.780420	0.000233	2.334219	0.395427	0.000023
 165	1.6318e+01	1.6277	-6.753943	0.000266	2.661828	0.450926	0.000027
 166	1.6418e+01	1.6372	-6.735613	0.000184	1.842804	0.312179	0.000018
 167	1.6517e+01	1.6460	-6.711987	0.000238	2.375170	0.402365	0.000024
 168	1.6616e+01	1.6565	-6.690398	0.000217	2.170414	0.367678	0.000022
 169	1.6716e+01	1.6690	-6.670438	0.000201	2.006609	0.339929	0.000020
 170	1.6816e+01	1.6772	-6.643961	0.000266	2.661828	0.450926	0.000027
 171	1.6915e+01	1.6873	-6.623594	0.000205	2.047560	0.346866	0.000020
 172	1.7015e+01	1.6984	-6.603634	0.000201	2.006609	0.339929	0.000020
 173	1.7114e+01	1.7052	-6.580008	0.000238	2.375170	0.402365	0.000024
 174	1.7213e+01	1.7155	-6.553531	0.000266	2.661828	0.450926	0.000027
 175	1.7313e+01	1.7260	-6.537237	0.000164	1.638048	0.277493	0.000016
 176	1.7413e+01	1.7365	-6.512796	0.000246	2.457072	0.416239	0.000025
 177	1.7512e+01	1.7481	-6.494059	0.000188	1.883755	0.319117	0.000019
 178	1.7611e+01	1.7548	-6.470025	0.000242	2.416121	0.409302	0.000024
 179	1.7711e+01	1.7641	-6.448436	0.000217	2.170414	0.367678	0.000022
 180	1.7811e+01	1.7764	-6.425625	0.000229	2.293267	0.388490	0.000023
 181	1.7910e+01	1.7860	-6.408517	0.000172	1.719951	0.291368	0.000017
 182	1.8009e+01	1.7967	-6.384076	0.000246	2.457072	0.416239	0.000025
 183	1.8109e+01	1.8063	-6.362894	0.000213	2.129463	0.360741	0.000021
 184	1.8209e+01	1.8156	-6.346601	0.000164	1.638048	0.277493	0.000016
 185	1.8308e+01	1.8288	-6.324197	0.000225	2.252316	0.381553	0.000023
 186	1.8407e+01	1.8382	-6.306274	0.000180	1.801853	0.305242	0.000018
 187	1.8507e+01	1.8455	-6.283870	0.000225	2.252316	0.381553	0.000023
 188	1.8607e+01	1.8511	-6.267576	0.000164	1.638048	0.277493	0.000016
 189	1.8706e+01	1.8663	-6.244765	0.000229	2.293267	0.388490	0.000023
 190	1.8805e+01	1.8765	-6.222361	0.000225	2.252316	0.381553	0.000023
 191	1.8905e+01	1.8847	-6.199957	0.000225	2.252316	0.381553	0.000023
 192	1.9005e+01	1.8959	-6.179998	0.000201	2.006609	0.339929	0.000020
 193	1.9104e+01	1.9059	-6.162074	0.000180	1.801853	0.305242	0.000018
 194	1.9203e+01	1.9157	-6.141707	0.000205	2.047560	0.346866	0.000020
 195	1.9303e+01	1.9282	-6.121340	0.000205	2.047560	0.346866	0.000020
 196	1.9402e+01	1.9337	-6.103010	0.000184	1.842804	0.312179	0.000018
 197	1.9502e+01	1.9467	-6.080606	0.000225	2.252316	0.381553	0.000023
 198	1.9602e+01	1.9547	-6.060646	0.000201	2.006609	0.339929	0.000020
 199	1.9701e+01	1.9650	-6.039057	0.000217	2.170414	0.367678	0.000022
 200	1.9800e+01	1.9738	-6.018690	0.000205	2.047560	0.346866	0.000020
 201	1.9900e+01	1.9858	-5.994249	0.000246	2.457072	0.416239	0.000025
 202	2.0000e+01	1.9942	-5.973475	0.000209	2.088511	0.353803	0.000021
 203	2.0099e+01	2.0054	-5.956366	0.000172	1.719951	0.291368	0.000017
 204	2.0198e+01	2.0147	-5.933555	0.000229	2.293267	0.388490	0.000023
 205	2.0298e+01	2.0256	-5.907485	0.000262	2.620877	0.443989	0.000026
 206	2.0398e+01	2.0351	-5.886304	0.000213	2.129463	0.360741	0.000021
 207	2.0497e+01	2.0456	-5.863900	0.000225	2.252316	0.381553	0.000023
 208	2.0596e+01	2.0551	-5.845162	0.000188	1.883755	0.319117	0.000019
 209	2.0696e+01	2.0644	-5.823980	0.000213	2.129463	0.360741	0.000021
 210	2.0796e+01	2.0750	-5.797503	0.000266	2.661828	0.450926	0.000027
 211	2.0895e+01	2.0835	-5.774692	0.000229	2.293267	0.388490	0.000023
 212	2.0994e+01	2.0943	-5.755547	0.000192	1.924707	0.326054	0.000019
 213	2.1094e+01	2.1069	-5.734365	0.000213	2.129463	0.360741	0.000021
 214	2.1194e+01	2.1136	-5.711961	0.000225	2.252316	0.381553	0.000023
 215	2.1293e+01	2.1263	-5.692408	0.000197	1.965658	0.332991	0.000020
 216	2.1392e+01	2.1362	-5.670005	0.000225	2.252316	0.381553	0.000023
 217	2.1492e+01	2.1452	-5.647601	0.000225	2.252316	0.381553	0.000023
 218	2.1591e+01	2.1536	-5.630085	0.000176	1.760902	0.298305	0.000018
 219	2.1691e+01	2.1668	-5.608496	0.000217	2.170414	0.367678	0.000022
 220	2.1791e+01	2.1737	-5.584463	0.000242	2.416121	0.409302	0.000024
 221	2.1890e+01	2.1873	-5.568984	0.000156	1.556146	0.263618	0.000016
 222	2.1989e+01	2.1957	-5.546987	0.000221	2.211365	0.374615	0.000022
 223	2.2089e+01	2.2029	-5.523361	0.000238	2.375170	0.402365	0.000024
 224	2.2189e+01	2.2170	-5.502180	0.000213	2.129463	0.360741	0.000021
 225	2.2288e+01	2.2250	-5.485478	0.000168	1.678999	0.284430	0.000017
 226	2.2387e+01	2.2355	-5.462260	0.000233	2.334219	0.395427	0.000023
 227	2.2487e+01	2.2446	-5.434968	0.000274	2.743731	0.464801	0.000027
 228	2.2587e+01	2.2540	-5.421526	0.000135	1.351390	0.228932	0.000014
 229	2.2686e+01	2.2653	-5.399529	0.000221	2.211365	0.374615	0.000022
 230	2.2785e+01	2.2739	-5.379977	0.000197	1.965658	0.332991	0.000020
 231	2.2885e+01	2.2821	-5.356758	0.000233	2.334219	0.395427	0.000023
 232	2.2985e+01	2.2952	-5.338428	0.000184	1.842804	0.312179	0.000018
 233	2.3084e+01	2.3022	-5.309099	0.000295	2.948487	0.499487	0.000029
 234	2.3183e+01	2.3129	-5.292398	0.000168	1.678999	0.284430	0.000017
 235	2.3283e+01	2.3227	-5.265921	0.000266	2.661828	0.450926	0.000027
 236	2.3383e+01	2.3344	-5.243924	0.000221	2.211365	0.374615	0.000022
 237	2.3482e+01	2.3432	-5.223150	0.000209	2.088511	0.353803	0.000021
 238	2.3581e+01	2.3540	-5.197487	0.000258	2.579926	0.437051	0.000026
 239	2.3681e+01	2.3631	-5.178342	0.000192	1.924707	0.326054	0.000019
 240	2.3780e+01	2.3745	-5.153902	0.000246	2.457072	0.416239	0.000025
 241	2.3880e+01	2.3837	-5.137201	0.000168	1.678999	0.284430	0.000017
 242	2.3980e+01	2.3927	-5.106243	0.000311	3.112292	0.527236	0.000031
 243	2.4079e+01	2.4044	-5.084653	0.000217	2.170414	0.367678	0.000022
 244	2.4178e+01	2.4157	-5.064286	0.000205	2.047560	0.346866	0.000020
 245	2.4278e+01	2.4236	-5.040253	0.000242	2.416121	0.409302	0.000024
 246	2.4378e+01	2.4328	-5.017035	0.000233	2.334219	0.395427	0.000023
 247	2.4477e+01	2.4450	-4.993816	0.000233	2.334219	0.395427	0.000023
 248	2.4576e+01	2.4535	-4.974671	0.000192	1.924707	0.326054	0.000019
 249	2.4676e+01	2.4635	-4.944935	0.000299	2.989438	0.506424	0.000030
 250	2.4776e+01	2.4718	-4.923346	0.000217	2.170414	0.367678	0.000022
 251	2.4875e+01	2.4824	-4.900535	0.000229	2.293267	0.388490	0.000023
 252	2.4974e+01	2.4915	-4.877723	0.000229	2.293267	0.388490	0.000023
 253	2.5074e+01	2.5036	-4.854505	0.000233	2.334219	0.395427	0.000023
 254	2.5174e+01	2.5140	-4.831286	0.000233	2.334219	0.395427	0.000023
 255	2.5273e+01	2.5262	-4.809697	0.000217	2.170414	0.367678	0.000022
 256	2.5372e+01	2.5332	-4.785664	0.000242	2.416121	0.409302	0.000024
 257	2.5472e+01	2.5423	-4.761223	0.000246	2.457072	0.416239	0.000025
 258	2.5572e+01	2.5526	-4.741671	0.000197	1.965658	0.332991	0.000020
 259	2.5671e+01	2.5621	-4.716008	0.000258	2.579926	0.437051	0.000026
 260	2.5770e+01	2.5723	-4.697271	0.000188	1.883755	0.319117	0.000019
 261	2.5870e+01	2.5818	-4.668757	0.000287	2.866584	0.485613	0.000029
 262	2.5970e+01	2.5916	-4.647575	0.000213	2.129463	0.360741	0.000021
 263	2.6069e+01	2.6046	-4.618654	0.000291	2.907536	0.492550	0.000029
 264	2.6169e+01	2.6115	-4.599101	0.000197	1.965658	0.332991	0.000020
 265	2.6268e+01	2.6208	-4.575475	0.000238	2.375170	0.402365	0.000024
 266	2.6367e+01	2.6334	-4.546961	0.000287	2.866584	0.485613	0.000029
 267	2.6467e+01	2.6430	-4.525779	0.000213	2.129463	0.360741	0.000021
 268	2.6567e+01	2.6501	-4.499302	0.000266	2.661828	0.450926	0.000027
 269	2.6666e+01	2.6611	-4.475676	0.000238	2.375170	0.402365	0.000024
 270	2.6765e+01	2.6723	-4.452050	0.000238	2.375170	0.402365	0.000024
 271	2.6865e+01	2.6810	-4.424351	0.000278	2.784682	0.471738	0.000028
 272	2.6965e+01	2.6890	-4.399503	0.000250	2.498023	0.423177	0.000025
 273	2.7064e+01	2.7002	-4.375063	0.000246	2.457072	0.416239	0.000025
 274	2.7163e+01	2.7109	-4.350622	0.000246	2.457072	0.416239	0.000025
 275	2.7263e+01	2.7213	-4.322923	0.000278	2.784682	0.471738	0.000028
 276	2.7363e+01	2.7312	-4.297668	0.000254	2.538975	0.430114	0.000025
 277	2.7462e+01	2.7439	-4.274856	0.000229	2.293267	0.388490	0.000023
 278	2.7561e+01	2.7493	-4.247972	0.000270	2.702780	0.457863	0.000027
 279	2.7661e+01	2.7637	-4.226790	0.000213	2.129463	0.360741	0.000021
 280	2.7761e+01	2.7734	-4.198276	0.000287	2.866584	0.485613	0.000029
 281	2.7860e+01	2.7824	-4.174650	0.000238	2.375170	0.402365	0.000024
 282	2.7959e+01	2.7905	-4.152654	0.000221	2.211365	0.374615	0.000022
 283	2.8059e+01	2.8020	-4.124954	0.000278	2.784682	0.471738	0.000028
 284	2.8159e+01	2.8129	-4.106217	0.000188	1.883755	0.319117	0.000019
 285	2.8258e+01	2.8217	-4.079739	0.000266	2.661828	0.450926	0.000027
 286	2.8358e+01	2.8314	-4.054077	0.000258	2.579926	0.437051	0.000026
 287	2.8457e+01	2.8427	-4.030451	0.000238	2.375170	0.402365	0.000024
 288	2.8556e+01	2.8490	-4.008862	0.000217	2.170414	0.367678	0.000022
 289	2.8656e+01	2.8619	-3.987273	0.000217	2.170414	0.367678	0.000022
 290	2.8756e+01	2.8716	-3.962017	0.000254	2.538975	0.430114	0.000025
 291	2.8855e+01	2.8811	-3.939206	0.000229	2.293267	0.388490	0.000023
 292	2.8954e+01	2.8898	-3.917617	0.000217	2.170414	0.367678	0.000022
 293	2.9054e+01	2.9015	-3.895620	0.000221	2.211365	0.374615	0.000022
 294	2.9154e+01	2.9115	-3.872809	0.000229	2.293267	0.388490	0.000023
 295	2.9253e+01	2.9200	-3.849998	0.000229	2.293267	0.388490	0.000023
 296	2.9352e+01	2.9314	-3.826372	0.000238	2.375170	0.402365	0.000024
 297	2.9452e+01	2.9407	-3.802339	0.000242	2.416121	0.409302	0.000024
 298	2.9552e+01	2.9504	-3.779935	0.000225	2.252316	0.381553	0.000023
 299	2.9651e+01	2.9598	-3.753458	0.000266	2.661828	0.450926	0.000027
 300	2.9750e+01	2.9702	-3.731869	0.000217	2.170414	0.367678	0.000022
 301	2.9850e+01	2.9787	-3.702947	0.000291	2.907536	0.492550	0.000029
 302	2.9950e+01	2.9910	-3.679729	0.000233	2.334219	0.395427	0.000023
 303	3.0049e+01	3.0011	-3.657325	0.000225	2.252316	0.381553	0.000023
 304	3.0148e+01	3.0094	-3.632885	0.000246	2.457072	0.416239	0.000025
 305	3.0248e+01	3.0235	-3.610888	0.000221	2.211365	0.374615	0.000022
 306	3.0348e+01	3.0303	-3.586040	0.000250	2.498023	0.423177	0.000025
 307	3.0447e+01	3.0387	-3.563229	0.000229	2.293267	0.388490	0.000023
 308	3.0547e+01	3.0489	-3.539603	0.000238	2.375170	0.402365	0.000024
 309	3.0646e+01	3.0611	-3.518421	0.000213	2.129463	0.360741	0.000021
 310	3.0745e+01	3.0706	-3.490722	0.000278	2.784682	0.471738	0.000028
 311	3.0845e+01	3.0791	-3.465467	0.000254	2.538975	0.430114	0.000025
 312	3.0945e+01	3.0920	-3.443470	0.000221	2.211365	0.374615	0.000022
 313	3.1044e+01	3.1005	-3.418215	0.000254	2.538975	0.430114	0.000025
 314	3.1143e+01	3.1081	-3.394589	0.000238	2.375170	0.402365	0.000024
 315	3.1243e+01	3.1192	-3.372593	0.000221	2.211365	0.374615	0.000022
 316	3.1343e+01	3.1294	-3.349781	0.000229	2.293267	0.388490	0.000023
 317	3.1442e+01	3.1416	-3.324934	0.000250	2.498023	0.423177	0.000025
 318	3.1541e+01	3.1525	-3.308640	0.000164	1.638048	0.277493	0.000016
 319	3.1641e+01	3.1583	-3.281348	0.000274	2.743731	0.464801	0.000027
 320	3.1741e+01	3.1707	-3.261388	0.000201	2.006609	0.339929	0.000020
 321	3.1840e+01	3.1820	-3.241428	0.000201	2.006609	0.339929	0.000020
 322	3.1939e+01	3.1867	-3.215358	0.000262	2.620877	0.443989	0.000026
 323	3.2039e+01	3.1997	-3.193362	0.000221	2.211365	0.374615	0.000022
 324	3.2139e+01	3.2098	-3.172180	0.000213	2.129463	0.360741	0.000021
 325	3.2238e+01	3.2198	-3.153442	0.000188	1.883755	0.319117	0.000019
 326	3.2337e+01	3.2275	-3.132668	0.000209	2.088511	0.353803	0.000021
 327	3.2437e+01	3.2377	-3.112708	0.000201	2.006609	0.339929	0.000020
 328	3.2536e+01	3.2485	-3.087046	0.000258	2.579926	0.437051	0.000026
 329	3.2636e+01	3.2586	-3.063420	0.000238	2.375170	0.402365	0.000024
 330	3.2736e+01	3.2713	-3.045089	0.000184	1.842804	0.312179	0.000018
 331	3.2835e+01	3.2803	-3.023093	0.000221	2.211365	0.374615	0.000022
 332	3.2934e+01	3.2900	-3.002726	0.000205	2.047560	0.346866	0.000020
 333	3.3034e+01	3.3019	-2.980322	0.000225	2.252316	0.381553	0.000023
 334	3.3133e+01	3.3124	-2.960362	0.000201	2.006609	0.339929	0.000020
 335	3.3233e+01	3.3179	-2.935107	0.000254	2.538975	0.430114	0.000025
 336	3.3333e+01	3.3292	-2.919220	0.000160	1.597097	0.270556	0.000016
 337	3.3432e+01	3.3399	-2.893150	0.000262	2.620877	0.443989	0.000026
 338	3.3532e+01	3.3481	-2.873598	0.000197	1.965658	0.332991	0.000020
 339	3.3631e+01	3.3576	-2.853638	0.000201	2.006609	0.339929	0.000020
 340	3.3730e+01	3.3686	-2.830827	0.000229	2.293267	0.388490	0.000023
 341	3.3830e+01	3.3764	-2.811275	0.000197	1.965658	0.332991	0.000020
 342	3.3929e+01	3.3892	-2.790907	0.000205	2.047560	0.346866	0.000020
 343	3.4029e+01	3.3961	-2.770948	0.000201	2.006609	0.339929	0.000020
 344	3.4129e+01	3.4090	-2.746914	0.000242	2.416121	0.409302	0.000024
 345	3.4228e+01	3.4174	-2.725325	0.000217	2.170414	0.367678	0.000022
 346	3.4328e+01	3.4285	-2.703329	0.000221	2.211365	0.374615	0.000022
 347	3.4427e+01	3.4367	-2.685406	0.000180	1.801853	0.305242	0.000018
 348	3.4526e+01	3.4470	-2.666668	0.000188	1.883755	0.319117	0.000019
 349	3.4626e+01	3.4582	-2.643857	0.000229	2.293267	0.388490	0.000023
 350	3.4725e+01	3.4667	-2.627563	0.000164	1.638048	0.277493	0.000016
 351	3.4825e+01	3.4780	-2.603937	0.000238	2.375170	0.402365	0.000024
 352	3.4925e+01	3.4895	-2.589273	0.000147	1.474243	0.249744	0.000015
 353	3.5024e+01	3.4959	-2.571350	0.000180	1.801853	0.305242	0.000018
 354	3.5123e+01	3.5084	-2.553019	0.000184	1.842804	0.312179	0.000018
 355	3.5223e+01	3.5162	-2.533467	0.000197	1.965658	0.332991	0.000020
 356	3.5322e+01	3.5275	-2.511063	0.000225	2.252316	0.381553	0.000023
 357	3.5422e+01	3.5384	-2.493140	0.000180	1.801853	0.305242	0.000018
 358	3.5522e+01	3.5487	-2.472366	0.000209	2.088511	0.353803	0.000021
 359	3.5621e+01	3.5596	-2.451998	0.000205	2.047560	0.346866	0.000020
 360	3.5721e+01	3.5690	-2.437334	0.000147	1.474243	0.249744	0.000015
 361	3.5820e+01	3.5778	-2.419411	0.000180	1.801853	0.305242	0.000018
 362	3.5919e+01	3.5879	-2.397007	0.000225	2.252316	0.381553	0.000023
 363	3.6019e+01	3.5954	-2.377862	0.000192	1.924707	0.326054	0.000019
 364	3.6118e+01	3.6073	-2.359939	0.000180	1.801853	0.305242	0.000018
 365	3.6218e+01	3.6182	-2.341201	0.000188	1.883755	0.319117	0.000019
 366	3.6318e+01	3.6298	-2.320020	0.000213	2.129463	0.360741	0.000021
 367	3.6417e+01	3.6372	-2.300874	0.000192	1.924707	0.326054	0.000019
 368	3.6517e+01	3.6491	-2.278878	0.000221	2.211365	0.374615	0.000022
 369	3.6616e+01	3.6562	-2.258918	0.000201	2.006609	0.339929	0.000020
 370	3.6715e+01	3.6649	-2.236514	0.000225	2.252316	0.381553	0.000023
 371	3.6815e+01	3.6773	-2.219406	0.000172	1.719951	0.291368	0.000017
 372	3.6914e+01	3.6884	-2.194965	0.000246	2.457072	0.416239	0.000025
 373	3.7014e+01	3.6991	-2.171747	0.000233	2.334219	0.395427	0.000023
 374	3.7114e+01	3.7064	-2.151787	0.000201	2.006609	0.339929	0.000020
 375	3.7213e+01	3.7168	-2.133049	0.000188	1.883755	0.319117	0.000019
 376	3.7313e+01	3.7267	-2.110238	0.000229	2.293267	0.388490	0.000023
 377	3.7412e+01	3.7377	-2.094352	0.000160	1.597097	0.270556	0.000016
 378	3.7511e+01	3.7470	-2.071133	0.000233	2.334219	0.395427	0.000023
 379	3.7611e+01	3.7579	-2.047915	0.000233	2.334219	0.395427	0.000023
 380	3.7711e+01	3.7648	-2.031214	0.000168	1.678999	0.284430	0.000017
 381	3.7810e+01	3.7765	-2.006366	0.000250	2.498023	0.423177	0.000025
 382	3.7910e+01	3.7865	-1.991701	0.000147	1.474243	0.249744	0.000015
 383	3.8009e+01	3.7962	-1.970520	0.000213	2.129463	0.360741	0.000021
 384	3.8108e+01	3.8065	-1.951374	0.000192	1.924707	0.326054	0.000019
 385	3.8208e+01	3.8151	-1.931007	0.000205	2.047560	0.346866	0.000020
 386	3.8307e+01	3.8256	-1.913084	0.000180	1.801853	0.305242	0.000018
 387	3.8407e+01	3.8361	-1.894347	0.000188	1.883755	0.319117	0.000019
 388	3.8507e+01	3.8473	-1.868277	0.000262	2.620877	0.443989	0.000026
 389	3.8606e+01	3.8559	-1.849132	0.000192	1.924707	0.326054	0.000019
 390	3.8706e+01	3.8641	-1.830394	0.000188	1.883755	0.319117	0.000019
 391	3.8805e+01	3.8770	-1.811249	0.000192	1.924707	0.326054	0.000019
 392	3.8904e+01	3.8851	-1.792104	0.000192	1.924707	0.326054	0.000019
 393	3.9004e+01	3.8998	-1.769292	0.000229	2.293267	0.388490	0.000023
 394	3.9103e+01	3.9065	-1.752184	0.000172	1.719951	0.291368	0.000017
 395	3.9203e+01	3.9172	-1.730595	0.000217	2.170414	0.367678	0.000022
 396	3.9303e+01	3.9248	-1.713486	0.000172	1.719951	0.291368	0.000017
 397	3.9402e+01	3.9367	-1.695156	0.000184	1.842804	0.312179	0.000018
 398	3.9502e+01	3.9461	-1.673567	0.000217	2.170414	0.367678	0.000022
 399	3.9601e+01	3.9556	-1.651570	0.000221	2.211365	0.374615	0.000022
 400	3.9700e+01	3.9647	-1.629981	0.000217	2.170414	0.367678	0.000022
 401	3.9800e+01	3.9733	-1.615317	0.000147	1.474243	0.249744	0.000015
 402	3.9900e+01	3.9849	-1.593320	0.000221	2.211365	0.374615	0.000022
 403	3.9999e+01	3.9942	-1.572546	0.000209	2.088511	0.353803	0.000021
 404	4.0099e+01	4.0057	-1.545254	0.000274	2.743731	0.464801	0.000027
 405	4.0198e+01	4.0140	-1.527738	0.000176	1.760902	0.298305	0.000018
 406	4.0297e+01	4.0253	-1.503705	0.000242	2.416121	0.409302	0.000024
 407	4.0397e+01	4.0334	-1.481709	0.000221	2.211365	0.374615	0.000022
 408	4.0496e+01	4.0452	-1.461341	0.000205	2.047560	0.346866	0.000020
 409	4.0596e+01	4.0557	-1.437716	0.000238	2.375170	0.402365	0.000024
 410	4.0696e+01	4.0648	-1.416941	0.000209	2.088511	0.353803	0.000021
 411	4.0795e+01	4.0760	-1.395352	0.000217	2.170414	0.367678	0.000022
 412	4.0895e+01	4.0829	-1.376207	0.000192	1.924707	0.326054	0.000019
 413	4.0994e+01	4.0948	-1.352581	0.000238	2.375170	0.402365	0.000024
 414	4.1093e+01	4.1057	-1.328140	0.000246	2.457072	0.416239	0.000025
 415	4.1193e+01	4.1142	-1.308995	0.000192	1.924707	0.326054	0.000019
 416	4.1292e+01	4.1248	-1.288628	0.000205	2.047560	0.346866	0.000020
 417	4.1392e+01	4.1326	-1.265817	0.000229	2.293267	0.388490	0.000023
 418	4.1492e+01	4.1442	-1.244228	0.000217	2.170414	0.367678	0.000022
 419	4.1591e+01	4.1563	-1.221009	0.000233	2.334219	0.395427	0.000023
 420	4.1691e+01	4.1632	-1.196161	0.000250	2.498023	0.423177	0.000025
 421	4.1790e+01	4.1779	-1.174165	0.000221	2.211365	0.374615	0.000022
 422	4.1889e+01	4.1821	-1.156242	0.000180	1.801853	0.305242	0.000018
 423	4.1989e+01	4.1969	-1.129765	0.000266	2.661828	0.450926	0.000027
 424	4.2089e+01	4.2072	-1.105731	0.000242	2.416121	0.409302	0.000024
 425	4.2188e+01	4.2139	-1.091067	0.000147	1.474243	0.249744	0.000015
 426	4.2288e+01	4.2278	-1.068256	0.000229	2.293267	0.388490	0.000023
 427	4.2387e+01	4.2359	-1.045445	0.000229	2.293267	0.388490	0.000023
 428	4.2486e+01	4.2443	-1.018153	0.000274	2.743731	0.464801	0.000027
 429	4.2586e+01	4.2529	-0.999822	0.000184	1.842804	0.312179	0.000018
 430	4.2685e+01	4.2617	-0.976196	0.000238	2.375170	0.402365	0.000024
 431	4.2785e+01	4.2761	-0.958273	0.000180	1.801853	0.305242	0.000018
 432	4.2885e+01	4.2818	-0.930981	0.000274	2.743731	0.464801	0.000027
 433	4.2984e+01	4.2967	-0.908985	0.000221	2.211365	0.374615	0.000022
 434	4.3084e+01	4.3047	-0.884137	0.000250	2.498023	0.423177	0.000025
 435	4.3183e+01	4.3142	-0.856438	0.000278	2.784682	0.471738	0.000028
 436	4.3282e+01	4.3228	-0.837700	0.000188	1.883755	0.319117	0.000019
 437	4.3382e+01	4.3355	-0.812852	0.000250	2.498023	0.423177	0.000025
 438	4.3481e+01	4.3438	-0.787189	0.000258	2.579926	0.437051	0.000026
 439	4.3581e+01	4.3540	-0.764786	0.000225	2.252316	0.381553	0.000023
 440	4.3681e+01	4.3628	-0.739123	0.000258	2.579926	0.437051	0.000026
 441	4.3780e+01	4.3710	-0.715090	0.000242	2.416121	0.409302	0.000024
 442	4.3880e+01	4.3828	-0.695537	0.000197	1.965658	0.332991	0.000020
 443	4.3979e+01	4.3956	-0.668245	0.000274	2.743731	0.464801	0.000027
 444	4.4078e+01	4.4061	-0.645842	0.000225	2.252316	0.381553	0.000023
 445	4.4178e+01	4.4137	-0.619772	0.000262	2.620877	0.443989	0.000026
 446	4.4278e+01	4.4245	-0.598590	0.000213	2.129463	0.360741	0.000021
 447	4.4377e+01	4.4315	-0.576186	0.000225	2.252316	0.381553	0.000023
 448	4.4477e+01	4.4444	-0.550931	0.000254	2.538975	0.430114	0.000025
 449	4.4576e+01	4.4515	-0.528527	0.000225	2.252316	0.381553	0.000023
 450	4.4675e+01	4.4603	-0.505308	0.000233	2.334219	0.395427	0.000023
 451	4.4775e+01	4.4738	-0.480053	0.000254	2.538975	0.430114	0.000025
 452	4.4874e+01	4.4815	-0.459279	0.000209	2.088511	0.353803	0.000021
 453	4.4974e+01	4.4920	-0.438504	0.000209	2.088511	0.353803	0.000021
 454	4.5074e+01	4.5055	-0.414064	0.000246	2.457072	0.416239	0.000025
 455	4.5173e+01	4.5142	-0.391253	0.000229	2.293267	0.388490	0.000023
 456	4.5273e+01	4.5232	-0.372107	0.000192	1.924707	0.326054	0.000019
 457	4.5372e+01	4.5336	-0.347260	0.000250	2.498023	0.423177	0.000025
 458	4.5471e+01	4.5434	-0.326078	0.000213	2.129463	0.360741	0.000021
 459	4.5571e+01	4.5528	-0.303674	0.000225	2.252316	0.381553	0.000023
 460	4.5670e+01	4.5620	-0.283307	0.000205	2.047560	0.346866	0.000020
 461	4.5770e+01	4.5730	-0.260903	0.000225	2.252316	0.381553	0.000023
 462	4.5870e+01	4.5838	-0.239314	0.000217	2.170414	0.367678	0.000022
 463	4.5969e+01	4.5934	-0.220576	0.000188	1.883755	0.319117	0.000019
 464	4.6069e+01	4.6039	-0.194913	0.000258	2.579926	0.437051	0.000026
 465	4.6168e+01	4.6143	-0.173324	0.000217	2.170414	0.367678	0.000022
 466	4.6267e+01	4.6231	-0.149291	0.000242	2.416121	0.409302	0.000024
 467	4.6367e+01	4.6317	-0.127702	0.000217	2.170414	0.367678	0.000022
 468	4.6467e+01	4.6443	-0.106113	0.000217	2.170414	0.367678	0.000022
 469	4.6566e+01	4.6522	-0.085746	0.000205	2.047560	0.346866	0.000020
 470	4.6666e+01	4.6607	-0.058861	0.000270	2.702780	0.457863	0.000027
 471	4.6765e+01	4.6709	-0.036457	0.000225	2.252316	0.381553	0.000023
 472	4.6864e+01	4.6799	-0.012017	0.000246	2.457072	0.416239	0.000025
 473	4.6964e+01	4.6900	0.006721	0.000188	1.883755	0.319117	0.000019
 474	4.7063e+01	4.7039	0.034013	0.000274	2.743731	0.464801	0.000027
 475	4.7163e+01	4.7089	0.053973	0.000201	2.006609	0.339929	0.000020
 476	4.7263e+01	4.7225	0.079228	0.000254	2.538975	0.430114	0.000025
 477	4.7362e+01	4.7313	0.096744	0.000176	1.760902	0.298305	0.000018
 478	4.7462e+01	4.7459	0.119962	0.000233	2.334219	0.395427	0.000023
 479	4.7561e+01	4.7544	0.146032	0.000262	2.620877	0.443989	0.000026
 480	4.7660e+01	4.7616	0.167621	0.000217	2.170414	0.367678	0.000022
 481	4.7760e+01	4.7709	0.190840	0.000233	2.334219	0.395427	0.000023
 482	4.7859e+01	4.7825	0.214466	0.000238	2.375170	0.402365	0.000024
 483	4.7959e+01	4.7904	0.236462	0.000221	2.211365	0.374615	0.000022
 484	4.8059e+01	4.8018	0.255607	0.000192	1.924707	0.326054	0.000019
 485	4.8158e+01	4.8129	0.278826	0.000233	2.334219	0.395427	0.000023
 486	4.8258e+01	4.8222	0.298378	0.000197	1.965658	0.332991	0.000020
 487	4.8357e+01	4.8302	0.318338	0.000201	2.006609	0.339929	0.000020
 488	4.8456e+01	4.8428	0.340742	0.000225	2.252316	0.381553	0.000023
 489	4.8556e+01	4.8504	0.362739	0.000221	2.211365	0.374615	0.000022
 490	4.8656e+01	4.8601	0.381884	0.000192	1.924707	0.326054	0.000019
 491	4.8755e+01	4.8722	0.402658	0.000209	2.088511	0.353803	0.000021
 492	4.8855e+01	4.8823	0.421803	0.000192	1.924707	0.326054	0.000019
 493	4.8954e+01	4.8922	0.439319	0.000176	1.760902	0.298305	0.000018
 494	4.9053e+01	4.9024	0.462130	0.000229	2.293267	0.388490	0.000023
 495	4.9153e+01	4.9100	0.483719	0.000217	2.170414	0.367678	0.000022
 496	4.9252e+01	4.9203	0.505716	0.000221	2.211365	0.374615	0.000022
 497	4.9352e+01	4.9310	0.526490	0.000209	2.088511	0.353803	0.000021
 498	4.9452e+01	4.9433	0.545635	0.000192	1.924707	0.326054	0.000019
 499	4.9551e+01	4.9540	0.568447	0.000229	2.293267	0.388490	0.000023
 500	4.9651e+01	4.9604	0.584333	0.000160	1.597097	0.270556	0.000016
 501	4.9750e+01	4.9701	0.606329	0.000221	2.211365	0.374615	0.000022
 502	4.9849e+01	4.9798	0.627104	0.000209	2.088511	0.353803	0.000021
 503	4.9949e+01	4.9934	0.645842	0.000188	1.883755	0.319117	0.000019
 504	5.0048e+01	5.0019	0.664579	0.000188	1.883755	0.319117	0.000019
 505	5.0148e+01	5.0088	0.684539	0.000201	2.006609	0.339929	0.000020
 506	5.0248e+01	5.0195	0.706536	0.000221	2.211365	0.374615	0.000022
 507	5.0347e+01	5.0312	0.726088	0.000197	1.965658	0.332991	0.000020
 508	5.0447e+01	5.0402	0.746455	0.000205	2.047560	0.346866	0.000020
 509	5.0546e+01	5.0521	0.766822	0.000205	2.047560	0.346866	0.000020
 510	5.0645e+01	5.0616	0.786782	0.000201	2.006609	0.339929	0.000020
 511	5.0745e+01	5.0699	0.801039	0.000143	1.433292	0.242806	0.000014
 512	5.0844e+01	5.0802	0.823850	0.000229	2.293267	0.388490	0.000023
 513	5.0944e+01	5.0901	0.845032	0.000213	2.129463	0.360741	0.000021
 514	5.1044e+01	5.0979	0.866214	0.000213	2.129463	0.360741	0.000021
 515	5.1143e+01	5.1110	0.880878	0.000147	1.474243	0.249744	0.000015
 516	5.1242e+01	5.1169	0.900431	0.000197	1.965658	0.332991	0.000020
 517	5.1342e+01	5.1289	0.919983	0.000197	1.965658	0.332991	0.000020
 518	5.1441e+01	5.1385	0.933833	0.000139	1.392341	0.235869	0.000014
 519	5.1541e+01	5.1514	0.954200	0.000205	2.047560	0.346866	0.000020
 520	5.1641e+01	5.1615	0.970901	0.000168	1.678999	0.284430	0.000017
 521	5.1740e+01	5.1689	0.988009	0.000172	1.719951	0.291368	0.000017
 522	5.1840e+01	5.1788	1.011228	0.000233	2.334219	0.395427	0.000023
 523	5.1939e+01	5.1864	1.023448	0.000123	1.228536	0.208120	0.000012
 524	5.2038e+01	5.1998	1.045037	0.000217	2.170414	0.367678	0.000022
 525	5.2138e+01	5.2065	1.062960	0.000180	1.801853	0.305242	0.000018
 526	5.2237e+01	5.2173	1.081698	0.000188	1.883755	0.319117	0.000019
 527	5.2337e+01	5.2276	1.098807	0.000172	1.719951	0.291368	0.000017
 528	5.2437e+01	5.2397	1.116730	0.000180	1.801853	0.305242	0.000018
 529	5.2536e+01	5.2485	1.133431	0.000168	1.678999	0.284430	0.000017
 530	5.2636e+01	5.2595	1.150132	0.000168	1.678999	0.284430	0.000017
 531	5.2735e+01	5.2663	1.170499	0.000205	2.047560	0.346866	0.000020
 532	5.2834e+01	5.2785	1.185978	0.000156	1.556146	0.263618	0.000016
 533	5.2934e+01	5.2876	1.205938	0.000201	2.006609	0.339929	0.000020
 534	5.3033e+01	5.2993	1.226305	0.000205	2.047560	0.346866	0.000020
 535	5.3133e+01	5.3106	1.245043	0.000188	1.883755	0.319117	0.000019
 536	5.3233e+01	5.3188	1.265002	0.000201	2.006609	0.339929	0.000020
 537	5.3332e+01	5.3294	1.281703	0.000168	1.678999	0.284430	0.000017
 538	5.3431e+01	5.3388	1.304922	0.000233	2.334219	0.395427	0.000023
 539	5.3531e+01	5.3489	1.322438	0.000176	1.760902	0.298305	0.000018
 540	5.3630e+01	5.3602	1.343619	0.000213	2.129463	0.360741	0.000021
 541	5.3730e+01	5.3686	1.363987	0.000205	2.047560	0.346866	0.000020
 542	5.3830e+01	5.3777	1.377429	0.000135	1.351390	0.228932	0.000014
 543	5.3929e+01	5.3889	1.400240	0.000229	2.293267	0.388490	0.000023
 544	5.4029e+01	5.3982	1.420200	0.000201	2.006609	0.339929	0.000020
 545	5.4128e+01	5.4073	1.439345	0.000192	1.924707	0.326054	0.000019
 546	5.4227e+01	5.4182	1.458897	0.000197	1.965658	0.332991	0.000020
 547	5.4327e+01	5.4297	1.480894	0.000221	2.211365	0.374615	0.000022
 548	5.4426e+01	5.4372	1.497595	0.000168	1.678999	0.284430	0.000017
 549	5.4526e+01	5.4481	1.518777	0.000213	2.129463	0.360741	0.000021
 550	5.4626e+01	5.4576	1.537514	0.000188	1.883755	0.319117	0.000019
 551	5.4725e+01	5.4677	1.557882	0.000205	2.047560	0.346866	0.000020
 552	5.4825e+01	5.4789	1.574990	0.000172	1.719951	0.291368	0.000017
 553	5.4924e+01	5.4894	1.593320	0.000184	1.842804	0.312179	0.000018
 554	5.5023e+01	5.5010	1.614502	0.000213	2.129463	0.360741	0.000021
 555	5.5123e+01	5.5070	1.632425	0.000180	1.801853	0.305242	0.000018
 556	5.5222e+01	5.5184	1.648719	0.000164	1.638048	0.277493	0.000016
 557	5.5322e+01	5.5286	1.669086	0.000205	2.047560	0.346866	0.000020
 558	5.5422e+01	5.5376	1.683343	0.000143	1.433292	0.242806	0.000014
 559	5.5521e+01	5.5486	1.706969	0.000238	2.375170	0.402365	0.000024
 560	5.5620e+01	5.5550	1.726114	0.000192	1.924707	0.326054	0.000019
 561	5.5720e+01	5.5691	1.740778	0.000147	1.474243	0.249744	0.000015
 562	5.5819e+01	5.5782	1.760738	0.000201	2.006609	0.339929	0.000020
 563	5.5919e+01	5.5865	1.780698	0.000201	2.006609	0.339929	0.000020
 564	5.6019e+01	5.5959	1.798214	0.000176	1.760902	0.298305	0.000018
 565	5.6118e+01	5.6055	1.817766	0.000197	1.965658	0.332991	0.000020
 566	5.6218e+01	5.6178	1.833245	0.000156	1.556146	0.263618	0.000016
 567	5.6317e+01	5.6282	1.854834	0.000217	2.170414	0.367678	0.000022
 568	5.6416e+01	5.6397	1.873572	0.000188	1.883755	0.319117	0.000019
 569	5.6516e+01	5.6499	1.893532	0.000201	2.006609	0.339929	0.000020
 570	5.6615e+01	5.6570	1.915936	0.000225	2.252316	0.381553	0.000023
 571	5.6715e+01	5.6666	1.935081	0.000192	1.924707	0.326054	0.000019
 572	5.6815e+01	5.6785	1.955855	0.000209	2.088511	0.353803	0.000021
 573	5.6914e+01	5.6890	1.972964	0.000172	1.719951	0.291368	0.000017
 574	5.7014e+01	5.6988	1.993738	0.000209	2.088511	0.353803	0.000021
 575	5.7113e+01	5.7072	2.014105	0.000205	2.047560	0.346866	0.000020
 576	5.7212e+01	5.7178	2.038953	0.000250	2.498023	0.423177	0.000025
 577	5.7312e+01	5.7255	2.053617	0.000147	1.474243	0.249744	0.000015
 578	5.7411e+01	5.7375	2.076021	0.000225	2.252316	0.381553	0.000023
 579	5.7511e+01	5.7497	2.099240	0.000233	2.334219	0.395427	0.000023
 580	5.7611e+01	5.7571	2.117163	0.000180	1.801853	0.305242	0.000018
 581	5.7710e+01	5.7663	2.137530	0.000205	2.047560	0.346866	0.000020
 582	5.7809e+01	5.7755	2.160749	0.000233	2.334219	0.395427	0.000023
 583	5.7909e+01	5.7873	2.180708	0.000201	2.006609	0.339929	0.000020
 584	5.8008e+01	5.7953	2.202298	0.000217	2.170414	0.367678	0.000022
 585	5.8108e+01	5.8080	2.222665	0.000205	2.047560	0.346866	0.000020
 586	5.8208e+01	5.8168	2.245476	0.000229	2.293267	0.388490	0.000023
 587	5.8307e+01	5.8276	2.263806	0.000184	1.842804	0.312179	0.000018
 588	5.8407e+01	5.8404	2.284988	0.000213	2.129463	0.360741	0.000021
 589	5.8506e+01	5.8503	2.308207	0.000233	2.334219	0.395427	0.000023
 590	5.8605e+01	5.8541	2.327352	0.000192	1.924707	0.326054	0.000019
 591	5.8705e+01	5.8666	2.348126	0.000209	2.088511	0.353803	0.000021
 592	5.8804e+01	5.8745	2.368901	0.000209	2.088511	0.353803	0.000021
 593	5.8904e+01	5.8875	2.388453	0.000197	1.965658	0.332991	0.000020
 594	5.9004e+01	5.8955	2.411672	0.000233	2.334219	0.395427	0.000023
 595	5.9103e+01	5.9064	2.431631	0.000201	2.006609	0.339929	0.000020
 596	5.9203e+01	5.9178	2.452406	0.000209	2.088511	0.353803	0.000021
 597	5.9302e+01	5.9257	2.472366	0.000201	2.006609	0.339929	0.000020
 598	5.9401e+01	5.9364	2.493140	0.000209	2.088511	0.353803	0.000021
 599	5.9501e+01	5.9467	2.513915	0.000209	2.088511	0.353803	0.000021
 600	5.9600e+01	5.9560	2.541207	0.000274	2.743731	0.464801	0.000027
 601	5.9700e+01	5.9652	2.561981	0.000209	2.088511	0.353803	0.000021
 602	5.9800e+01	5.9794	2.586829	0.000250	2.498023	0.423177	0.000025
 603	5.9899e+01	5.9864	2.605159	0.000184	1.842804	0.312179	0.000018
 604	5.9998e+01	5.9959	2.632044	0.000270	2.702780	0.457863	0.000027
 605	6.0098e+01	6.0050	2.652411	0.000205	2.047560	0.346866	0.000020
 606	6.0197e+01	6.0152	2.675630	0.000233	2.334219	0.395427	0.000023
 607	6.0297e+01	6.0264	2.694775	0.000192	1.924707	0.326054	0.000019
 608	6.0397e+01	6.0352	2.720437	0.000258	2.579926	0.437051	0.000026
 609	6.0496e+01	6.0448	2.738360	0.000180	1.801853	0.305242	0.000018
 610	6.0596e+01	6.0531	2.764430	0.000262	2.620877	0.443989	0.000026
 611	6.0695e+01	6.0650	2.788463	0.000242	2.416121	0.409302	0.000024
 612	6.0794e+01	6.0754	2.811275	0.000229	2.293267	0.388490	0.000023
 613	6.0894e+01	6.0853	2.834493	0.000233	2.334219	0.395427	0.000023
 614	6.0993e+01	6.0951	2.856490	0.000221	2.211365	0.374615	0.000022
 615	6.1093e+01	6.1058	2.877264	0.000209	2.088511	0.353803	0.000021
 616	6.1193e+01	6.1150	2.900890	0.000238	2.375170	0.402365	0.000024
 617	6.1292e+01	6.1251	2.923294	0.000225	2.252316	0.381553	0.000023
 618	6.1392e+01	6.1359	2.946105	0.000229	2.293267	0.388490	0.000023
 619	6.1491e+01	6.1452	2.966472	0.000205	2.047560	0.346866	0.000020
 620	6.1590e+01	6.1550	2.989283	0.000229	2.293267	0.388490	0.000023
 621	6.1690e+01	6.1660	3.008428	0.000192	1.924707	0.326054	0.000019
 622	6.1789e+01	6.1753	3.030018	0.000217	2.170414	0.367678	0.000022
 623	6.1889e+01	6.1834	3.054051	0.000242	2.416121	0.409302	0.000024
 624	6.1989e+01	6.1933	3.071974	0.000180	1.801853	0.305242	0.000018
 625	6.2088e+01	6.2034	3.092341	0.000205	2.047560	0.346866	0.000020
 626	6.2188e+01	6.2164	3.112708	0.000205	2.047560	0.346866	0.000020
 627	6.2287e+01	6.2258	3.137149	0.000246	2.457072	0.416239	0.000025
 628	6.2386e+01	6.2348	3.158330	0.000213	2.129463	0.360741	0.000021
 629	6.2486e+01	6.2431	3.175439	0.000172	1.719951	0.291368	0.000017
 630	6.2586e+01	6.2514	3.195806	0.000205	2.047560	0.346866	0.000020
 631	6.2685e+01	6.2634	3.219025	0.000233	2.334219	0.395427	0.000023
 632	6.2785e+01	6.2751	3.238577	0.000197	1.965658	0.332991	0.000020
 633	6.2884e+01	6.2832	3.258537	0.000201	2.006609	0.339929	0.000020
 634	6.2983e+01	6.2967	3.280941	0.000225	2.252316	0.381553	0.000023
 635	6.3083e+01	6.3023	3.301308	0.000205	2.047560	0.346866	0.000020
 636	6.3182e+01	6.3125	3.322490	0.000213	2.129463	0.360741	0.000021
 637	6.3282e+01	6.3233	3.344486	0.000221	2.211365	0.374615	0.000022
 638	6.3382e+01	6.3322	3.367705	0.000233	2.334219	0.395427	0.000023
 639	6.3481e+01	6.3421	3.389294	0.000217	2.170414	0.367678	0.000022
 640	6.3581e+01	6.3521	3.411698	0.000225	2.252316	0.381553	0.000023
 641	6.3680e+01	6.3650	3.429621	0.000180	1.801853	0.305242	0.000018
 642	6.3779e+01	6.3731	3.454061	0.000246	2.457072	0.416239	0.000025
 643	6.3879e+01	6.3830	3.471577	0.000176	1.760902	0.298305	0.000018
 644	6.3978e+01	6.3931	3.492759	0.000213	2.129463	0.360741	0.000021
 645	6.4078e+01	6.4050	3.516385	0.000238	2.375170	0.402365	0.000024
 646	6.4177e+01	6.4135	3.537159	0.000209	2.088511	0.353803	0.000021
 647	6.4277e+01	6.4227	3.559970	0.000229	2.293267	0.388490	0.000023
 648	6.4376e+01	6.4336	3.583596	0.000238	2.375170	0.402365	0.000024
 649	6.4476e+01	6.4433	3.605185	0.000217	2.170414	0.367678	0.000022
 650	6.4576e+01	6.4527	3.624330	0.000192	1.924707	0.326054	0.000019
 651	6.4675e+01	6.4616	3.644697	0.000205	2.047560	0.346866	0.000020
 652	6.4775e+01	6.4722	3.666287	0.000217	2.170414	0.367678	0.000022
 653	6.4874e+01	6.4812	3.685839	0.000197	1.965658	0.332991	0.000020
 654	6.4974e+01	6.4912	3.707428	0.000217	2.170414	0.367678	0.000022
 655	6.5073e+01	6.5014	3.725759	0.000184	1.842804	0.312179	0.000018
 656	6.5172e+01	6.5096	3.742867	0.000172	1.719951	0.291368	0.000017
 657	6.5272e+01	6.5224	3.767308	0.000246	2.457072	0.416239	0.000025
 658	6.5371e+01	6.5319	3.781565	0.000143	1.433292	0.242806	0.000014
 659	6.5471e+01	6.5412	3.801932	0.000205	2.047560	0.346866	0.000020
 660	6.5570e+01	6.5525	3.822299	0.000205	2.047560	0.346866	0.000020
 661	6.5670e+01	6.5614	3.842666	0.000205	2.047560	0.346866	0.000020
 662	6.5769e+01	6.5719	3.861404	0.000188	1.883755	0.319117	0.000019
 663	6.5869e+01	6.5820	3.879734	0.000184	1.842804	0.312179	0.000018
 664	6.5969e+01	6.5907	3.901323	0.000217	2.170414	0.367678	0.000022
 665	6.6068e+01	6.6022	3.919654	0.000184	1.842804	0.312179	0.000018
 666	6.6168e+01	6.6133	3.939613	0.000201	2.006609	0.339929	0.000020
 667	6.6267e+01	6.6227	3.958351	0.000188	1.883755	0.319117	0.000019
 668	6.6367e+01	6.6325	3.973423	0.000152	1.515195	0.256681	0.000015
 669	6.6466e+01	6.6433	3.995012	0.000217	2.170414	0.367678	0.000022
 670	6.6566e+01	6.6528	4.015787	0.000209	2.088511	0.353803	0.000021
 671	6.6665e+01	6.6592	4.031266	0.000156	1.556146	0.263618	0.000016
 672	6.6764e+01	6.6728	4.054077	0.000229	2.293267	0.388490	0.000023
 673	6.6864e+01	6.6816	4.070370	0.000164	1.638048	0.277493	0.000016
 674	6.6963e+01	6.6924	4.090330	0.000201	2.006609	0.339929	0.000020
 675	6.7063e+01	6.7010	4.109475	0.000192	1.924707	0.326054	0.000019
 676	6.7162e+01	6.7098	4.129028	0.000197	1.965658	0.332991	0.000020
 677	6.7262e+01	6.7251	4.145321	0.000164	1.638048	0.277493	0.000016
 678	6.7362e+01	6.7294	4.166503	0.000213	2.129463	0.360741	0.000021
 679	6.7461e+01	6.7419	4.184834	0.000184	1.842804	0.312179	0.000018
 680	6.7561e+01	6.7495	4.205608	0.000209	2.088511	0.353803	0.000021
 681	6.7660e+01	6.7608	4.223531	0.000180	1.801853	0.305242	0.000018
 682	6.7760e+01	6.7719	4.241454	0.000180	1.801853	0.305242	0.000018
 683	6.7859e+01	6.7818	4.258970	0.000176	1.760902	0.298305	0.000018
 684	6.7959e+01	6.7904	4.276078	0.000172	1.719951	0.291368	0.000017
 685	6.8058e+01	6.8006	4.292779	0.000168	1.678999	0.284430	0.000017
 686	6.8157e+01	6.8097	4.308666	0.000160	1.597097	0.270556	0.000016
 687	6.8257e+01	6.8214	4.323738	0.000152	1.515195	0.256681	0.000015
 688	6.8356e+01	6.8309	4.343697	0.000201	2.006609	0.339929	0.000020
 689	6.8456e+01	6.8401	4.359991	0.000164	1.638048	0.277493	0.000016
 690	6.8555e+01	6.8484	4.377507	0.000176	1.760902	0.298305	0.000018
 691	6.8655e+01	6.8618	4.392986	0.000156	1.556146	0.263618	0.000016
 692	6.8754e+01	6.8722	4.411316	0.000184	1.842804	0.312179	0.000018
 693	6.8854e+01	6.8816	4.430461	0.000192	1.924707	0.326054	0.000019
 694	6.8954e+01	6.8911	4.447162	0.000168	1.678999	0.284430	0.000017
 695	6.9053e+01	6.8999	4.461419	0.000143	1.433292	0.242806	0.000014
 696	6.9153e+01	6.9152	4.476898	0.000156	1.556146	0.263618	0.000016
 697	6.9252e+01	6.9192	4.496451	0.000197	1.965658	0.332991	0.000020
 698	6.9352e+01	6.9323	4.509486	0.000131	1.310439	0.221994	0.000013
 699	6.9451e+01	6.9421	4.533519	0.000242	2.416121	0.409302	0.000024
 700	6.9550e+01	6.9523	4.548183	0.000147	1.474243	0.249744	0.000015
 701	6.9650e+01	6.9585	4.563662	0.000156	1.556146	0.263618	0.000016
 702	6.9749e+01	6.9729	4.580363	0.000168	1.678999	0.284430	0.000017
 703	6.9849e+01	6.9791	4.600323	0.000201	2.006609	0.339929	0.000020
 704	6.9948e+01	6.9909	4.619061	0.000188	1.883755	0.319117	0.000019
 705	7.0048e+01	6.9997	4.636169	0.000172	1.719951	0.291368	0.000017
 706	7.0147e+01	7.0113	4.652870	0.000168	1.678999	0.284430	0.000017
 707	7.0247e+01	7.0204	4.674459	0.000217	2.170414	0.367678	0.000022
 708	7.0347e+01	7.0306	4.690346	0.000160	1.597097	0.270556	0.000016
 709	7.0446e+01	7.0419	4.707047	0.000168	1.678999	0.284430	0.000017
 710	7.0546e+01	7.0523	4.730673	0.000238	2.375170	0.402365	0.000024
 711	7.0645e+01	7.0585	4.745337	0.000147	1.474243	0.249744	0.000015
 712	7.0745e+01	7.0714	4.767741	0.000225	2.252316	0.381553	0.000023
 713	7.0844e+01	7.0782	4.788923	0.000213	2.129463	0.360741	0.000021
 714	7.0944e+01	7.0902	4.806031	0.000172	1.719951	0.291368	0.000017
 715	7.1043e+01	7.1017	4.825176	0.000192	1.924707	0.326054	0.000019
 716	7.1142e+01	7.1099	4.840655	0.000156	1.556146	0.263618	0.000016
 717	7.1242e+01	7.1181	4.859393	0.000188	1.883755	0.319117	0.000019
 718	7.1341e+01	7.1302	4.877723	0.000184	1.842804	0.312179	0.000018
 719	7.1441e+01	7.1392	4.892795	0.000152	1.515195	0.256681	0.000015
 720	7.1540e+01	7.1493	4.911533	0.000188	1.883755	0.319117	0.000019
 721	7.1640e+01	7.1578	4.928641	0.000172	1.719951	0.291368	0.000017
 722	7.1740e+01	7.1703	4.946157	0.000176	1.760902	0.298305	0.000018
 723	7.1839e+01	7.1786	4.962451	0.000164	1.638048	0.277493	0.000016
 724	7.1939e+01	7.1899	4.982818	0.000205	2.047560	0.346866	0.000020
 725	7.2038e+01	7.1980	4.997482	0.000147	1.474243	0.249744	0.000015
 726	7.2138e+01	7.2119	5.019479	0.000221	2.211365	0.374615	0.000022
 727	7.2237e+01	7.2209	5.036994	0.000176	1.760902	0.298305	0.000018
 728	7.2337e+01	7.2271	5.056547	0.000197	1.965658	0.332991	0.000020
 729	7.2436e+01	7.2388	5.071211	0.000147	1.474243	0.249744	0.000015
 730	7.2535e+01	7.2492	5.087505	0.000164	1.638048	0.277493	0.000016
 731	7.2635e+01	7.2602	5.105835	0.000184	1.842804	0.312179	0.000018
 732	7.2734e+01	7.2678	5.123351	0.000176	1.760902	0.298305	0.000018
 733	7.2834e+01	7.2787	5.139237	0.000160	1.597097	0.270556	0.000016
 734	7.2933e+01	7.2900	5.158382	0.000192	1.924707	0.326054	0.000019
 735	7.3033e+01	7.2985	5.175898	0.000176	1.760902	0.298305	0.000018
 736	7.3132e+01	7.3113	5.192599	0.000168	1.678999	0.284430	0.000017
 737	7.3232e+01	7.3193	5.215410	0.000229	2.293267	0.388490	0.000023
 738	7.3332e+01	7.3284	5.231297	0.000160	1.597097	0.270556	0.000016
 739	7.3431e+01	7.3357	5.253293	0.000221	2.211365	0.374615	0.000022
 740	7.3531e+01	7.3470	5.272438	0.000192	1.924707	0.326054	0.000019
 741	7.3630e+01	7.3592	5.290769	0.000184	1.842804	0.312179	0.000018
 742	7.3730e+01	7.3690	5.310321	0.000197	1.965658	0.332991	0.000020
 743	7.3829e+01	7.3782	5.333540	0.000233	2.334219	0.395427	0.000023
 744	7.3928e+01	7.3859	5.351463	0.000180	1.801853	0.305242	0.000018
 745	7.4028e+01	7.3965	5.369793	0.000184	1.842804	0.312179	0.000018
 746	7.4127e+01	7.4077	5.390160	0.000205	2.047560	0.346866	0.000020
 747	7.4227e+01	7.4174	5.410527	0.000205	2.047560	0.346866	0.000020
 748	7.4326e+01	7.4281	5.428451	0.000180	1.801853	0.305242	0.000018
 749	7.4426e+01	7.4392	5.452076	0.000238	2.375170	0.402365	0.000024
 750	7.4525e+01	7.4499	5.469592	0.000176	1.760902	0.298305	0.000018
 751	7.4625e+01	7.4554	5.489552	0.000201	2.006609	0.339929	0.000020
 752	7.4725e+01	7.4667	5.511548	0.000221	2.211365	0.374615	0.000022
 753	7.4824e+01	7.4782	5.526213	0.000147	1.474243	0.249744	0.000015
 754	7.4924e+01	7.4889	5.549024	0.000229	2.293267	0.388490	0.000023
 755	7.5023e+01	7.4976	5.568169	0.000192	1.924707	0.326054	0.000019
 756	7.5123e+01	7.5091	5.591795	0.000238	2.375170	0.402365	0.000024
 757	7.5222e+01	7.5194	5.606459	0.000147	1.474243	0.249744	0.000015
 758	7.5322e+01	7.5275	5.629270	0.000229	2.293267	0.388490	0.000023
 759	7.5421e+01	7.5359	5.649638	0.000205	2.047560	0.346866	0.000020
 760	7.5520e+01	7.5480	5.666746	0.000172	1.719951	0.291368	0.000017
 761	7.5620e+01	7.5571	5.689964	0.000233	2.334219	0.395427	0.000023
 762	7.5719e+01	7.5713	5.707888	0.000180	1.801853	0.305242	0.000018
 763	7.5819e+01	7.5771	5.725811	0.000180	1.801853	0.305242	0.000018
 764	7.5918e+01	7.5860	5.751066	0.000254	2.538975	0.430114	0.000025
 765	7.6018e+01	7.5951	5.770618	0.000197	1.965658	0.332991	0.000020
 766	7.6118e+01	7.6061	5.788541	0.000180	1.801853	0.305242	0.000018
 767	7.6217e+01	7.6186	5.810538	0.000221	2.211365	0.374615	0.000022
 768	7.6317e+01	7.6254	5.836200	0.000258	2.579926	0.437051	0.000026
 769	7.6416e+01	7.6335	5.858197	0.000221	2.211365	0.374615	0.000022
 770	7.6516e+01	7.6465	5.877342	0.000192	1.924707	0.326054	0.000019
 771	7.6615e+01	7.6601	5.899746	0.000225	2.252316	0.381553	0.000023
 772	7.6715e+01	7.6660	5.919706	0.000201	2.006609	0.339929	0.000020
 773	7.6814e+01	7.6749	5.942517	0.000229	2.293267	0.388490	0.000023
 774	7.6913e+01	7.6840	5.964106	0.000217	2.170414	0.367678	0.000022
 775	7.7013e+01	7.6971	5.982436	0.000184	1.842804	0.312179	0.000018
 776	7.7112e+01	7.7055	6.009321	0.000270	2.702780	0.457863	0.000027
 777	7.7212e+01	7.7148	6.028873	0.000197	1.965658	0.332991	0.000020
 778	7.7311e+01	7.7271	6.048833	0.000201	2.006609	0.339929	0.000020
 779	7.7411e+01	7.7369	6.072459	0.000238	2.375170	0.402365	0.000024
 780	7.7510e+01	7.7477	6.094863	0.000225	2.252316	0.381553	0.000023
 781	7.7610e+01	7.7560	6.115230	0.000205	2.047560	0.346866	0.000020
 782	7.7710e+01	7.7668	6.138449	0.000233	2.334219	0.395427	0.000023
 783	7.7809e+01	7.7754	6.159223	0.000209	2.088511	0.353803	0.000021
 784	7.7909e+01	7.7875	6.183664	0.000246	2.457072	0.416239	0.000025
 785	7.8008e+01	7.7956	6.201179	0.000176	1.760902	0.298305	0.000018
 786	7.8108e+01	7.8016	6.223991	0.000229	2.293267	0.388490	0.000023
 787	7.8207e+01	7.8138	6.246394	0.000225	2.252316	0.381553	0.000023
 788	7.8306e+01	7.8254	6.265539	0.000192	1.924707	0.326054	0.000019
 789	7.8406e+01	7.8358	6.287129	0.000217	2.170414	0.367678	0.000022
 790	7.8505e+01	7.8451	6.305052	0.000180	1.801853	0.305242	0.000018
 791	7.8605e+01	7.8556	6.324604	0.000197	1.965658	0.332991	0.000020
 792	7.8704e+01	7.8653	6.347415	0.000229	2.293267	0.388490	0.000023
 793	7.8804e+01	7.8760	6.363302	0.000160	1.597097	0.270556	0.000016
 794	7.8903e+01	7.8867	6.385298	0.000221	2.211365	0.374615	0.000022
 795	7.9003e+01	7.8934	6.401592	0.000164	1.638048	0.277493	0.000016
 796	7.9103e+01	7.9041	6.425625	0.000242	2.416121	0.409302	0.000024
 797	7.9202e+01	7.9163	6.445178	0.000197	1.965658	0.332991	0.000020
 798	7.9302e+01	7.9264	6.463508	0.000184	1.842804	0.312179	0.000018
 799	7.9401e+01	7.9359	6.485097	0.000217	2.170414	0.367678	0.000022
 800	7.9501e+01	7.9430	6.504650	0.000197	1.965658	0.332991	0.000020
 801	7.9600e+01	7.9529	6.525017	0.000205	2.047560	0.346866	0.000020
 802	7.9700e+01	7.9665	6.548235	0.000233	2.334219	0.395427	0.000023
 803	7.9799e+01	7.9771	6.566158	0.000180	1.801853	0.305242	0.000018
 804	7.9898e+01	7.9849	6.589377	0.000233	2.334219	0.395427	0.000023
 805	7.9998e+01	7.9939	6.611373	0.000221	2.211365	0.374615	0.000022
 806	8.0097e+01	8.0024	6.630926	0.000197	1.965658	0.332991	0.000020
 807	8.0197e+01	8.0154	6.655366	0.000246	2.457072	0.416239	0.000025
 808	8.0296e+01	8.0256	6.674511	0.000192	1.924707	0.326054	0.000019
 809	8.0396e+01	8.0326	6.692842	0.000184	1.842804	0.312179	0.000018
 810	8.0496e+01	8.0469	6.709543	0.000168	1.678999	0.284430	0.000017
 811	8.0595e+01	8.0555	6.731539	0.000221	2.211365	0.374615	0.000022
 812	8.0695e+01	8.0649	6.751499	0.000201	2.006609	0.339929	0.000020
 813	8.0794e+01	8.0728	6.775125	0.000238	2.375170	0.402365	0.000024
 814	8.0894e+01	8.0849	6.797121	0.000221	2.211365	0.374615	0.000022
 815	8.0993e+01	8.0942	6.815859	0.000188	1.883755	0.319117	0.000019
 816	8.1093e+01	8.1064	6.840707	0.000250	2.498023	0.423177	0.000025
 817	8.1192e+01	8.1164	6.857816	0.000172	1.719951	0.291368	0.000017
 818	8.1291e+01	8.1250	6.880219	0.000225	2.252316	0.381553	0.000023
 819	8.1391e+01	8.1339	6.898957	0.000188	1.883755	0.319117	0.000019
 820	8.1490e+01	8.1422	6.919324	0.000205	2.047560	0.346866	0.000020
 821	8.1590e+01	8.1557	6.939284	0.000201	2.006609	0.339929	0.000020
 822	8.1689e+01	8.1622	6.959651	0.000205	2.047560	0.346866	0.000020
 823	8.1789e+01	8.1738	6.977574	0.000180	1.801853	0.305242	0.000018
 824	8.1888e+01	8.1837	6.993461	0.000160	1.597097	0.270556	0.000016
 825	8.1988e+01	8.1910	7.013013	0.000197	1.965658	0.332991	0.000020
 826	8.2088e+01	8.2021	7.032973	0.000201	2.006609	0.339929	0.000020
 827	8.2187e+01	8.2129	7.052933	0.000201	2.006609	0.339929	0.000020
 828	8.2287e+01	8.2264	7.069226	0.000164	1.638048	0.277493	0.000016
 829	8.2386e+01	8.2326	7.085520	0.000164	1.638048	0.277493	0.000016
 830	8.2486e+01	8.2447	7.108739	0.000233	2.334219	0.395427	0.000023
 831	8.2585e+01	8.2550	7.128698	0.000201	2.006609	0.339929	0.000020
 832	8.2684e+01	8.2620	7.143363	0.000147	1.474243	0.249744	0.000015
 833	8.2784e+01	8.2742	7.166174	0.000229	2.293267	0.388490	0.000023
 834	8.2883e+01	8.2804	7.183690	0.000176	1.760902	0.298305	0.000018
 835	8.2983e+01	8.2923	7.200798	0.000172	1.719951	0.291368	0.000017
 836	8.3082e+01	8.3034	7.219536	0.000188	1.883755	0.319117	0.000019
 837	8.3182e+01	8.3144	7.237051	0.000176	1.760902	0.298305	0.000018
 838	8.3281e+01	8.3215	7.254567	0.000176	1.760902	0.298305	0.000018
 839	8.3381e+01	8.3350	7.273712	0.000192	1.924707	0.326054	0.000019
 840	8.3481e+01	8.3421	7.291635	0.000180	1.801853	0.305242	0.000018
 841	8.3580e+01	8.3533	7.312002	0.000205	2.047560	0.346866	0.000020
 842	8.3680e+01	8.3617	7.331962	0.000201	2.006609	0.339929	0.000020
 843	8.3779e+01	8.3725	7.349071	0.000172	1.719951	0.291368	0.000017
 844	8.3879e+01	8.3843	7.369438	0.000205	2.047560	0.346866	0.000020
 845	8.3978e+01	8.3955	7.386139	0.000168	1.678999	0.284430	0.000017
 846	8.4078e+01	8.4024	7.404062	0.000180	1.801853	0.305242	0.000018
 847	8.4177e+01	8.4133	7.424022	0.000201	2.006609	0.339929	0.000020
 848	8.4276e+01	8.4240	7.442352	0.000184	1.842804	0.312179	0.000018
 849	8.4376e+01	8.4343	7.457424	0.000152	1.515195	0.256681	0.000015
 850	8.4475e+01	8.4438	7.476976	0.000197	1.965658	0.332991	0.000020
 851	8.4575e+01	8.4538	7.495307	0.000184	1.842804	0.312179	0.000018
 852	8.4674e+01	8.4623	7.509156	0.000139	1.392341	0.235869	0.000014
 853	8.4774e+01	8.4699	7.523006	0.000139	1.392341	0.235869	0.000014
 854	8.4874e+01	8.4839	7.541744	0.000188	1.883755	0.319117	0.000019
 855	8.4973e+01	8.4918	7.559667	0.000180	1.801853	0.305242	0.000018
 856	8.5073e+01	8.5022	7.571072	0.000115	1.146634	0.194245	0.000011
 857	8.5172e+01	8.5137	7.591032	0.000201	2.006609	0.339929	0.000020
 858	8.5272e+01	8.5208	7.607733	0.000168	1.678999	0.284430	0.000017
 859	8.5371e+01	8.5315	7.624434	0.000168	1.678999	0.284430	0.000017
 860	8.5471e+01	8.5426	7.642357	0.000180	1.801853	0.305242	0.000018
 861	8.5570e+01	8.5525	7.657022	0.000147	1.474243	0.249744	0.000015
 862	8.5669e+01	8.5617	7.673723	0.000168	1.678999	0.284430	0.000017
 863	8.5769e+01	8.5728	7.691646	0.000180	1.801853	0.305242	0.000018
 864	8.5868e+01	8.5836	7.708347	0.000168	1.678999	0.284430	0.000017
 865	8.5968e+01	8.5892	7.724640	0.000164	1.638048	0.277493	0.000016
 866	8.6067e+01	8.6028	7.739712	0.000152	1.515195	0.256681	0.000015
 867	8.6167e+01	8.6121	7.758857	0.000192	1.924707	0.326054	0.000019
 868	8.6266e+01	8.6230	7.777595	0.000188	1.883755	0.319117	0.000019
 869	8.6366e+01	8.6282	7.792259	0.000147	1.474243	0.249744	0.000015
 870	8.6466e+01	8.6427	7.808553	0.000164	1.638048	0.277493	0.000016
 871	8.6565e+01	8.6504	7.828105	0.000197	1.965658	0.332991	0.000020
 872	8.6665e+01	8.6621	7.845621	0.000176	1.760902	0.298305	0.000018
 873	8.6764e+01	8.6703	7.862730	0.000172	1.719951	0.291368	0.000017
 874	8.6864e+01	8.6812	7.880653	0.000180	1.801853	0.305242	0.000018
 875	8.6963e+01	8.6933	7.902649	0.000221	2.211365	0.374615	0.000022
 876	8.7063e+01	8.7015	7.919758	0.000172	1.719951	0.291368	0.000017
 877	8.7162e+01	8.7127	7.933200	0.000135	1.351390	0.228932	0.000014
 878	8.7261e+01	8.7240	7.955196	0.000221	2.211365	0.374615	0.000022
 879	8.7361e+01	8.7301	7.973527	0.000184	1.842804	0.312179	0.000018
 880	8.7460e+01	8.7387	7.993487	0.000201	2.006609	0.339929	0.000020
 881	8.7560e+01	8.7489	8.015076	0.000217	2.170414	0.367678	0.000022
 882	8.7659e+01	8.7622	8.030555	0.000156	1.556146	0.263618	0.000016
 883	8.7759e+01	8.7720	8.049700	0.000192	1.924707	0.326054	0.000019
 884	8.7859e+01	8.7817	8.066808	0.000172	1.719951	0.291368	0.000017
 885	8.7958e+01	8.7891	8.087583	0.000209	2.088511	0.353803	0.000021
 886	8.8058e+01	8.8004	8.100618	0.000131	1.310439	0.221994	0.000013
 887	8.8157e+01	8.8113	8.116097	0.000156	1.556146	0.263618	0.000016
 888	8.8257e+01	8.8186	8.134020	0.000180	1.801853	0.305242	0.000018
 889	8.8356e+01	8.8289	8.149906	0.000160	1.597097	0.270556	0.000016
 890	8.8456e+01	8.8389	8.168644	0.000188	1.883755	0.319117	0.000019
 891	8.8555e+01	8.8489	8.186160	0.000176	1.760902	0.298305	0.000018
 892	8.8654e+01	8.8574	8.205712	0.000197	1.965658	0.332991	0.000020
 893	8.8754e+01	8.8688	8.222006	0.000164	1.638048	0.277493	0.000016
 894	8.8853e+01	8.8790	8.239114	0.000172	1.719951	0.291368	0.000017
 895	8.8953e+01	8.8892	8.255000	0.000160	1.597097	0.270556	0.000016
 896	8.9052e+01	8.9021	8.272924	0.000180	1.801853	0.305242	0.000018
 897	8.9152e+01	8.9096	8.291661	0.000188	1.883755	0.319117	0.000019
 898	8.9251e+01	8.9210	8.309992	0.000184	1.842804	0.312179	0.000018
 899	8.9351e+01	8.9291	8.323841	0.000139	1.392341	0.235869	0.000014
 900	8.9451e+01	8.9404	8.345023	0.000213	2.129463	0.360741	0.000021
 901	8.9550e+01	8.9475	8.360502	0.000156	1.556146	0.263618	0.000016
 902	8.9650e+01	8.9600	8.378833	0.000184	1.842804	0.312179	0.000018
 903	8.9749e+01	8.9709	8.399200	0.000205	2.047560	0.346866	0.000020
 904	8.9849e+01	8.9783	8.418752	0.000197	1.965658	0.332991	0.000020
 905	8.9948e+01	8.9884	8.438305	0.000197	1.965658	0.332991	0.000020
 906	9.0047e+01	9.0029	8.455413	0.000172	1.719951	0.291368	0.000017
 907	9.0147e+01	9.0089	8.479039	0.000238	2.375170	0.402365	0.000024
 908	9.0246e+01	9.0186	8.496147	0.000172	1.719951	0.291368	0.000017
 909	9.0346e+01	9.0300	8.517736	0.000217	2.170414	0.367678	0.000022
 910	9.0445e+01	9.0376	8.535659	0.000180	1.801853	0.305242	0.000018
 911	9.0545e+01	9.0481	8.550731	0.000152	1.515195	0.256681	0.000015
 912	9.0644e+01	9.0556	8.573135	0.000225	2.252316	0.381553	0.000023
 913	9.0744e+01	9.0705	8.594317	0.000213	2.129463	0.360741	0.000021
 914	9.0844e+01	9.0781	8.611425	0.000172	1.719951	0.291368	0.000017
 915	9.0943e+01	9.0869	8.630163	0.000188	1.883755	0.319117	0.000019
 916	9.1043e+01	9.1016	8.654604	0.000246	2.457072	0.416239	0.000025
 917	9.1142e+01	9.1105	8.671305	0.000168	1.678999	0.284430	0.000017
 918	9.1242e+01	9.1184	8.689635	0.000184	1.842804	0.312179	0.000018
 919	9.1341e+01	9.1295	8.713261	0.000238	2.375170	0.402365	0.000024
 920	9.1441e+01	9.1412	8.732406	0.000192	1.924707	0.326054	0.000019
 921	9.1540e+01	9.1494	8.751144	0.000188	1.883755	0.319117	0.000019
 922	9.1639e+01	9.1577	8.771511	0.000205	2.047560	0.346866	0.000020
 923	9.1739e+01	9.1699	8.789841	0.000184	1.842804	0.312179	0.000018
 924	9.1838e+01	9.1772	8.813467	0.000238	2.375170	0.402365	0.000024
 925	9.1938e+01	9.1882	8.829761	0.000164	1.638048	0.277493	0.000016
 926	9.2037e+01	9.1980	8.851757	0.000221	2.211365	0.374615	0.000022
 927	9.2137e+01	9.2090	8.871717	0.000201	2.006609	0.339929	0.000020
 928	9.2237e+01	9.2175	8.890455	0.000188	1.883755	0.319117	0.000019
 929	9.2336e+01	9.2277	8.911637	0.000213	2.129463	0.360741	0.000021
 930	9.2436e+01	9.2386	8.933633	0.000221	2.211365	0.374615	0.000022
 931	9.2535e+01	9.2472	8.952371	0.000188	1.883755	0.319117	0.000019
 932	9.2635e+01	9.2567	8.973553	0.000213	2.129463	0.360741	0.000021
 933	9.2734e+01	9.2669	8.992290	0.000188	1.883755	0.319117	0.000019
 934	9.2834e+01	9.2773	9.015916	0.000238	2.375170	0.402365	0.000024
 935	9.2933e+01	9.2859	9.037098	0.000213	2.129463	0.360741	0.000021
 936	9.3032e+01	9.2973	9.058280	0.000213	2.129463	0.360741	0.000021
 937	9.3132e+01	9.3087	9.085979	0.000278	2.784682	0.471738	0.000028
 938	9.3231e+01	9.3165	9.106754	0.000209	2.088511	0.353803	0.000021
 939	9.3331e+01	9.3288	9.129972	0.000233	2.334219	0.395427	0.000023
 940	9.3430e+01	9.3375	9.154413	0.000246	2.457072	0.416239	0.000025
 941	9.3530e+01	9.3463	9.174780	0.000205	2.047560	0.346866	0.000020
 942	9.3629e+01	9.3567	9.192296	0.000176	1.760902	0.298305	0.000018
 943	9.3729e+01	9.3678	9.216329	0.000242	2.416121	0.409302	0.000024
 944	9.3829e+01	9.3774	9.241584	0.000254	2.538975	0.430114	0.000025
 945	9.3928e+01	9.3881	9.262359	0.000209	2.088511	0.353803	0.000021
 946	9.4028e+01	9.3978	9.285170	0.000229	2.293267	0.388490	0.000023
 947	9.4127e+01	9.4098	9.307166	0.000221	2.211365	0.374615	0.000022
 948	9.4227e+01	9.4173	9.330792	0.000238	2.375170	0.402365	0.000024
 949	9.4326e+01	9.4278	9.350345	0.000197	1.965658	0.332991	0.000020
 950	9.4425e+01	9.4346	9.373970	0.000238	2.375170	0.402365	0.000024
 951	9.4525e+01	9.4468	9.390264	0.000164	1.638048	0.277493	0.000016
 952	9.4624e+01	9.4584	9.415112	0.000250	2.498023	0.423177	0.000025
 953	9.4724e+01	9.4678	9.437923	0.000229	2.293267	0.388490	0.000023
 954	9.4823e+01	9.4769	9.461142	0.000233	2.334219	0.395427	0.000023
 955	9.4923e+01	9.4852	9.481916	0.000209	2.088511	0.353803	0.000021
 956	9.5022e+01	9.4955	9.500654	0.000188	1.883755	0.319117	0.000019
 957	9.5122e+01	9.5056	9.524687	0.000242	2.416121	0.409302	0.000024
 958	9.5222e+01	9.5167	9.544647	0.000201	2.006609	0.339929	0.000020
 959	9.5321e+01	9.5267	9.564607	0.000201	2.006609	0.339929	0.000020
 960	9.5421e+01	9.5361	9.586603	0.000221	2.211365	0.374615	0.000022
 961	9.5520e+01	9.5448	9.610636	0.000242	2.416121	0.409302	0.000024
 962	9.5620e+01	9.5527	9.628560	0.000180	1.801853	0.305242	0.000018
 963	9.5719e+01	9.5667	9.653815	0.000254	2.538975	0.430114	0.000025
 964	9.5819e+01	9.5744	9.673367	0.000197	1.965658	0.332991	0.000020
 965	9.5918e+01	9.5892	9.693734	0.000205	2.047560	0.346866	0.000020
 966	9.6017e+01	9.5969	9.716953	0.000233	2.334219	0.395427	0.000023
 967	9.6117e+01	9.6071	9.736913	0.000201	2.006609	0.339929	0.000020
 968	9.6216e+01	9.6167	9.758502	0.000217	2.170414	0.367678	0.000022
 969	9.6316e+01	9.6295	9.779684	0.000213	2.129463	0.360741	0.000021
 970	9.6415e+01	9.6369	9.803310	0.000238	2.375170	0.402365	0.000024
 971	9.6515e+01	9.6436	9.824899	0.000217	2.170414	0.367678	0.000022
 972	9.6615e+01	9.6561	9.848932	0.000242	2.416121	0.409302	0.000024
 973	9.6714e+01	9.6645	9.871743	0.000229	2.293267	0.388490	0.000023
 974	9.6814e+01	9.6738	9.895776	0.000242	2.416121	0.409302	0.000024
 975	9.6913e+01	9.6875	9.918180	0.000225	2.252316	0.381553	0.000023
 976	9.7013e+01	9.6973	9.939362	0.000213	2.129463	0.360741	0.000021
 977	9.7112e+01	9.7053	9.960544	0.000213	2.129463	0.360741	0.000021
 978	9.7212e+01	9.7175	9.983355	0.000229	2.293267	0.388490	0.000023
 979	9.7311e+01	9.7266	10.005759	0.000225	2.252316	0.381553	0.000023
 980	9.7410e+01	9.7394	10.028977	0.000233	2.334219	0.395427	0.000023
 981	9.7510e+01	9.7465	10.055455	0.000266	2.661828	0.450926	0.000027
 982	9.7609e+01	9.7543	10.078673	0.000233	2.334219	0.395427	0.000023
 983	9.7709e+01	9.7681	10.097818	0.000192	1.924707	0.326054	0.000019
 984	9.7808e+01	9.7742	10.121444	0.000238	2.375170	0.402365	0.000024
 985	9.7908e+01	9.7842	10.145070	0.000238	2.375170	0.402365	0.000024
 986	9.8007e+01	9.7928	10.165030	0.000201	2.006609	0.339929	0.000020
 987	9.8107e+01	9.8028	10.188248	0.000233	2.334219	0.395427	0.000023
 988	9.8207e+01	9.8145	10.208208	0.000201	2.006609	0.339929	0.000020
 989	9.8306e+01	9.8254	10.231427	0.000233	2.334219	0.395427	0.000023
 990	9.8406e+01	9.8352	10.248942	0.000176	1.760902	0.298305	0.000018
 991	9.8505e+01	9.8459	10.275012	0.000262	2.620877	0.443989	0.000026
 992	9.8605e+01	9.8542	10.296194	0.000213	2.129463	0.360741	0.000021
 993	9.8704e+01	9.8642	10.318598	0.000225	2.252316	0.381553	0.000023
 994	9.8803e+01	9.8748	10.339780	0.000213	2.129463	0.360741	0.000021
 995	9.8903e+01	9.8843	10.361776	0.000221	2.211365	0.374615	0.000022
 996	9.9002e+01	9.8927	10.381736	0.000201	2.006609	0.339929	0.000020
 997	9.9102e+01	9.9034	10.406584	0.000250	2.498023	0.423177	0.000025
 998	9.9201e+01	9.9150	10.430617	0.000242	2.416121	0.409302	0.000024
 999	9.9301e+01	9.9243	10.453021	0.000225	2.252316	0.381553	0.000023
1000	9.9400e+01	9.9317	10.468500	0.000156	1.556146	0.263618	0.000016
1001	9.9500e+01	9.9426	10.490496	0.000221	2.211365	0.374615	0.000022
1002	9.9600e+01	9.9536	10.516566	0.000262	2.620877	0.443989	0.000026
1003	9.9699e+01	9.9659	10.536119	0.000197	1.965658	0.332991	0.000020
1004	9.9799e+01	9.9740	10.558523	0.000225	2.252316	0.381553	0.000023
1005	9.9898e+01	9.9854	10.579704	0.000213	2.129463	0.360741	0.000021
1006	9.9998e+01	9.9929	10.601701	0.000221	2.211365	0.374615	0.000022
1007	1.0010e+02	9.9829	10.591110	0.000106	1.064731	0.180370	-0.000011
1008	1.0020e+02	9.9735	10.582148	0.000090	0.900927	0.152621	-0.000009
1009	1.0030e+02	9.9624	10.571558	0.000106	1.064731	0.180370	-0.000011
1010	1.0040e+02	9.9561	10.563818	0.000078	0.778073	0.131809	-0.000008
1011	1.0050e+02	9.9438	10.550376	0.000135	1.351390	0.228932	-0.000014
1012	1.0059e+02	9.9329	10.541414	0.000090	0.900927	0.152621	-0.000009
1013	1.0069e+02	9.9232	10.531638	0.000098	0.982829	0.166496	-0.000010
1014	1.0079e+02	9.9164	10.516159	0.000156	1.556146	0.263618	-0.000016
1015	1.0089e+02	9.9063	10.507197	0.000090	0.900927	0.152621	-0.000009
1016	1.0099e+02	9.8965	10.493348	0.000139	1.392341	0.235869	-0.000014
1017	1.0109e+02	9.8853	10.484794	0.000086	0.859975	0.145684	-0.000009
1018	1.0119e+02	9.8750	10.473388	0.000115	1.146634	0.194245	-0.000011
1019	1.0129e+02	9.8633	10.456280	0.000172	1.719951	0.291368	-0.000017
1020	1.0139e+02	9.8547	10.444467	0.000119	1.187585	0.201182	-0.000012
1021	1.0149e+02	9.8438	10.432246	0.000123	1.228536	0.208120	-0.000012
1022	1.0159e+02	9.8328	10.420841	0.000115	1.146634	0.194245	-0.000011
1023	1.0169e+02	9.8242	10.403325	0.000176	1.760902	0.298305	-0.000018
1024	1.0179e+02	9.8154	10.389475	0.000139	1.392341	0.235869	-0.000014
1025	1.0189e+02	9.8023	10.377663	0.000119	1.187585	0.201182	-0.000012
1026	1.0199e+02	9.7961	10.363813	0.000139	1.392341	0.235869	-0.000014
1027	1.0209e+02	9.7834	10.350371	0.000135	1.351390	0.228932	-0.000014
1028	1.0219e+02	9.7754	10.338558	0.000119	1.187585	0.201182	-0.000012
1029	1.0229e+02	9.7661	10.319820	0.000188	1.883755	0.319117	-0.000019
1030	1.0239e+02	9.7552	10.306785	0.000131	1.310439	0.221994	-0.000013
1031	1.0248e+02	9.7430	10.289269	0.000176	1.760902	0.298305	-0.000018
1032	1.0258e+02	9.7346	10.278678	0.000106	1.064731	0.180370	-0.000011
1033	1.0268e+02	9.7235	10.261570	0.000172	1.719951	0.291368	-0.000017
1034	1.0278e+02	9.7135	10.246906	0.000147	1.474243	0.249744	-0.000015
1035	1.0288e+02	9.7053	10.235093	0.000119	1.187585	0.201182	-0.000012
1036	1.0298e+02	9.6960	10.221650	0.000135	1.351390	0.228932	-0.000014
1037	1.0308e+02	9.6875	10.209023	0.000127	1.269487	0.215057	-0.000013
1038	1.0318e+02	9.6756	10.194766	0.000143	1.433292	0.242806	-0.000014
1039	1.0328e+02	9.6656	10.178472	0.000164	1.638048	0.277493	-0.000016
1040	1.0338e+02	9.6561	10.168288	0.000102	1.023780	0.173433	-0.000010
1041	1.0348e+02	9.6460	10.151180	0.000172	1.719951	0.291368	-0.000017
1042	1.0358e+02	9.6357	10.140996	0.000102	1.023780	0.173433	-0.000010
1043	1.0368e+02	9.6250	10.125110	0.000160	1.597097	0.270556	-0.000016
1044	1.0378e+02	9.6136	10.113297	0.000119	1.187585	0.201182	-0.000012
1045	1.0388e+02	9.6061	10.098633	0.000147	1.474243	0.249744	-0.000015
1046	1.0398e+02	9.5963	10.089671	0.000090	0.900927	0.152621	-0.000009
1047	1.0408e+02	9.5867	10.074192	0.000156	1.556146	0.263618	-0.000016
1048	1.0418e+02	9.5785	10.058306	0.000160	1.597097	0.270556	-0.000016
1049	1.0428e+02	9.5639	10.046493	0.000119	1.187585	0.201182	-0.000012
1050	1.0438e+02	9.5583	10.030199	0.000164	1.638048	0.277493	-0.000016
1051	1.0447e+02	9.5468	10.021238	0.000090	0.900927	0.152621	-0.000009
1052	1.0457e+02	9.5375	10.006166	0.000152	1.515195	0.256681	-0.000015
1053	1.0467e+02	9.5264	9.985392	0.000209	2.088511	0.353803	-0.000021
1054	1.0477e+02	9.5218	9.974393	0.000111	1.105683	0.187308	-0.000011
1055	1.0487e+02	9.5054	9.958100	0.000164	1.638048	0.277493	-0.000016
1056	1.0497e+02	9.4984	9.945065	0.000131	1.310439	0.221994	-0.000013
1057	1.0507e+02	9.4861	9.929178	0.000160	1.597097	0.270556	-0.000016
1058	1.0517e+02	9.4757	9.914107	0.000152	1.515195	0.256681	-0.000015
1059	1.0527e+02	9.4656	9.898628	0.000156	1.556146	0.263618	-0.000016
1060	1.0537e+02	9.4556	9.882741	0.000160	1.597097	0.270556	-0.000016
1061	1.0547e+02	9.4470	9.871743	0.000111	1.105683	0.187308	-0.000011
1062	1.0557e+02	9.4367	9.855857	0.000160	1.597097	0.270556	-0.000016
1063	1.0567e+02	9.4299	9.839563	0.000164	1.638048	0.277493	-0.000016
1064	1.0577e+02	9.4183	9.825713	0.000139	1.392341	0.235869	-0.000014
1065	1.0587e+02	9.4055	9.811864	0.000139	1.392341	0.235869	-0.000014
1066	1.0597e+02	9.3978	9.793941	0.000180	1.801853	0.305242	-0.000018
1067	1.0607e+02	9.3875	9.777240	0.000168	1.678999	0.284430	-0.000017
1068	1.0617e+02	9.3762	9.764205	0.000131	1.310439	0.221994	-0.000013
1069	1.0627e+02	9.3677	9.749540	0.000147	1.474243	0.249744	-0.000015
1070	1.0637e+02	9.3583	9.734876	0.000147	1.474243	0.249744	-0.000015
1071	1.0647e+02	9.3462	9.718990	0.000160	1.597097	0.270556	-0.000016
1072	1.0656e+02	9.3384	9.705547	0.000135	1.351390	0.228932	-0.000014
1073	1.0666e+02	9.3286	9.691698	0.000139	1.392341	0.235869	-0.000014
1074	1.0676e+02	9.3183	9.676219	0.000156	1.556146	0.263618	-0.000016
1075	1.0686e+02	9.3091	9.661962	0.000143	1.433292	0.242806	-0.000014
1076	1.0696e+02	9.2978	9.652185	0.000098	0.982829	0.166496	-0.000010
1077	1.0706e+02	9.2872	9.636706	0.000156	1.556146	0.263618	-0.000016
1078	1.0716e+02	9.2774	9.622042	0.000147	1.474243	0.249744	-0.000015
1079	1.0726e+02	9.2670	9.606563	0.000156	1.556146	0.263618	-0.000016
1080	1.0736e+02	9.2583	9.593935	0.000127	1.269487	0.215057	-0.000013
1081	1.0746e+02	9.2452	9.580900	0.000131	1.310439	0.221994	-0.000013
1082	1.0756e+02	9.2389	9.564607	0.000164	1.638048	0.277493	-0.000016
1083	1.0766e+02	9.2265	9.553609	0.000111	1.105683	0.187308	-0.000011
1084	1.0776e+02	9.2182	9.538944	0.000147	1.474243	0.249744	-0.000015
1085	1.0786e+02	9.2091	9.528353	0.000106	1.064731	0.180370	-0.000011
1086	1.0796e+02	9.1968	9.511245	0.000172	1.719951	0.291368	-0.000017
1087	1.0806e+02	9.1907	9.499025	0.000123	1.228536	0.208120	-0.000012
1088	1.0816e+02	9.1776	9.487212	0.000119	1.187585	0.201182	-0.000012
1089	1.0826e+02	9.1659	9.472140	0.000152	1.515195	0.256681	-0.000015
1090	1.0836e+02	9.1586	9.459512	0.000127	1.269487	0.215057	-0.000013
1091	1.0845e+02	9.1481	9.445255	0.000143	1.433292	0.242806	-0.000014
1092	1.0855e+02	9.1388	9.433442	0.000119	1.187585	0.201182	-0.000012
1093	1.0865e+02	9.1283	9.418778	0.000147	1.474243	0.249744	-0.000015
1094	1.0875e+02	9.1171	9.400448	0.000184	1.842804	0.312179	-0.000018
1095	1.0885e+02	9.1090	9.387413	0.000131	1.310439	0.221994	-0.000013
1096	1.0895e+02	9.0971	9.373156	0.000143	1.433292	0.242806	-0.000014
1097	1.0905e+02	9.0878	9.359713	0.000135	1.351390	0.228932	-0.000014
1098	1.0915e+02	9.0797	9.345049	0.000147	1.474243	0.249744	-0.000015
1099	1.0925e+02	9.0678	9.334051	0.000111	1.105683	0.187308	-0.000011
1100	1.0935e+02	9.0576	9.318572	0.000156	1.556146	0.263618	-0.000016
1101	1.0945e+02	9.0479	9.305537	0.000131	1.310439	0.221994	-0.000013
1102	1.0955e+02	9.0399	9.292502	0.000131	1.310439	0.221994	-0.000013
1103	1.0965e+02	9.0283	9.276616	0.000160	1.597097	0.270556	-0.000016
1104	1.0975e+02	9.0186	9.264803	0.000119	1.187585	0.201182	-0.000012
1105	1.0985e+02	9.0053	9.255434	0.000094	0.941878	0.159558	-0.000009
1106	1.0995e+02	8.9990	9.241584	0.000139	1.392341	0.235869	-0.000014
1107	1.1005e+02	8.9877	9.227734	0.000139	1.392341	0.235869	-0.000014
1108	1.1015e+02	8.9785	9.219180	0.000086	0.859975	0.145684	-0.000009
1109	1.1025e+02	8.9687	9.204516	0.000147	1.474243	0.249744	-0.000015
1110	1.1035e+02	8.9603	9.189444	0.000152	1.515195	0.256681	-0.000015
1111	1.1044e+02	8.9493	9.175595	0.000139	1.392341	0.235869	-0.000014
1112	1.1054e+02	8.9397	9.167040	0.000086	0.859975	0.145684	-0.000009
1113	1.1064e+02	8.9312	9.153598	0.000135	1.351390	0.228932	-0.000014
1114	1.1074e+02	8.9209	9.142600	0.000111	1.105683	0.187308	-0.000011
1115	1.1084e+02	8.9091	9.125899	0.000168	1.678999	0.284430	-0.000017
1116	1.1094e+02	8.9002	9.115715	0.000102	1.023780	0.173433	-0.000010
1117	1.1104e+02	8.8902	9.100644	0.000152	1.515195	0.256681	-0.000015
1118	1.1114e+02	8.8795	9.088016	0.000127	1.269487	0.215057	-0.000013
1119	1.1124e+02	8.8696	9.076610	0.000115	1.146634	0.194245	-0.000011
1120	1.1134e+02	8.8630	9.062353	0.000143	1.433292	0.242806	-0.000014
1121	1.1144e+02	8.8467	9.050133	0.000123	1.228536	0.208120	-0.000012
1122	1.1154e+02	8.8390	9.035061	0.000152	1.515195	0.256681	-0.000015
1123	1.1164e+02	8.8300	9.021212	0.000139	1.392341	0.235869	-0.000014
1124	1.1174e+02	8.8199	9.004918	0.000164	1.638048	0.277493	-0.000016
1125	1.1184e+02	8.8123	8.994735	0.000102	1.023780	0.173433	-0.000010
1126	1.1194e+02	8.8010	8.976811	0.000180	1.801853	0.305242	-0.000018
1127	1.1204e+02	8.7915	8.965406	0.000115	1.146634	0.194245	-0.000011
1128	1.1214e+02	8.7796	8.951556	0.000139	1.392341	0.235869	-0.000014
1129	1.1224e+02	8.7688	8.934041	0.000176	1.760902	0.298305	-0.000018
1130	1.1234e+02	8.7624	8.918561	0.000156	1.556146	0.263618	-0.000016
1131	1.1244e+02	8.7494	8.901453	0.000172	1.719951	0.291368	-0.000017
1132	1.1253e+02	8.7383	8.887603	0.000139	1.392341	0.235869	-0.000014
1133	1.1263e+02	8.7320	8.872532	0.000152	1.515195	0.256681	-0.000015
1134	1.1273e+02	8.7234	8.858682	0.000139	1.392341	0.235869	-0.000014
1135	1.1283e+02	8.7124	8.843610	0.000152	1.515195	0.256681	-0.000015
1136	1.1293e+02	8.7013	8.829353	0.000143	1.433292	0.242806	-0.000014
1137	1.1303e+02	8.6916	8.815096	0.000143	1.433292	0.242806	-0.000014
1138	1.1313e+02	8.6841	8.802469	0.000127	1.269487	0.215057	-0.000013
1139	1.1323e+02	8.6728	8.787805	0.000147	1.474243	0.249744	-0.000015
1140	1.1333e+02	8.6611	8.777621	0.000102	1.023780	0.173433	-0.000010
1141	1.1343e+02	8.6525	8.759698	0.000180	1.801853	0.305242	-0.000018
1142	1.1353e+02	8.6418	8.745441	0.000143	1.433292	0.242806	-0.000014
1143	1.1363e+02	8.6319	8.729555	0.000160	1.597097	0.270556	-0.000016
1144	1.1373e+02	8.6230	8.715705	0.000139	1.392341	0.235869	-0.000014
1145	1.1383e+02	8.6141	8.701041	0.000147	1.474243	0.249744	-0.000015
1146	1.1393e+02	8.6012	8.686376	0.000147	1.474243	0.249744	-0.000015
1147	1.1403e+02	8.5927	8.673341	0.000131	1.310439	0.221994	-0.000013
1148	1.1413e+02	8.5832	8.656640	0.000168	1.678999	0.284430	-0.000017
1149	1.1423e+02	8.5709	8.642791	0.000139	1.392341	0.235869	-0.000014
1150	1.1433e+02	8.5596	8.630570	0.000123	1.228536	0.208120	-0.000012
1151	1.1442e+02	8.5523	8.614684	0.000160	1.597097	0.270556	-0.000016
1152	1.1452e+02	8.5429	8.600427	0.000143	1.433292	0.242806	-0.000014
1153	1.1462e+02	8.5332	8.585763	0.000147	1.474243	0.249744	-0.000015
1154	1.1472e+02	8.5220	8.571098	0.000147	1.474243	0.249744	-0.000015
1155	1.1482e+02	8.5113	8.552768	0.000184	1.842804	0.312179	-0.000018
1156	1.1492e+02	8.5028	8.540140	0.000127	1.269487	0.215057	-0.000013
1157	1.1502e+02	8.4927	8.522625	0.000176	1.760902	0.298305	-0.000018
1158	1.1512e+02	8.4820	8.506738	0.000160	1.597097	0.270556	-0.000016
1159	1.1522e+02	8.4718	8.488000	0.000188	1.883755	0.319117	-0.000019
1160	1.1532e+02	8.4624	8.473743	0.000143	1.433292	0.242806	-0.000014
1161	1.1542e+02	8.4536	8.455820	0.000180	1.801853	0.305242	-0.000018
1162	1.1552e+02	8.4421	8.441156	0.000147	1.474243	0.249744	-0.000015
1163	1.1562e+02	8.4336	8.424048	0.000172	1.719951	0.291368	-0.000017
1164	1.1572e+02	8.4215	8.406939	0.000172	1.719951	0.291368	-0.000017
1165	1.1582e+02	8.4139	8.390646	0.000164	1.638048	0.277493	-0.000016
1166	1.1592e+02	8.4036	8.374352	0.000164	1.638048	0.277493	-0.000016
1167	1.1602e+02	8.3918	8.355207	0.000192	1.924707	0.326054	-0.000019
1168	1.1612e+02	8.3828	8.342172	0.000131	1.310439	0.221994	-0.000013
1169	1.1622e+02	8.3727	8.323434	0.000188	1.883755	0.319117	-0.000019
1170	1.1632e+02	8.3655	8.305104	0.000184	1.842804	0.312179	-0.000018
1171	1.1642e+02	8.3524	8.289217	0.000160	1.597097	0.270556	-0.000016
1172	1.1651e+02	8.3426	8.272924	0.000164	1.638048	0.277493	-0.000016
1173	1.1661e+02	8.3307	8.253371	0.000197	1.965658	0.332991	-0.000020
1174	1.1671e+02	8.3233	8.236263	0.000172	1.719951	0.291368	-0.000017
1175	1.1681e+02	8.3139	8.220376	0.000160	1.597097	0.270556	-0.000016
1176	1.1691e+02	8.3043	8.203675	0.000168	1.678999	0.284430	-0.000017
1177	1.1701e+02	8.2928	8.185752	0.000180	1.801853	0.305242	-0.000018
1178	1.1711e+02	8.2883	8.166200	0.000197	1.965658	0.332991	-0.000020
1179	1.1721e+02	8.2742	8.152350	0.000139	1.392341	0.235869	-0.000014
1180	1.1731e+02	8.2622	8.133612	0.000188	1.883755	0.319117	-0.000019
1181	1.1741e+02	8.2532	8.114467	0.000192	1.924707	0.326054	-0.000019
1182	1.1751e+02	8.2432	8.099396	0.000152	1.515195	0.256681	-0.000015
1183	1.1761e+02	8.2328	8.081880	0.000176	1.760902	0.298305	-0.000018
1184	1.1771e+02	8.2261	8.060698	0.000213	2.129463	0.360741	-0.000021
1185	1.1781e+02	8.2146	8.044812	0.000160	1.597097	0.270556	-0.000016
1186	1.1791e+02	8.2044	8.027296	0.000176	1.760902	0.298305	-0.000018
1187	1.1801e+02	8.1940	8.006929	0.000205	2.047560	0.346866	-0.000020
1188	1.1811e+02	8.1836	7.987784	0.000192	1.924707	0.326054	-0.000019
1189	1.1821e+02	8.1738	7.968231	0.000197	1.965658	0.332991	-0.000020
1190	1.1831e+02	8.1657	7.950308	0.000180	1.801853	0.305242	-0.000018
1191	1.1841e+02	8.1535	7.926682	0.000238	2.375170	0.402365	-0.000024
1192	1.1850e+02	8.1445	7.908759	0.000180	1.801853	0.305242	-0.000018
1193	1.1860e+02	8.1321	7.888800	0.000201	2.006609	0.339929	-0.000020
1194	1.1870e+02	8.1207	7.871691	0.000172	1.719951	0.291368	-0.000017
1195	1.1880e+02	8.1144	7.852139	0.000197	1.965658	0.332991	-0.000020
1196	1.1890e+02	8.1066	7.833808	0.000184	1.842804	0.312179	-0.000018
1197	1.1900e+02	8.0938	7.810590	0.000233	2.334219	0.395427	-0.000023
1198	1.1910e+02	8.0850	7.792259	0.000184	1.842804	0.312179	-0.000018
1199	1.1920e+02	8.0740	7.772707	0.000197	1.965658	0.332991	-0.000020
1200	1.1930e+02	8.0644	7.757228	0.000156	1.556146	0.263618	-0.000016
1201	1.1940e+02	8.0547	7.738083	0.000192	1.924707	0.326054	-0.000019
1202	1.1950e+02	8.0429	7.713235	0.000250	2.498023	0.423177	-0.000025
1203	1.1960e+02	8.0367	7.697756	0.000156	1.556146	0.263618	-0.000016
1204	1.1970e+02	8.0267	7.678203	0.000197	1.965658	0.332991	-0.000020
1205	1.1980e+02	8.0138	7.658651	0.000197	1.965658	0.332991	-0.000020
1206	1.1990e+02	8.0046	7.640321	0.000184	1.842804	0.312179	-0.000018
1207	1.2000e+02	7.9935	7.624842	0.000156	1.556146	0.263618	-0.000016
1208	1.2010e+02	7.9841	7.608141	0.000168	1.678999	0.284430	-0.000017
1209	1.2020e+02	7.9703	7.586959	0.000213	2.129463	0.360741	-0.000021
1210	1.2030e+02	7.9668	7.572702	0.000143	1.433292	0.242806	-0.000014
1211	1.2039e+02	7.9551	7.550298	0.000225	2.252316	0.381553	-0.000023
1212	1.2049e+02	7.9429	7.534004	0.000164	1.638048	0.277493	-0.000016
1213	1.2059e+02	7.9349	7.520155	0.000139	1.392341	0.235869	-0.000014
1214	1.2069e+02	7.9238	7.499380	0.000209	2.088511	0.353803	-0.000021
1215	1.2079e+02	7.9173	7.478606	0.000209	2.088511	0.353803	-0.000021
1216	1.2089e+02	7.9038	7.467607	0.000111	1.105683	0.187308	-0.000011
1217	1.2099e+02	7.8947	7.444796	0.000229	2.293267	0.388490	-0.000023
1218	1.2109e+02	7.8841	7.426873	0.000180	1.801853	0.305242	-0.000018
1219	1.2119e+02	7.8761	7.408950	0.000180	1.801853	0.305242	-0.000018
1220	1.2129e+02	7.8662	7.392656	0.000164	1.638048	0.277493	-0.000016
1221	1.2139e+02	7.8546	7.371882	0.000209	2.088511	0.353803	-0.000021
1222	1.2149e+02	7.8468	7.353551	0.000184	1.842804	0.312179	-0.000018
1223	1.2159e+02	7.8387	7.331148	0.000225	2.252316	0.381553	-0.000023
1224	1.2169e+02	7.8259	7.312410	0.000188	1.883755	0.319117	-0.000019
1225	1.2179e+02	7.8143	7.297338	0.000152	1.515195	0.256681	-0.000015
1226	1.2189e+02	7.8059	7.274527	0.000229	2.293267	0.388490	-0.000023
1227	1.2199e+02	7.7968	7.254567	0.000201	2.006609	0.339929	-0.000020
1228	1.2209e+02	7.7876	7.235829	0.000188	1.883755	0.319117	-0.000019
1229	1.2219e+02	7.7766	7.221165	0.000147	1.474243	0.249744	-0.000015
1230	1.2229e+02	7.7665	7.201205	0.000201	2.006609	0.339929	-0.000020
1231	1.2239e+02	7.7565	7.182468	0.000188	1.883755	0.319117	-0.000019
1232	1.2248e+02	7.7465	7.163322	0.000192	1.924707	0.326054	-0.000019
1233	1.2258e+02	7.7374	7.143770	0.000197	1.965658	0.332991	-0.000020
1234	1.2268e+02	7.7252	7.125032	0.000188	1.883755	0.319117	-0.000019
1235	1.2278e+02	7.7180	7.105072	0.000201	2.006609	0.339929	-0.000020
1236	1.2288e+02	7.7072	7.082261	0.000229	2.293267	0.388490	-0.000023
1237	1.2298e+02	7.6972	7.068004	0.000143	1.433292	0.242806	-0.000014
1238	1.2308e+02	7.6862	7.050081	0.000180	1.801853	0.305242	-0.000018
1239	1.2318e+02	7.6768	7.032158	0.000180	1.801853	0.305242	-0.000018
1240	1.2328e+02	7.6678	7.013420	0.000188	1.883755	0.319117	-0.000019
1241	1.2338e+02	7.6572	6.993868	0.000197	1.965658	0.332991	-0.000020
1242	1.2348e+02	7.6507	6.976352	0.000176	1.760902	0.298305	-0.000018
1243	1.2358e+02	7.6381	6.962503	0.000139	1.392341	0.235869	-0.000014
1244	1.2368e+02	7.6257	6.947024	0.000156	1.556146	0.263618	-0.000016
1245	1.2378e+02	7.6186	6.927878	0.000192	1.924707	0.326054	-0.000019
1246	1.2388e+02	7.6058	6.912807	0.000152	1.515195	0.256681	-0.000015
1247	1.2398e+02	7.5980	6.892847	0.000201	2.006609	0.339929	-0.000020
1248	1.2408e+02	7.5896	6.875739	0.000172	1.719951	0.291368	-0.000017
1249	1.2418e+02	7.5773	6.860667	0.000152	1.515195	0.256681	-0.000015
1250	1.2428e+02	7.5675	6.842744	0.000180	1.801853	0.305242	-0.000018
1251	1.2438e+02	7.5571	6.826450	0.000164	1.638048	0.277493	-0.000016
1252	1.2447e+02	7.5455	6.809342	0.000172	1.719951	0.291368	-0.000017
1253	1.2457e+02	7.5366	6.794270	0.000152	1.515195	0.256681	-0.000015
1254	1.2467e+02	7.5259	6.775532	0.000188	1.883755	0.319117	-0.000019
1255	1.2477e+02	7.5185	6.759646	0.000160	1.597097	0.270556	-0.000016
1256	1.2487e+02	7.5067	6.742130	0.000176	1.760902	0.298305	-0.000018
1257	1.2497e+02	7.4974	6.723392	0.000188	1.883755	0.319117	-0.000019
1258	1.2507e+02	7.4854	6.709543	0.000139	1.392341	0.235869	-0.000014
1259	1.2517e+02	7.4770	6.692434	0.000172	1.719951	0.291368	-0.000017
1260	1.2527e+02	7.4679	6.674104	0.000184	1.842804	0.312179	-0.000018
1261	1.2537e+02	7.4590	6.660254	0.000139	1.392341	0.235869	-0.000014
1262	1.2547e+02	7.4463	6.639887	0.000205	2.047560	0.346866	-0.000020
1263	1.2557e+02	7.4400	6.621964	0.000180	1.801853	0.305242	-0.000018
1264	1.2567e+02	7.4291	6.608115	0.000139	1.392341	0.235869	-0.000014
1265	1.2577e+02	7.4191	6.590191	0.000180	1.801853	0.305242	-0.000018
1266	1.2587e+02	7.4059	6.569010	0.000213	2.129463	0.360741	-0.000021
1267	1.2597e+02	7.3986	6.557197	0.000119	1.187585	0.201182	-0.000012
1268	1.2607e+02	7.3877	6.538459	0.000188	1.883755	0.319117	-0.000019
1269	1.2617e+02	7.3808	6.525017	0.000135	1.351390	0.228932	-0.000014
1270	1.2627e+02	7.3701	6.508316	0.000168	1.678999	0.284430	-0.000017
1271	1.2636e+02	7.3600	6.494466	0.000139	1.392341	0.235869	-0.000014
1272	1.2646e+02	7.3498	6.476950	0.000176	1.760902	0.298305	-0.000018
1273	1.2656e+02	7.3379	6.464730	0.000123	1.228536	0.208120	-0.000012
1274	1.2666e+02	7.3261	6.451695	0.000131	1.310439	0.221994	-0.000013
1275	1.2676e+02	7.3182	6.432550	0.000192	1.924707	0.326054	-0.000019
1276	1.2686e+02	7.3074	6.421959	0.000106	1.064731	0.180370	-0.000011
1277	1.2696e+02	7.2962	6.406073	0.000160	1.597097	0.270556	-0.000016
1278	1.2706e+02	7.2913	6.388964	0.000172	1.719951	0.291368	-0.000017
1279	1.2716e+02	7.2781	6.373078	0.000160	1.597097	0.270556	-0.000016
1280	1.2726e+02	7.2665	6.355970	0.000172	1.719951	0.291368	-0.000017
1281	1.2736e+02	7.2584	6.343342	0.000127	1.269487	0.215057	-0.000013
1282	1.2746e+02	7.2492	6.328270	0.000152	1.515195	0.256681	-0.000015
1283	1.2756e+02	7.2404	6.308718	0.000197	1.965658	0.332991	-0.000020
1284	1.2766e+02	7.2305	6.300978	0.000078	0.778073	0.131809	-0.000008
1285	1.2776e+02	7.2196	6.279389	0.000217	2.170414	0.367678	-0.000022
1286	1.2786e+02	7.2108	6.265947	0.000135	1.351390	0.228932	-0.000014
1287	1.2796e+02	7.1981	6.250468	0.000156	1.556146	0.263618	-0.000016
1288	1.2806e+02	7.1891	6.238248	0.000123	1.228536	0.208120	-0.000012
1289	1.2816e+02	7.1790	6.220732	0.000176	1.760902	0.298305	-0.000018
1290	1.2826e+02	7.1682	6.204438	0.000164	1.638048	0.277493	-0.000016
1291	1.2835e+02	7.1597	6.188144	0.000164	1.638048	0.277493	-0.000016
1292	1.2845e+02	7.1514	6.169814	0.000184	1.842804	0.312179	-0.000018
1293	1.2855e+02	7.1426	6.155150	0.000147	1.474243	0.249744	-0.000015
1294	1.2865e+02	7.1304	6.140893	0.000143	1.433292	0.242806	-0.000014
1295	1.2875e+02	7.1218	6.118896	0.000221	2.211365	0.374615	-0.000022
1296	1.2885e+02	7.1101	6.104232	0.000147	1.474243	0.249744	-0.000015
1297	1.2895e+02	7.0972	6.086309	0.000180	1.801853	0.305242	-0.000018
1298	1.2905e+02	7.0875	6.065534	0.000209	2.088511	0.353803	-0.000021
1299	1.2915e+02	7.0795	6.050463	0.000152	1.515195	0.256681	-0.000015
1300	1.2925e+02	7.0716	6.034169	0.000164	1.638048	0.277493	-0.000016
1301	1.2935e+02	7.0589	6.013802	0.000205	2.047560	0.346866	-0.000020
1302	1.2945e+02	7.0534	5.999545	0.000143	1.433292	0.242806	-0.000014
1303	1.2955e+02	7.0403	5.980807	0.000188	1.883755	0.319117	-0.000019
1304	1.2965e+02	7.0290	5.967772	0.000131	1.310439	0.221994	-0.000013
1305	1.2975e+02	7.0225	5.949442	0.000184	1.842804	0.312179	-0.000018
1306	1.2985e+02	7.0087	5.931519	0.000180	1.801853	0.305242	-0.000018
1307	1.2995e+02	6.9993	5.916854	0.000147	1.474243	0.249744	-0.000015
1308	1.3005e+02	6.9897	5.901783	0.000152	1.515195	0.256681	-0.000015
1309	1.3015e+02	6.9793	5.884674	0.000172	1.719951	0.291368	-0.000017
1310	1.3025e+02	6.9730	5.865529	0.000192	1.924707	0.326054	-0.000019
1311	1.3034e+02	6.9626	5.854938	0.000106	1.064731	0.180370	-0.000011
1312	1.3044e+02	6.9512	5.835386	0.000197	1.965658	0.332991	-0.000020
1313	1.3054e+02	6.9411	5.817870	0.000176	1.760902	0.298305	-0.000018
1314	1.3064e+02	6.9287	5.797910	0.000201	2.006609	0.339929	-0.000020
1315	1.3074e+02	6.9202	5.785283	0.000127	1.269487	0.215057	-0.000013
1316	1.3084e+02	6.9112	5.769396	0.000160	1.597097	0.270556	-0.000016
1317	1.3094e+02	6.9006	5.753103	0.000164	1.638048	0.277493	-0.000016
1318	1.3104e+02	6.8903	5.737624	0.000156	1.556146	0.263618	-0.000016
1319	1.3114e+02	6.8807	5.723367	0.000143	1.433292	0.242806	-0.000014
1320	1.3124e+02	6.8715	5.705443	0.000180	1.801853	0.305242	-0.000018
1321	1.3134e+02	6.8615	5.692408	0.000131	1.310439	0.221994	-0.000013
1322	1.3144e+02	6.8490	5.671227	0.000213	2.129463	0.360741	-0.000021
1323	1.3154e+02	6.8432	5.653711	0.000176	1.760902	0.298305	-0.000018
1324	1.3164e+02	6.8298	5.634973	0.000188	1.883755	0.319117	-0.000019
1325	1.3174e+02	6.8204	5.617457	0.000176	1.760902	0.298305	-0.000018
1326	1.3184e+02	6.8110	5.594646	0.000229	2.293267	0.388490	-0.000023
1327	1.3194e+02	6.7995	5.577131	0.000176	1.760902	0.298305	-0.000018
1328	1.3204e+02	6.7922	5.563688	0.000135	1.351390	0.228932	-0.000014
1329	1.3214e+02	6.7822	5.541692	0.000221	2.211365	0.374615	-0.000022
1330	1.3224e+02	6.7712	5.526620	0.000152	1.515195	0.256681	-0.000015
1331	1.3234e+02	6.7629	5.505031	0.000217	2.170414	0.367678	-0.000022
1332	1.3243e+02	6.7518	5.488330	0.000168	1.678999	0.284430	-0.000017
1333	1.3253e+02	6.7399	5.470814	0.000176	1.760902	0.298305	-0.000018
1334	1.3263e+02	6.7318	5.452076	0.000188	1.883755	0.319117	-0.000019
1335	1.3273e+02	6.7220	5.431709	0.000205	2.047560	0.346866	-0.000020
1336	1.3283e+02	6.7112	5.414194	0.000176	1.760902	0.298305	-0.000018
1337	1.3293e+02	6.7011	5.390975	0.000233	2.334219	0.395427	-0.000023
1338	1.3303e+02	6.6924	5.374681	0.000164	1.638048	0.277493	-0.000016
1339	1.3313e+02	6.6807	5.354722	0.000201	2.006609	0.339929	-0.000020
1340	1.3323e+02	6.6706	5.336391	0.000184	1.842804	0.312179	-0.000018
1341	1.3333e+02	6.6624	5.315617	0.000209	2.088511	0.353803	-0.000021
1342	1.3343e+02	6.6515	5.297286	0.000184	1.842804	0.312179	-0.000018
1343	1.3353e+02	6.6426	5.279363	0.000180	1.801853	0.305242	-0.000018
1344	1.3363e+02	6.6302	5.260218	0.000192	1.924707	0.326054	-0.000019
1345	1.3373e+02	6.6216	5.242295	0.000180	1.801853	0.305242	-0.000018
1346	1.3383e+02	6.6125	5.218669	0.000238	2.375170	0.402365	-0.000024
1347	1.3393e+02	6.6016	5.201561	0.000172	1.719951	0.291368	-0.000017
1348	1.3403e+02	6.5953	5.184045	0.000176	1.760902	0.298305	-0.000018
1349	1.3413e+02	6.5821	5.164085	0.000201	2.006609	0.339929	-0.000020
1350	1.3423e+02	6.5716	5.144125	0.000201	2.006609	0.339929	-0.000020
1351	1.3432e+02	6.5633	5.127424	0.000168	1.678999	0.284430	-0.000017
1352	1.3442e+02	6.5508	5.104206	0.000233	2.334219	0.395427	-0.000023
1353	1.3452e+02	6.5456	5.085061	0.000192	1.924707	0.326054	-0.000019
1354	1.3462e+02	6.5324	5.063064	0.000221	2.211365	0.374615	-0.000022
1355	1.3472e+02	6.5216	5.042697	0.000205	2.047560	0.346866	-0.000020
1356	1.3482e+02	6.5127	5.020701	0.000221	2.211365	0.374615	-0.000022
1357	1.3492e+02	6.5007	5.001963	0.000188	1.883755	0.319117	-0.000019
1358	1.3502e+02	6.4907	4.978337	0.000238	2.375170	0.402365	-0.000024
1359	1.3512e+02	6.4809	4.955118	0.000233	2.334219	0.395427	-0.000023
1360	1.3522e+02	6.4748	4.935159	0.000201	2.006609	0.339929	-0.000020
1361	1.3532e+02	6.4626	4.914792	0.000205	2.047560	0.346866	-0.000020
1362	1.3542e+02	6.4513	4.898905	0.000160	1.597097	0.270556	-0.000016
1363	1.3552e+02	6.4423	4.873243	0.000258	2.579926	0.437051	-0.000026
1364	1.3562e+02	6.4327	4.853283	0.000201	2.006609	0.339929	-0.000020
1365	1.3572e+02	6.4227	4.832916	0.000205	2.047560	0.346866	-0.000020
1366	1.3582e+02	6.4121	4.811327	0.000217	2.170414	0.367678	-0.000022
1367	1.3592e+02	6.4014	4.789330	0.000221	2.211365	0.374615	-0.000022
1368	1.3602e+02	6.3923	4.768963	0.000205	2.047560	0.346866	-0.000020
1369	1.3612e+02	6.3844	4.747374	0.000217	2.170414	0.367678	-0.000022
1370	1.3622e+02	6.3730	4.728229	0.000192	1.924707	0.326054	-0.000019
1371	1.3631e+02	6.3631	4.706640	0.000217	2.170414	0.367678	-0.000022
1372	1.3641e+02	6.3540	4.684643	0.000221	2.211365	0.374615	-0.000022
1373	1.3651e+02	6.3445	4.665091	0.000197	1.965658	0.332991	-0.000020
1374	1.3661e+02	6.3329	4.645538	0.000197	1.965658	0.332991	-0.000020
1375	1.3671e+02	6.3248	4.625986	0.000197	1.965658	0.332991	-0.000020
1376	1.3681e+02	6.3125	4.605619	0.000205	2.047560	0.346866	-0.000020
1377	1.3691e+02	6.3021	4.586066	0.000197	1.965658	0.332991	-0.000020
1378	1.3701e+02	6.2930	4.568143	0.000180	1.801853	0.305242	-0.000018
1379	1.3711e+02	6.2861	4.548183	0.000201	2.006609	0.339929	-0.000020
1380	1.3721e+02	6.2733	4.529853	0.000184	1.842804	0.312179	-0.000018
1381	1.3731e+02	6.2637	4.510300	0.000197	1.965658	0.332991	-0.000020
1382	1.3741e+02	6.2510	4.491970	0.000184	1.842804	0.312179	-0.000018
1383	1.3751e+02	6.2472	4.471603	0.000205	2.047560	0.346866	-0.000020
1384	1.3761e+02	6.2334	4.454087	0.000176	1.760902	0.298305	-0.000018
1385	1.3771e+02	6.2246	4.434535	0.000197	1.965658	0.332991	-0.000020
1386	1.3781e+02	6.2132	4.412538	0.000221	2.211365	0.374615	-0.000022
1387	1.3791e+02	6.2027	4.390542	0.000221	2.211365	0.374615	-0.000022
1388	1.3801e+02	6.1945	4.371804	0.000188	1.883755	0.319117	-0.000019
1389	1.3811e+02	6.1852	4.351437	0.000205	2.047560	0.346866	-0.000020
1390	1.3821e+02	6.1736	4.327404	0.000242	2.416121	0.409302	-0.000024
1391	1.3831e+02	6.1639	4.309481	0.000180	1.801853	0.305242	-0.000018
1392	1.3840e+02	6.1558	4.287484	0.000221	2.211365	0.374615	-0.000022
1393	1.3850e+02	6.1456	4.265080	0.000225	2.252316	0.381553	-0.000023
1394	1.3860e+02	6.1347	4.245935	0.000192	1.924707	0.326054	-0.000019
1395	1.3870e+02	6.1234	4.225975	0.000201	2.006609	0.339929	-0.000020
1396	1.3880e+02	6.1140	4.206423	0.000197	1.965658	0.332991	-0.000020
1397	1.3890e+02	6.1060	4.184426	0.000221	2.211365	0.374615	-0.000022
1398	1.3900e+02	6.0958	4.164874	0.000197	1.965658	0.332991	-0.000020
1399	1.3910e+02	6.0882	4.144507	0.000205	2.047560	0.346866	-0.000020
1400	1.3920e+02	6.0744	4.121288	0.000233	2.334219	0.395427	-0.000023
1401	1.3930e+02	6.0647	4.103365	0.000180	1.801853	0.305242	-0.000018
1402	1.3940e+02	6.0560	4.080961	0.000225	2.252316	0.381553	-0.000023
1403	1.3950e+02	6.0452	4.057743	0.000233	2.334219	0.395427	-0.000023
1404	1.3960e+02	6.0377	4.040227	0.000176	1.760902	0.298305	-0.000018
1405	1.3970e+02	6.0234	4.020267	0.000201	2.006609	0.339929	-0.000020
1406	1.3980e+02	6.0156	4.000308	0.000201	2.006609	0.339929	-0.000020
1407	1.3990e+02	6.0084	3.980755	0.000197	1.965658	0.332991	-0.000020
1408	1.4000e+02	5.9959	3.964054	0.000168	1.678999	0.284430	-0.000017
1409	1.4010e+02	5.9892	3.942872	0.000213	2.129463	0.360741	-0.000021
1410	1.4020e+02	5.9745	3.928208	0.000147	1.474243	0.249744	-0.000015
1411	1.4029e+02	5.9658	3.905397	0.000229	2.293267	0.388490	-0.000023
1412	1.4039e+02	5.9537	3.889918	0.000156	1.556146	0.263618	-0.000016
1413	1.4049e+02	5.9444	3.872402	0.000176	1.760902	0.298305	-0.000018
1414	1.4059e+02	5.9356	3.851627	0.000209	2.088511	0.353803	-0.000021
1415	1.4069e+02	5.9269	3.832075	0.000197	1.965658	0.332991	-0.000020
1416	1.4079e+02	5.9144	3.814152	0.000180	1.801853	0.305242	-0.000018
1417	1.4089e+02	5.9075	3.792155	0.000221	2.211365	0.374615	-0.000022
1418	1.4099e+02	5.8947	3.772196	0.000201	2.006609	0.339929	-0.000020
1419	1.4109e+02	5.8868	3.756309	0.000160	1.597097	0.270556	-0.000016
1420	1.4119e+02	5.8761	3.737164	0.000192	1.924707	0.326054	-0.000019
1421	1.4129e+02	5.8649	3.718019	0.000192	1.924707	0.326054	-0.000019
1422	1.4139e+02	5.8549	3.701318	0.000168	1.678999	0.284430	-0.000017
1423	1.4149e+02	5.8456	3.683802	0.000176	1.760902	0.298305	-0.000018
1424	1.4159e+02	5.8358	3.663435	0.000205	2.047560	0.346866	-0.000020
1425	1.4169e+02	5.8266	3.650400	0.000131	1.310439	0.221994	-0.000013
1426	1.4179e+02	5.8154	3.627996	0.000225	2.252316	0.381553	-0.000023
1427	1.4189e+02	5.8062	3.608037	0.000201	2.006609	0.339929	-0.000020
1428	1.4199e+02	5.7973	3.590521	0.000176	1.760902	0.298305	-0.000018
1429	1.4209e+02	5.7870	3.568932	0.000217	2.170414	0.367678	-0.000022
1430	1.4219e+02	5.7772	3.552638	0.000164	1.638048	0.277493	-0.000016
1431	1.4228e+02	5.7697	3.533086	0.000197	1.965658	0.332991	-0.000020
1432	1.4238e+02	5.7558	3.515570	0.000176	1.760902	0.298305	-0.000018
1433	1.4248e+02	5.7478	3.497647	0.000180	1.801853	0.305242	-0.000018
1434	1.4258e+02	5.7352	3.477687	0.000201	2.006609	0.339929	-0.000020
1435	1.4268e+02	5.7278	3.458135	0.000197	1.965658	0.332991	-0.000020
1436	1.4278e+02	5.7174	3.441841	0.000164	1.638048	0.277493	-0.000016
1437	1.4288e+02	5.7055	3.424325	0.000176	1.760902	0.298305	-0.000018
1438	1.4298e+02	5.6976	3.408031	0.000164	1.638048	0.277493	-0.000016
1439	1.4308e+02	5.6866	3.390516	0.000176	1.760902	0.298305	-0.000018
1440	1.4318e+02	5.6783	3.376666	0.000139	1.392341	0.235869	-0.000014
1441	1.4328e+02	5.6689	3.359150	0.000176	1.760902	0.298305	-0.000018
1442	1.4338e+02	5.6570	3.344893	0.000143	1.433292	0.242806	-0.000014
1443	1.4348e+02	5.6481	3.326563	0.000184	1.842804	0.312179	-0.000018
1444	1.4358e+02	5.6353	3.310269	0.000164	1.638048	0.277493	-0.000016
1445	1.4368e+02	5.6292	3.294790	0.000156	1.556146	0.263618	-0.000016
1446	1.4378e+02	5.6181	3.275645	0.000192	1.924707	0.326054	-0.000019
1447	1.4388e+02	5.6046	3.259351	0.000164	1.638048	0.277493	-0.000016
1448	1.4398e+02	5.5956	3.243058	0.000164	1.638048	0.277493	-0.000016
1449	1.4408e+02	5.5865	3.223913	0.000192	1.924707	0.326054	-0.000019
1450	1.4418e+02	5.5804	3.209656	0.000143	1.433292	0.242806	-0.000014
1451	1.4428e+02	5.5694	3.193769	0.000160	1.597097	0.270556	-0.000016
1452	1.4437e+02	5.5578	3.174624	0.000192	1.924707	0.326054	-0.000019
1453	1.4447e+02	5.5468	3.157108	0.000176	1.760902	0.298305	-0.000018
1454	1.4457e+02	5.5396	3.142444	0.000147	1.474243	0.249744	-0.000015
1455	1.4467e+02	5.5280	3.125743	0.000168	1.678999	0.284430	-0.000017
1456	1.4477e+02	5.5187	3.109449	0.000164	1.638048	0.277493	-0.000016
1457	1.4487e+02	5.5096	3.091119	0.000184	1.842804	0.312179	-0.000018
1458	1.4497e+02	5.4971	3.069937	0.000213	2.129463	0.360741	-0.000021
1459	1.4507e+02	5.4884	3.054051	0.000160	1.597097	0.270556	-0.000016
1460	1.4517e+02	5.4790	3.034091	0.000201	2.006609	0.339929	-0.000020
1461	1.4527e+02	5.4675	3.016983	0.000172	1.719951	0.291368	-0.000017
1462	1.4537e+02	5.4568	2.997838	0.000192	1.924707	0.326054	-0.000019
1463	1.4547e+02	5.4493	2.982358	0.000156	1.556146	0.263618	-0.000016
1464	1.4557e+02	5.4377	2.956289	0.000262	2.620877	0.443989	-0.000026
1465	1.4567e+02	5.4287	2.942439	0.000139	1.392341	0.235869	-0.000014
1466	1.4577e+02	5.4165	2.922072	0.000205	2.047560	0.346866	-0.000020
1467	1.4587e+02	5.4061	2.902112	0.000201	2.006609	0.339929	-0.000020
1468	1.4597e+02	5.3997	2.886633	0.000156	1.556146	0.263618	-0.000016
1469	1.4607e+02	5.3863	2.867081	0.000197	1.965658	0.332991	-0.000020
1470	1.4617e+02	5.3796	2.848343	0.000188	1.883755	0.319117	-0.000019
1471	1.4626e+02	5.3683	2.830012	0.000184	1.842804	0.312179	-0.000018
1472	1.4636e+02	5.3581	2.809645	0.000205	2.047560	0.346866	-0.000020
1473	1.4646e+02	5.3490	2.796203	0.000135	1.351390	0.228932	-0.000014
1474	1.4656e+02	5.3376	2.776651	0.000197	1.965658	0.332991	-0.000020
1475	1.4666e+02	5.3273	2.756283	0.000205	2.047560	0.346866	-0.000020
1476	1.4676e+02	5.3201	2.739990	0.000164	1.638048	0.277493	-0.000016
1477	1.4686e+02	5.3091	2.722881	0.000172	1.719951	0.291368	-0.000017
1478	1.4696e+02	5.3019	2.706995	0.000160	1.597097	0.270556	-0.000016
1479	1.4706e+02	5.2886	2.686628	0.000205	2.047560	0.346866	-0.000020
1480	1.4716e+02	5.2813	2.665853	0.000209	2.088511	0.353803	-0.000021
1481	1.4726e+02	5.2686	2.646708	0.000192	1.924707	0.326054	-0.000019
1482	1.4736e+02	5.2593	2.631229	0.000156	1.556146	0.263618	-0.000016
1483	1.4746e+02	5.2493	2.614121	0.000172	1.719951	0.291368	-0.000017
1484	1.4756e+02	5.2390	2.593346	0.000209	2.088511	0.353803	-0.000021
1485	1.4766e+02	5.2300	2.580311	0.000131	1.310439	0.221994	-0.000013
1486	1.4776e+02	5.2193	2.564425	0.000160	1.597097	0.270556	-0.000016
1487	1.4786e+02	5.2093	2.543651	0.000209	2.088511	0.353803	-0.000021
1488	1.4796e+02	5.1992	2.524913	0.000188	1.883755	0.319117	-0.000019
1489	1.4806e+02	5.1893	2.507397	0.000176	1.760902	0.298305	-0.000018
1490	1.4816e+02	5.1794	2.484993	0.000225	2.252316	0.381553	-0.000023
1491	1.4825e+02	5.1727	2.469107	0.000160	1.597097	0.270556	-0.000016
1492	1.4835e+02	5.1597	2.444259	0.000250	2.498023	0.423177	-0.000025
1493	1.4845e+02	5.1482	2.427558	0.000168	1.678999	0.284430	-0.000017
1494	1.4855e+02	5.1385	2.408005	0.000197	1.965658	0.332991	-0.000020
1495	1.4865e+02	5.1284	2.387231	0.000209	2.088511	0.353803	-0.000021
1496	1.4875e+02	5.1210	2.369308	0.000180	1.801853	0.305242	-0.000018
1497	1.4885e+02	5.1112	2.348126	0.000213	2.129463	0.360741	-0.000021
1498	1.4895e+02	5.0996	2.328981	0.000192	1.924707	0.326054	-0.000019
1499	1.4905e+02	5.0897	2.309429	0.000197	1.965658	0.332991	-0.000020
1500	1.4915e+02	5.0811	2.289061	0.000205	2.047560	0.346866	-0.000020
1501	1.4925e+02	5.0706	2.267472	0.000217	2.170414	0.367678	-0.000022
1502	1.4935e+02	5.0583	2.245068	0.000225	2.252316	0.381553	-0.000023
1503	1.4945e+02	5.0505	2.227145	0.000180	1.801853	0.305242	-0.000018
1504	1.4955e+02	5.0379	2.207593	0.000197	1.965658	0.332991	-0.000020
1505	1.4965e+02	5.0301	2.187633	0.000201	2.006609	0.339929	-0.000020
1506	1.4975e+02	5.0182	2.165637	0.000221	2.211365	0.374615	-0.000022
1507	1.4985e+02	5.0088	2.144862	0.000209	2.088511	0.353803	-0.000021
1508	1.4995e+02	4.9998	2.124088	0.000209	2.088511	0.353803	-0.000021
1509	1.5005e+02	4.9928	2.100055	0.000242	2.416121	0.409302	-0.000024
1510	1.5015e+02	4.9809	2.081724	0.000184	1.842804	0.312179	-0.000018
1511	1.5025e+02	4.9719	2.060135	0.000217	2.170414	0.367678	-0.000022
1512	1.5034e+02	4.9614	2.039360	0.000209	2.088511	0.353803	-0.000021
1513	1.5044e+02	4.9514	2.020623	0.000188	1.883755	0.319117	-0.000019
1514	1.5054e+02	4.9414	1.996590	0.000242	2.416121	0.409302	-0.000024
1515	1.5064e+02	4.9274	1.979888	0.000168	1.678999	0.284430	-0.000017
1516	1.5074e+02	4.9182	1.958707	0.000213	2.129463	0.360741	-0.000021
1517	1.5084e+02	4.9096	1.936710	0.000221	2.211365	0.374615	-0.000022
1518	1.5094e+02	4.9035	1.916750	0.000201	2.006609	0.339929	-0.000020
1519	1.5104e+02	4.8890	1.892717	0.000242	2.416121	0.409302	-0.000024
1520	1.5114e+02	4.8829	1.872757	0.000201	2.006609	0.339929	-0.000020
1521	1.5124e+02	4.8695	1.851576	0.000213	2.129463	0.360741	-0.000021
1522	1.5134e+02	4.8607	1.830801	0.000209	2.088511	0.353803	-0.000021
1523	1.5144e+02	4.8520	1.804324	0.000266	2.661828	0.450926	-0.000027
1524	1.5154e+02	4.8397	1.780698	0.000238	2.375170	0.402365	-0.000024
1525	1.5164e+02	4.8318	1.757887	0.000229	2.293267	0.388490	-0.000023
1526	1.5174e+02	4.8236	1.736705	0.000213	2.129463	0.360741	-0.000021
1527	1.5184e+02	4.8125	1.716745	0.000201	2.006609	0.339929	-0.000020
1528	1.5194e+02	4.8042	1.688639	0.000283	2.825633	0.478675	-0.000028
1529	1.5204e+02	4.7931	1.666235	0.000225	2.252316	0.381553	-0.000023
1530	1.5214e+02	4.7797	1.646682	0.000197	1.965658	0.332991	-0.000020
1531	1.5224e+02	4.7732	1.625500	0.000213	2.129463	0.360741	-0.000021
1532	1.5233e+02	4.7620	1.602282	0.000233	2.334219	0.395427	-0.000023
1533	1.5243e+02	4.7511	1.581507	0.000209	2.088511	0.353803	-0.000021
1534	1.5253e+02	4.7421	1.555845	0.000258	2.579926	0.437051	-0.000026
1535	1.5263e+02	4.7308	1.532219	0.000238	2.375170	0.402365	-0.000024
1536	1.5273e+02	4.7228	1.511445	0.000209	2.088511	0.353803	-0.000021
1537	1.5283e+02	4.7124	1.488226	0.000233	2.334219	0.395427	-0.000023
1538	1.5293e+02	4.7047	1.465822	0.000225	2.252316	0.381553	-0.000023
1539	1.5303e+02	4.6924	1.441789	0.000242	2.416121	0.409302	-0.000024
1540	1.5313e+02	4.6799	1.420200	0.000217	2.170414	0.367678	-0.000022
1541	1.5323e+02	4.6735	1.401055	0.000192	1.924707	0.326054	-0.000019
1542	1.5333e+02	4.6607	1.379058	0.000221	2.211365	0.374615	-0.000022
1543	1.5343e+02	4.6527	1.356247	0.000229	2.293267	0.388490	-0.000023
1544	1.5353e+02	4.6407	1.336695	0.000197	1.965658	0.332991	-0.000020
1545	1.5363e+02	4.6339	1.312661	0.000242	2.416121	0.409302	-0.000024
1546	1.5373e+02	4.6222	1.293516	0.000192	1.924707	0.326054	-0.000019
1547	1.5383e+02	4.6124	1.270705	0.000229	2.293267	0.388490	-0.000023
1548	1.5393e+02	4.6017	1.254411	0.000164	1.638048	0.277493	-0.000016
1549	1.5403e+02	4.5932	1.231600	0.000229	2.293267	0.388490	-0.000023
1550	1.5413e+02	4.5809	1.211640	0.000201	2.006609	0.339929	-0.000020
1551	1.5422e+02	4.5705	1.188829	0.000229	2.293267	0.388490	-0.000023
1552	1.5432e+02	4.5625	1.167240	0.000217	2.170414	0.367678	-0.000022
1553	1.5442e+02	4.5518	1.149724	0.000176	1.760902	0.298305	-0.000018
1554	1.5452e+02	4.5446	1.127321	0.000225	2.252316	0.381553	-0.000023
1555	1.5462e+02	4.5319	1.103287	0.000242	2.416121	0.409302	-0.000024
1556	1.5472e+02	4.5206	1.079661	0.000238	2.375170	0.402365	-0.000024
1557	1.5482e+02	4.5146	1.057258	0.000225	2.252316	0.381553	-0.000023
1558	1.5492e+02	4.5016	1.035261	0.000221	2.211365	0.374615	-0.000022
1559	1.5502e+02	4.4941	1.015301	0.000201	2.006609	0.339929	-0.000020
1560	1.5512e+02	4.4796	0.990861	0.000246	2.457072	0.416239	-0.000025
1561	1.5522e+02	4.4717	0.968050	0.000229	2.293267	0.388490	-0.000023
1562	1.5532e+02	4.4636	0.945646	0.000225	2.252316	0.381553	-0.000023
1563	1.5542e+02	4.4544	0.924871	0.000209	2.088511	0.353803	-0.000021
1564	1.5552e+02	4.4422	0.901245	0.000238	2.375170	0.402365	-0.000024
1565	1.5562e+02	4.4333	0.881286	0.000201	2.006609	0.339929	-0.000020
1566	1.5572e+02	4.4239	0.859696	0.000217	2.170414	0.367678	-0.000022
1567	1.5582e+02	4.4132	0.836071	0.000238	2.375170	0.402365	-0.000024
1568	1.5592e+02	4.4073	0.812037	0.000242	2.416121	0.409302	-0.000024
1569	1.5602e+02	4.3935	0.791670	0.000205	2.047560	0.346866	-0.000020
1570	1.5612e+02	4.3836	0.767230	0.000246	2.457072	0.416239	-0.000025
1571	1.5622e+02	4.3719	0.748085	0.000192	1.924707	0.326054	-0.000019
1572	1.5631e+02	4.3613	0.725273	0.000229	2.293267	0.388490	-0.000023
1573	1.5641e+02	4.3555	0.700018	0.000254	2.538975	0.430114	-0.000025
1574	1.5651e+02	4.3427	0.678429	0.000217	2.170414	0.367678	-0.000022
1575	1.5661e+02	4.3341	0.662543	0.000160	1.597097	0.270556	-0.000016
1576	1.5671e+02	4.3244	0.638917	0.000238	2.375170	0.402365	-0.000024
1577	1.5681e+02	4.3118	0.621401	0.000176	1.760902	0.298305	-0.000018
1578	1.5691e+02	4.3050	0.601034	0.000205	2.047560	0.346866	-0.000020
1579	1.5701e+02	4.2948	0.581074	0.000201	2.006609	0.339929	-0.000020
1580	1.5711e+02	4.2849	0.558263	0.000229	2.293267	0.388490	-0.000023
1581	1.5721e+02	4.2731	0.538303	0.000201	2.006609	0.339929	-0.000020
1582	1.5731e+02	4.2641	0.518343	0.000201	2.006609	0.339929	-0.000020
1583	1.5741e+02	4.2522	0.494718	0.000238	2.375170	0.402365	-0.000024
1584	1.5751e+02	4.2457	0.480053	0.000147	1.474243	0.249744	-0.000015
1585	1.5761e+02	4.2316	0.456835	0.000233	2.334219	0.395427	-0.000023
1586	1.5771e+02	4.2264	0.436468	0.000205	2.047560	0.346866	-0.000020
1587	1.5781e+02	4.2147	0.418544	0.000180	1.801853	0.305242	-0.000018
1588	1.5791e+02	4.2033	0.396955	0.000217	2.170414	0.367678	-0.000022
1589	1.5801e+02	4.1940	0.375366	0.000217	2.170414	0.367678	-0.000022
1590	1.5811e+02	4.1875	0.358665	0.000168	1.678999	0.284430	-0.000017
1591	1.5821e+02	4.1745	0.337483	0.000213	2.129463	0.360741	-0.000021
1592	1.5830e+02	4.1662	0.315894	0.000217	2.170414	0.367678	-0.000022
1593	1.5840e+02	4.1518	0.297971	0.000180	1.801853	0.305242	-0.000018
1594	1.5850e+02	4.1444	0.275975	0.000221	2.211365	0.374615	-0.000022
1595	1.5860e+02	4.1360	0.258459	0.000176	1.760902	0.298305	-0.000018
1596	1.5870e+02	4.1249	0.234833	0.000238	2.375170	0.402365	-0.000024
1597	1.5880e+02	4.1157	0.215688	0.000192	1.924707	0.326054	-0.000019
1598	1.5890e+02	4.1048	0.197765	0.000180	1.801853	0.305242	-0.000018
1599	1.5900e+02	4.0935	0.177398	0.000205	2.047560	0.346866	-0.000020
1600	1.5910e+02	4.0888	0.155401	0.000221	2.211365	0.374615	-0.000022
1601	1.5920e+02	4.0754	0.135849	0.000197	1.965658	0.332991	-0.000020
1602	1.5930e+02	4.0633	0.114260	0.000217	2.170414	0.367678	-0.000022
1603	1.5940e+02	4.0562	0.097151	0.000172	1.719951	0.291368	-0.000017
1604	1.5950e+02	4.0411	0.075969	0.000213	2.129463	0.360741	-0.000021
1605	1.5960e+02	4.0394	0.056824	0.000192	1.924707	0.326054	-0.000019
1606	1.5970e+02	4.0258	0.041753	0.000152	1.515195	0.256681	-0.000015
1607	1.5980e+02	4.0139	0.021793	0.000201	2.006609	0.339929	-0.000020
1608	1.5990e+02	4.0050	0.005906	0.000160	1.597097	0.270556	-0.000016
1609	1.6000e+02	3.9929	-0.014053	0.000201	2.006609	0.339929	-0.000020
1610	1.6010e+02	3.9849	-0.031569	0.000176	1.760902	0.298305	-0.000018
1611	1.6019e+02	3.9763	-0.047048	0.000156	1.556146	0.263618	-0.000016
1612	1.6029e+02	3.9674	-0.069452	0.000225	2.252316	0.381553	-0.000023
1613	1.6039e+02	3.9578	-0.086153	0.000168	1.678999	0.284430	-0.000017
1614	1.6049e+02	3.9474	-0.105705	0.000197	1.965658	0.332991	-0.000020
1615	1.6059e+02	3.9352	-0.124443	0.000188	1.883755	0.319117	-0.000019
1616	1.6069e+02	3.9253	-0.141144	0.000168	1.678999	0.284430	-0.000017
1617	1.6079e+02	3.9132	-0.157438	0.000164	1.638048	0.277493	-0.000016
1618	1.6089e+02	3.9065	-0.180656	0.000233	2.334219	0.395427	-0.000023
1619	1.6099e+02	3.8956	-0.197765	0.000172	1.719951	0.291368	-0.000017
1620	1.6109e+02	3.8873	-0.214059	0.000164	1.638048	0.277493	-0.000016
1621	1.6119e+02	3.8743	-0.236870	0.000229	2.293267	0.388490	-0.000023
1622	1.6129e+02	3.8647	-0.255607	0.000188	1.883755	0.319117	-0.000019
1623	1.6139e+02	3.8567	-0.275160	0.000197	1.965658	0.332991	-0.000020
1624	1.6149e+02	3.8445	-0.291861	0.000168	1.678999	0.284430	-0.000017
1625	1.6159e+02	3.8358	-0.309784	0.000180	1.801853	0.305242	-0.000018
1626	1.6169e+02	3.8257	-0.331373	0.000217	2.170414	0.367678	-0.000022
1627	1.6179e+02	3.8154	-0.349704	0.000184	1.842804	0.312179	-0.000018
1628	1.6189e+02	3.8057	-0.371293	0.000217	2.170414	0.367678	-0.000022
1629	1.6199e+02	3.7966	-0.392067	0.000209	2.088511	0.353803	-0.000021
1630	1.6209e+02	3.7846	-0.409176	0.000172	1.719951	0.291368	-0.000017
1631	1.6219e+02	3.7776	-0.433209	0.000242	2.416121	0.409302	-0.000024
1632	1.6228e+02	3.7654	-0.451947	0.000188	1.883755	0.319117	-0.000019
1633	1.6238e+02	3.7598	-0.468240	0.000164	1.638048	0.277493	-0.000016
1634	1.6248e+02	3.7495	-0.493088	0.000250	2.498023	0.423177	-0.000025
1635	1.6258e+02	3.7378	-0.513863	0.000209	2.088511	0.353803	-0.000021
1636	1.6268e+02	3.7270	-0.536266	0.000225	2.252316	0.381553	-0.000023
1637	1.6278e+02	3.7179	-0.555412	0.000192	1.924707	0.326054	-0.000019
1638	1.6288e+02	3.7086	-0.578223	0.000229	2.293267	0.388490	-0.000023
1639	1.6298e+02	3.6987	-0.592480	0.000143	1.433292	0.242806	-0.000014
1640	1.6308e+02	3.6842	-0.615291	0.000229	2.293267	0.388490	-0.000023
1641	1.6318e+02	3.6779	-0.629141	0.000139	1.392341	0.235869	-0.000014
1642	1.6328e+02	3.6615	-0.651952	0.000229	2.293267	0.388490	-0.000023
1643	1.6338e+02	3.6572	-0.669875	0.000180	1.801853	0.305242	-0.000018
1644	1.6348e+02	3.6472	-0.688613	0.000188	1.883755	0.319117	-0.000019
1645	1.6358e+02	3.6362	-0.711424	0.000229	2.293267	0.388490	-0.000023
1646	1.6368e+02	3.6254	-0.730569	0.000192	1.924707	0.326054	-0.000019
1647	1.6378e+02	3.6175	-0.752565	0.000221	2.211365	0.374615	-0.000022
1648	1.6388e+02	3.6082	-0.770488	0.000180	1.801853	0.305242	-0.000018
1649	1.6398e+02	3.5973	-0.789226	0.000188	1.883755	0.319117	-0.000019
1650	1.6408e+02	3.5883	-0.811223	0.000221	2.211365	0.374615	-0.000022
1651	1.6418e+02	3.5756	-0.829553	0.000184	1.842804	0.312179	-0.000018
1652	1.6427e+02	3.5679	-0.847069	0.000176	1.760902	0.298305	-0.000018
1653	1.6437e+02	3.5580	-0.868251	0.000213	2.129463	0.360741	-0.000021
1654	1.6447e+02	3.5471	-0.886988	0.000188	1.883755	0.319117	-0.000019
1655	1.6457e+02	3.5377	-0.908170	0.000213	2.129463	0.360741	-0.000021
1656	1.6467e+02	3.5276	-0.929352	0.000213	2.129463	0.360741	-0.000021
1657	1.6477e+02	3.5172	-0.946460	0.000172	1.719951	0.291368	-0.000017
1658	1.6487e+02	3.5077	-0.970494	0.000242	2.416121	0.409302	-0.000024
1659	1.6497e+02	3.4955	-0.989639	0.000192	1.924707	0.326054	-0.000019
1660	1.6507e+02	3.4894	-1.009599	0.000201	2.006609	0.339929	-0.000020
1661	1.6517e+02	3.4795	-1.029558	0.000201	2.006609	0.339929	-0.000020
1662	1.6527e+02	3.4693	-1.052777	0.000233	2.334219	0.395427	-0.000023
1663	1.6537e+02	3.4595	-1.074773	0.000221	2.211365	0.374615	-0.000022
1664	1.6547e+02	3.4459	-1.100029	0.000254	2.538975	0.430114	-0.000025
1665	1.6557e+02	3.4364	-1.120396	0.000205	2.047560	0.346866	-0.000020
1666	1.6567e+02	3.4301	-1.141170	0.000209	2.088511	0.353803	-0.000021
1667	1.6577e+02	3.4190	-1.162352	0.000213	2.129463	0.360741	-0.000021
1668	1.6587e+02	3.4108	-1.184756	0.000225	2.252316	0.381553	-0.000023
1669	1.6597e+02	3.3990	-1.208789	0.000242	2.416121	0.409302	-0.000024
1670	1.6607e+02	3.3884	-1.229971	0.000213	2.129463	0.360741	-0.000021
1671	1.6616e+02	3.3785	-1.246672	0.000168	1.678999	0.284430	-0.000017
1672	1.6626e+02	3.3680	-1.272334	0.000258	2.579926	0.437051	-0.000026
1673	1.6636e+02	3.3575	-1.292702	0.000205	2.047560	0.346866	-0.000020
1674	1.6646e+02	3.3483	-1.317549	0.000250	2.498023	0.423177	-0.000025
1675	1.6656e+02	3.3385	-1.341175	0.000238	2.375170	0.402365	-0.000024
1676	1.6666e+02	3.3292	-1.362357	0.000213	2.129463	0.360741	-0.000021
1677	1.6676e+02	3.3208	-1.385983	0.000238	2.375170	0.402365	-0.000024
1678	1.6686e+02	3.3086	-1.403091	0.000172	1.719951	0.291368	-0.000017
1679	1.6696e+02	3.2992	-1.428754	0.000258	2.579926	0.437051	-0.000026
1680	1.6706e+02	3.2883	-1.451973	0.000233	2.334219	0.395427	-0.000023
1681	1.6716e+02	3.2790	-1.472747	0.000209	2.088511	0.353803	-0.000021
1682	1.6726e+02	3.2713	-1.492299	0.000197	1.965658	0.332991	-0.000020
1683	1.6736e+02	3.2607	-1.519591	0.000274	2.743731	0.464801	-0.000027
1684	1.6746e+02	3.2491	-1.544847	0.000254	2.538975	0.430114	-0.000025
1685	1.6756e+02	3.2389	-1.565621	0.000209	2.088511	0.353803	-0.000021
1686	1.6766e+02	3.2272	-1.587210	0.000217	2.170414	0.367678	-0.000022
1687	1.6776e+02	3.2195	-1.609614	0.000225	2.252316	0.381553	-0.000023
1688	1.6786e+02	3.2092	-1.630796	0.000213	2.129463	0.360741	-0.000021
1689	1.6796e+02	3.1985	-1.655644	0.000250	2.498023	0.423177	-0.000025
1690	1.6806e+02	3.1906	-1.682528	0.000270	2.702780	0.457863	-0.000027
1691	1.6816e+02	3.1807	-1.706154	0.000238	2.375170	0.402365	-0.000024
1692	1.6825e+02	3.1701	-1.732224	0.000262	2.620877	0.443989	-0.000026
1693	1.6835e+02	3.1583	-1.757072	0.000250	2.498023	0.423177	-0.000025
1694	1.6845e+02	3.1479	-1.781105	0.000242	2.416121	0.409302	-0.000024
1695	1.6855e+02	3.1405	-1.807175	0.000262	2.620877	0.443989	-0.000026
1696	1.6865e+02	3.1309	-1.829172	0.000221	2.211365	0.374615	-0.000022
1697	1.6875e+02	3.1217	-1.852390	0.000233	2.334219	0.395427	-0.000023
1698	1.6885e+02	3.1083	-1.873572	0.000213	2.129463	0.360741	-0.000021
1699	1.6895e+02	3.0994	-1.900049	0.000266	2.661828	0.450926	-0.000027
1700	1.6905e+02	3.0917	-1.926119	0.000262	2.620877	0.443989	-0.000026
1701	1.6915e+02	3.0801	-1.950560	0.000246	2.457072	0.416239	-0.000025
1702	1.6925e+02	3.0679	-1.975000	0.000246	2.457072	0.416239	-0.000025
1703	1.6935e+02	3.0602	-2.001885	0.000270	2.702780	0.457863	-0.000027
1704	1.6945e+02	3.0529	-2.023067	0.000213	2.129463	0.360741	-0.000021
1705	1.6955e+02	3.0377	-2.049544	0.000266	2.661828	0.450926	-0.000027
1706	1.6965e+02	3.0328	-2.074392	0.000250	2.498023	0.423177	-0.000025
1707	1.6975e+02	3.0208	-2.095981	0.000217	2.170414	0.367678	-0.000022
1708	1.6985e+02	3.0116	-2.116756	0.000209	2.088511	0.353803	-0.000021
1709	1.6995e+02	3.0009	-2.139974	0.000233	2.334219	0.395427	-0.000023
1710	1.7005e+02	2.9896	-2.164822	0.000250	2.498023	0.423177	-0.000025
1711	1.7015e+02	2.9800	-2.190485	0.000258	2.579926	0.437051	-0.000026
1712	1.7024e+02	2.9728	-2.212888	0.000225	2.252316	0.381553	-0.000023
1713	1.7034e+02	2.9623	-2.234885	0.000221	2.211365	0.374615	-0.000022
1714	1.7044e+02	2.9498	-2.258511	0.000238	2.375170	0.402365	-0.000024
1715	1.7054e+02	2.9406	-2.276434	0.000180	1.801853	0.305242	-0.000018
1716	1.7064e+02	2.9320	-2.300874	0.000246	2.457072	0.416239	-0.000025
1717	1.7074e+02	2.9210	-2.324500	0.000238	2.375170	0.402365	-0.000024
1718	1.7084e+02	2.9123	-2.344867	0.000205	2.047560	0.346866	-0.000020
1719	1.7094e+02	2.9013	-2.368086	0.000233	2.334219	0.395427	-0.000023
1720	1.7104e+02	2.8912	-2.390490	0.000225	2.252316	0.381553	-0.000023
1721	1.7114e+02	2.8797	-2.410857	0.000205	2.047560	0.346866	-0.000020
1722	1.7124e+02	2.8722	-2.438556	0.000278	2.784682	0.471738	-0.000028
1723	1.7134e+02	2.8619	-2.460145	0.000217	2.170414	0.367678	-0.000022
1724	1.7144e+02	2.8507	-2.485401	0.000254	2.538975	0.430114	-0.000025
1725	1.7154e+02	2.8437	-2.509026	0.000238	2.375170	0.402365	-0.000024
1726	1.7164e+02	2.8297	-2.532652	0.000238	2.375170	0.402365	-0.000024
1727	1.7174e+02	2.8202	-2.560352	0.000278	2.784682	0.471738	-0.000028
1728	1.7184e+02	2.8128	-2.586422	0.000262	2.620877	0.443989	-0.000026
1729	1.7194e+02	2.8032	-2.610047	0.000238	2.375170	0.402365	-0.000024
1730	1.7204e+02	2.7917	-2.633266	0.000233	2.334219	0.395427	-0.000023
1731	1.7213e+02	2.7819	-2.650782	0.000176	1.760902	0.298305	-0.000018
1732	1.7223e+02	2.7680	-2.674408	0.000238	2.375170	0.402365	-0.000024
1733	1.7233e+02	2.7615	-2.699663	0.000254	2.538975	0.430114	-0.000025
1734	1.7243e+02	2.7528	-2.724103	0.000246	2.457072	0.416239	-0.000025
1735	1.7253e+02	2.7401	-2.749359	0.000254	2.538975	0.430114	-0.000025
1736	1.7263e+02	2.7335	-2.776651	0.000274	2.743731	0.464801	-0.000027
1737	1.7273e+02	2.7235	-2.798647	0.000221	2.211365	0.374615	-0.000022
1738	1.7283e+02	2.7129	-2.822680	0.000242	2.416121	0.409302	-0.000024
1739	1.7293e+02	2.7039	-2.848343	0.000258	2.579926	0.437051	-0.000026
1740	1.7303e+02	2.6922	-2.869525	0.000213	2.129463	0.360741	-0.000021
1741	1.7313e+02	2.6821	-2.891521	0.000221	2.211365	0.374615	-0.000022
1742	1.7323e+02	2.6724	-2.916776	0.000254	2.538975	0.430114	-0.000025
1743	1.7333e+02	2.6601	-2.940810	0.000242	2.416121	0.409302	-0.000024
1744	1.7343e+02	2.6501	-2.960362	0.000197	1.965658	0.332991	-0.000020
1745	1.7353e+02	2.6452	-2.980729	0.000205	2.047560	0.346866	-0.000020
1746	1.7363e+02	2.6338	-3.002318	0.000217	2.170414	0.367678	-0.000022
1747	1.7373e+02	2.6218	-3.027981	0.000258	2.579926	0.437051	-0.000026
1748	1.7383e+02	2.6124	-3.048755	0.000209	2.088511	0.353803	-0.000021
1749	1.7393e+02	2.6031	-3.069530	0.000209	2.088511	0.353803	-0.000021
1750	1.7403e+02	2.5929	-3.091934	0.000225	2.252316	0.381553	-0.000023
1751	1.7413e+02	2.5828	-3.113523	0.000217	2.170414	0.367678	-0.000022
1752	1.7422e+02	2.5716	-3.137963	0.000246	2.457072	0.416239	-0.000025
1753	1.7432e+02	2.5620	-3.157108	0.000192	1.924707	0.326054	-0.000019
1754	1.7442e+02	2.5517	-3.176661	0.000197	1.965658	0.332991	-0.000020
1755	1.7452e+02	2.5427	-3.201101	0.000246	2.457072	0.416239	-0.000025
1756	1.7462e+02	2.5323	-3.221469	0.000205	2.047560	0.346866	-0.000020
1757	1.7472e+02	2.5251	-3.241428	0.000201	2.006609	0.339929	-0.000020
1758	1.7482e+02	2.5146	-3.264240	0.000229	2.293267	0.388490	-0.000023
1759	1.7492e+02	2.5069	-3.284607	0.000205	2.047560	0.346866	-0.000020
1760	1.7502e+02	2.4906	-3.307011	0.000225	2.252316	0.381553	-0.000023
1761	1.7512e+02	2.4842	-3.328192	0.000213	2.129463	0.360741	-0.000021
1762	1.7522e+02	2.4749	-3.351003	0.000229	2.293267	0.388490	-0.000023
1763	1.7532e+02	2.4633	-3.377888	0.000270	2.702780	0.457863	-0.000027
1764	1.7542e+02	2.4514	-3.398255	0.000205	2.047560	0.346866	-0.000020
1765	1.7552e+02	2.4468	-3.420659	0.000225	2.252316	0.381553	-0.000023
1766	1.7562e+02	2.4316	-3.437360	0.000168	1.678999	0.284430	-0.000017
1767	1.7572e+02	2.4246	-3.459764	0.000225	2.252316	0.381553	-0.000023
1768	1.7582e+02	2.4129	-3.483390	0.000238	2.375170	0.402365	-0.000024
1769	1.7592e+02	2.4023	-3.505386	0.000221	2.211365	0.374615	-0.000022
1770	1.7602e+02	2.3943	-3.528198	0.000229	2.293267	0.388490	-0.000023
1771	1.7612e+02	2.3849	-3.547750	0.000197	1.965658	0.332991	-0.000020
1772	1.7621e+02	2.3771	-3.566895	0.000192	1.924707	0.326054	-0.000019
1773	1.7631e+02	2.3635	-3.586855	0.000201	2.006609	0.339929	-0.000020
1774	1.7641e+02	2.3541	-3.605185	0.000184	1.842804	0.312179	-0.000018
1775	1.7651e+02	2.3431	-3.629218	0.000242	2.416121	0.409302	-0.000024
1776	1.7661e+02	2.3335	-3.650400	0.000213	2.129463	0.360741	-0.000021
1777	1.7671e+02	2.3244	-3.670360	0.000201	2.006609	0.339929	-0.000020
1778	1.7681e+02	2.3135	-3.685839	0.000156	1.556146	0.263618	-0.000016
1779	1.7691e+02	2.3052	-3.705392	0.000197	1.965658	0.332991	-0.000020
1780	1.7701e+02	2.2940	-3.727388	0.000221	2.211365	0.374615	-0.000022
1781	1.7711e+02	2.2880	-3.748977	0.000217	2.170414	0.367678	-0.000022
1782	1.7721e+02	2.2747	-3.766493	0.000176	1.760902	0.298305	-0.000018
1783	1.7731e+02	2.2612	-3.787675	0.000213	2.129463	0.360741	-0.000021
1784	1.7741e+02	2.2546	-3.808449	0.000209	2.088511	0.353803	-0.000021
1785	1.7751e+02	2.2424	-3.830446	0.000221	2.211365	0.374615	-0.000022
1786	1.7761e+02	2.2330	-3.848776	0.000184	1.842804	0.312179	-0.000018
1787	1.7771e+02	2.2256	-3.871587	0.000229	2.293267	0.388490	-0.000023
1788	1.7781e+02	2.2157	-3.890732	0.000192	1.924707	0.326054	-0.000019
1789	1.7791e+02	2.2015	-3.912729	0.000221	2.211365	0.374615	-0.000022
1790	1.7801e+02	2.1937	-3.930245	0.000176	1.760902	0.298305	-0.000018
1791	1.7810e+02	2.1835	-3.950612	0.000205	2.047560	0.346866	-0.000020
1792	1.7820e+02	2.1776	-3.973016	0.000225	2.252316	0.381553	-0.000023
1793	1.7830e+02	2.1655	-3.995012	0.000221	2.211365	0.374615	-0.000022
1794	1.7840e+02	2.1548	-4.012935	0.000180	1.801853	0.305242	-0.000018
1795	1.7850e+02	2.1459	-4.036968	0.000242	2.416121	0.409302	-0.000024
1796	1.7860e+02	2.1362	-4.056928	0.000201	2.006609	0.339929	-0.000020
1797	1.7870e+02	2.1200	-4.082591	0.000258	2.579926	0.437051	-0.000026
1798	1.7880e+02	2.1135	-4.104995	0.000225	2.252316	0.381553	-0.000023
1799	1.7890e+02	2.1060	-4.126176	0.000213	2.129463	0.360741	-0.000021
1800	1.7900e+02	2.0952	-4.151024	0.000250	2.498023	0.423177	-0.000025
1801	1.7910e+02	2.0841	-4.169762	0.000188	1.883755	0.319117	-0.000019
1802	1.7920e+02	2.0776	-4.188907	0.000192	1.924707	0.326054	-0.000019
1803	1.7930e+02	2.0654	-4.213348	0.000246	2.457072	0.416239	-0.000025
1804	1.7940e+02	2.0564	-4.238603	0.000254	2.538975	0.430114	-0.000025
1805	1.7950e+02	2.0456	-4.257341	0.000188	1.883755	0.319117	-0.000019
1806	1.7960e+02	2.0387	-4.280152	0.000229	2.293267	0.388490	-0.000023
1807	1.7970e+02	2.0260	-4.303778	0.000238	2.375170	0.402365	-0.000024
1808	1.7980e+02	2.0174	-4.321701	0.000180	1.801853	0.305242	-0.000018
1809	1.7990e+02	2.0058	-4.342475	0.000209	2.088511	0.353803	-0.000021
1810	1.8000e+02	1.9976	-4.361213	0.000188	1.883755	0.319117	-0.000019
1811	1.8009e+02	1.9843	-4.383617	0.000225	2.252316	0.381553	-0.000023
1812	1.8019e+02	1.9761	-4.406428	0.000229	2.293267	0.388490	-0.000023
1813	1.8029e+02	1.9642	-4.430461	0.000242	2.416121	0.409302	-0.000024
1814	1.8039e+02	1.9540	-4.449606	0.000192	1.924707	0.326054	-0.000019
1815	1.8049e+02	1.9485	-4.469159	0.000197	1.965658	0.332991	-0.000020
1816	1.8059e+02	1.9352	-4.491563	0.000225	2.252316	0.381553	-0.000023
1817	1.8069e+02	1.9244	-4.513559	0.000221	2.211365	0.374615	-0.000022
1818	1.8079e+02	1.9143	-4.534741	0.000213	2.129463	0.360741	-0.000021
1819	1.8089e+02	1.9055	-4.554701	0.000201	2.006609	0.339929	-0.000020
1820	1.8099e+02	1.8934	-4.577105	0.000225	2.252316	0.381553	-0.000023
1821	1.8109e+02	1.8866	-4.597879	0.000209	2.088511	0.353803	-0.000021
1822	1.8119e+02	1.8763	-4.616617	0.000188	1.883755	0.319117	-0.000019
1823	1.8129e+02	1.8679	-4.640650	0.000242	2.416121	0.409302	-0.000024
1824	1.8139e+02	1.8565	-4.663461	0.000229	2.293267	0.388490	-0.000023
1825	1.8149e+02	1.8457	-4.684643	0.000213	2.129463	0.360741	-0.000021
1826	1.8159e+02	1.8356	-4.704603	0.000201	2.006609	0.339929	-0.000020
1827	1.8169e+02	1.8258	-4.730265	0.000258	2.579926	0.437051	-0.000026
1828	1.8179e+02	1.8147	-4.752262	0.000221	2.211365	0.374615	-0.000022
1829	1.8189e+02	1.8072	-4.779961	0.000278	2.784682	0.471738	-0.000028
1830	1.8199e+02	1.7962	-4.798699	0.000188	1.883755	0.319117	-0.000019
1831	1.8209e+02	1.7860	-4.825584	0.000270	2.702780	0.457863	-0.000027
1832	1.8218e+02	1.7764	-4.847987	0.000225	2.252316	0.381553	-0.000023
1833	1.8228e+02	1.7635	-4.871206	0.000233	2.334219	0.395427	-0.000023
1834	1.8238e+02	1.7532	-4.896868	0.000258	2.579926	0.437051	-0.000026
1835	1.8248e+02	1.7474	-4.920902	0.000242	2.416121	0.409302	-0.000024
1836	1.8258e+02	1.7406	-4.938825	0.000180	1.801853	0.305242	-0.000018
1837	1.8268e+02	1.7300	-4.966117	0.000274	2.743731	0.464801	-0.000027
1838	1.8278e+02	1.7166	-4.989743	0.000238	2.375170	0.402365	-0.000024
1839	1.8288e+02	1.7067	-5.012554	0.000229	2.293267	0.388490	-0.000023
1840	1.8298e+02	1.6985	-5.038216	0.000258	2.579926	0.437051	-0.000026
1841	1.8308e+02	1.6867	-5.063472	0.000254	2.538975	0.430114	-0.000025
1842	1.8318e+02	1.6758	-5.087912	0.000246	2.457072	0.416239	-0.000025
1843	1.8328e+02	1.6663	-5.109094	0.000213	2.129463	0.360741	-0.000021
1844	1.8338e+02	1.6565	-5.133127	0.000242	2.416121	0.409302	-0.000024
1845	1.8348e+02	1.6483	-5.155938	0.000229	2.293267	0.388490	-0.000023
1846	1.8358e+02	1.6369	-5.179157	0.000233	2.334219	0.395427	-0.000023
1847	1.8368e+02	1.6260	-5.204819	0.000258	2.579926	0.437051	-0.000026
1848	1.8378e+02	1.6169	-5.228853	0.000242	2.416121	0.409302	-0.000024
1849	1.8388e+02	1.6090	-5.252071	0.000233	2.334219	0.395427	-0.000023
1850	1.8398e+02	1.5990	-5.280585	0.000287	2.866584	0.485613	-0.000029
1851	1.8407e+02	1.5865	-5.298508	0.000180	1.801853	0.305242	-0.000018
1852	1.8417e+02	1.5764	-5.326615	0.000283	2.825633	0.478675	-0.000028
1853	1.8427e+02	1.5668	-5.352685	0.000262	2.620877	0.443989	-0.000026
1854	1.8437e+02	1.5588	-5.377533	0.000250	2.498023	0.423177	-0.000025
1855	1.8447e+02	1.5474	-5.403603	0.000262	2.620877	0.443989	-0.000026
1856	1.8457e+02	1.5370	-5.424784	0.000213	2.129463	0.360741	-0.000021
1857	1.8467e+02	1.5279	-5.451262	0.000266	2.661828	0.450926	-0.000027
1858	1.8477e+02	1.5166	-5.482220	0.000311	3.112292	0.527236	-0.000031
1859	1.8487e+02	1.5076	-5.506660	0.000246	2.457072	0.416239	-0.000025
1860	1.8497e+02	1.4989	-5.528657	0.000221	2.211365	0.374615	-0.000022
1861	1.8507e+02	1.4870	-5.557578	0.000291	2.907536	0.492550	-0.000029
1862	1.8517e+02	1.4771	-5.585277	0.000278	2.784682	0.471738	-0.000028
1863	1.8527e+02	1.4674	-5.610940	0.000258	2.579926	0.437051	-0.000026
1864	1.8537e+02	1.4573	-5.629678	0.000188	1.883755	0.319117	-0.000019
1865	1.8547e+02	1.4473	-5.661450	0.000319	3.194194	0.541111	-0.000032
1866	1.8557e+02	1.4377	-5.688742	0.000274	2.743731	0.464801	-0.000027
1867	1.8567e+02	1.4271	-5.713998	0.000254	2.538975	0.430114	-0.000025
1868	1.8577e+02	1.4199	-5.743734	0.000299	2.989438	0.506424	-0.000030
1869	1.8587e+02	1.4070	-5.767360	0.000238	2.375170	0.402365	-0.000024
1870	1.8597e+02	1.3984	-5.791800	0.000246	2.457072	0.416239	-0.000025
1871	1.8606e+02	1.3882	-5.816648	0.000250	2.498023	0.423177	-0.000025
1872	1.8616e+02	1.3781	-5.841496	0.000250	2.498023	0.423177	-0.000025
1873	1.8626e+02	1.3671	-5.868380	0.000270	2.702780	0.457863	-0.000027
1874	1.8636e+02	1.3563	-5.896894	0.000287	2.866584	0.485613	-0.000029
1875	1.8646e+02	1.3486	-5.922150	0.000254	2.538975	0.430114	-0.000025
1876	1.8656e+02	1.3389	-5.947405	0.000254	2.538975	0.430114	-0.000025
1877	1.8666e+02	1.3275	-5.969401	0.000221	2.211365	0.374615	-0.000022
1878	1.8676e+02	1.3206	-5.994249	0.000250	2.498023	0.423177	-0.000025
1879	1.8686e+02	1.3076	-6.021949	0.000278	2.784682	0.471738	-0.000028
1880	1.8696e+02	1.2985	-6.045982	0.000242	2.416121	0.409302	-0.000024
1881	1.8706e+02	1.2891	-6.070830	0.000250	2.498023	0.423177	-0.000025
1882	1.8716e+02	1.2790	-6.094456	0.000238	2.375170	0.402365	-0.000024
1883	1.8726e+02	1.2717	-6.121748	0.000274	2.743731	0.464801	-0.000027
1884	1.8736e+02	1.2609	-6.141707	0.000201	2.006609	0.339929	-0.000020
1885	1.8746e+02	1.2470	-6.164926	0.000233	2.334219	0.395427	-0.000023
1886	1.8756e+02	1.2381	-6.188959	0.000242	2.416121	0.409302	-0.000024
1887	1.8766e+02	1.2291	-6.212585	0.000238	2.375170	0.402365	-0.000024
1888	1.8776e+02	1.2196	-6.238655	0.000262	2.620877	0.443989	-0.000026
1889	1.8786e+02	1.2109	-6.262688	0.000242	2.416121	0.409302	-0.000024
1890	1.8796e+02	1.1967	-6.289165	0.000266	2.661828	0.450926	-0.000027
1891	1.8806e+02	1.1884	-6.314013	0.000250	2.498023	0.423177	-0.000025
1892	1.8815e+02	1.1794	-6.342120	0.000283	2.825633	0.478675	-0.000028
1893	1.8825e+02	1.1682	-6.367782	0.000258	2.579926	0.437051	-0.000026
1894	1.8835e+02	1.1602	-6.393038	0.000254	2.538975	0.430114	-0.000025
1895	1.8845e+02	1.1511	-6.416664	0.000238	2.375170	0.402365	-0.000024
1896	1.8855e+02	1.1407	-6.446400	0.000299	2.989438	0.506424	-0.000030
1897	1.8865e+02	1.1329	-6.470433	0.000242	2.416121	0.409302	-0.000024
1898	1.8875e+02	1.1199	-6.496503	0.000262	2.620877	0.443989	-0.000026
1899	1.8885e+02	1.1106	-6.520129	0.000238	2.375170	0.402365	-0.000024
1900	1.8895e+02	1.0977	-6.547013	0.000270	2.702780	0.457863	-0.000027
1901	1.8905e+02	1.0907	-6.570232	0.000233	2.334219	0.395427	-0.000023
1902	1.8915e+02	1.0806	-6.597116	0.000270	2.702780	0.457863	-0.000027
1903	1.8925e+02	1.0706	-6.621150	0.000242	2.416121	0.409302	-0.000024
1904	1.8935e+02	1.0625	-6.651293	0.000303	3.030389	0.513362	-0.000030
1905	1.8945e+02	1.0508	-6.676955	0.000258	2.579926	0.437051	-0.000026
1906	1.8955e+02	1.0400	-6.702211	0.000254	2.538975	0.430114	-0.000025
1907	1.8965e+02	1.0307	-6.729095	0.000270	2.702780	0.457863	-0.000027
1908	1.8975e+02	1.0220	-6.753536	0.000246	2.457072	0.416239	-0.000025
1909	1.8985e+02	1.0096	-6.779198	0.000258	2.579926	0.437051	-0.000026
1910	1.8995e+02	0.9991	-6.799973	0.000209	2.088511	0.353803	-0.000021
1911	1.9004e+02	0.9911	-6.825228	0.000254	2.538975	0.430114	-0.000025
1912	1.9014e+02	0.9793	-6.844781	0.000197	1.965658	0.332991	-0.000020
1913	1.9024e+02	0.9713	-6.870443	0.000258	2.579926	0.437051	-0.000026
1914	1.9034e+02	0.9612	-6.893662	0.000233	2.334219	0.395427	-0.000023
1915	1.9044e+02	0.9508	-6.922990	0.000295	2.948487	0.499487	-0.000029
1916	1.9054e+02	0.9434	-6.947431	0.000246	2.457072	0.416239	-0.000025
1917	1.9064e+02	0.9306	-6.964947	0.000176	1.760902	0.298305	-0.000018
1918	1.9074e+02	0.9210	-6.988980	0.000242	2.416121	0.409302	-0.000024
1919	1.9084e+02	0.9120	-7.013013	0.000242	2.416121	0.409302	-0.000024
1920	1.9094e+02	0.8995	-7.043564	0.000307	3.071340	0.520299	-0.000031
1921	1.9104e+02	0.8875	-7.062301	0.000188	1.883755	0.319117	-0.000019
1922	1.9114e+02	0.8804	-7.084705	0.000225	2.252316	0.381553	-0.000023
1923	1.9124e+02	0.8739	-7.110775	0.000262	2.620877	0.443989	-0.000026
1924	1.9134e+02	0.8604	-7.136030	0.000254	2.538975	0.430114	-0.000025
1925	1.9144e+02	0.8527	-7.156805	0.000209	2.088511	0.353803	-0.000021
1926	1.9154e+02	0.8421	-7.179209	0.000225	2.252316	0.381553	-0.000023
1927	1.9164e+02	0.8331	-7.199576	0.000205	2.047560	0.346866	-0.000020
1928	1.9174e+02	0.8200	-7.229312	0.000299	2.989438	0.506424	-0.000030
1929	1.9184e+02	0.8125	-7.248050	0.000188	1.883755	0.319117	-0.000019
1930	1.9194e+02	0.8038	-7.274934	0.000270	2.702780	0.457863	-0.000027
1931	1.9203e+02	0.7900	-7.298153	0.000233	2.334219	0.395427	-0.000023
1932	1.9213e+02	0.7826	-7.321371	0.000233	2.334219	0.395427	-0.000023
1933	1.9223e+02	0.7722	-7.346627	0.000254	2.538975	0.430114	-0.000025
1934	1.9233e+02	0.7632	-7.370252	0.000238	2.375170	0.402365	-0.000024
1935	1.9243e+02	0.7517	-7.391842	0.000217	2.170414	0.367678	-0.000022
1936	1.9253e+02	0.7416	-7.417912	0.000262	2.620877	0.443989	-0.000026
1937	1.9263e+02	0.7317	-7.440723	0.000229	2.293267	0.388490	-0.000023
1938	1.9273e+02	0.7216	-7.463127	0.000225	2.252316	0.381553	-0.000023
1939	1.9283e+02	0.7121	-7.483901	0.000209	2.088511	0.353803	-0.000021
1940	1.9293e+02	0.7069	-7.505083	0.000213	2.129463	0.360741	-0.000021
1941	1.9303e+02	0.6928	-7.528709	0.000238	2.375170	0.402365	-0.000024
1942	1.9313e+02	0.6824	-7.551113	0.000225	2.252316	0.381553	-0.000023
1943	1.9323e+02	0.6738	-7.572294	0.000213	2.129463	0.360741	-0.000021
1944	1.9333e+02	0.6621	-7.593069	0.000209	2.088511	0.353803	-0.000021
1945	1.9343e+02	0.6526	-7.617917	0.000250	2.498023	0.423177	-0.000025
1946	1.9353e+02	0.6408	-7.639506	0.000217	2.170414	0.367678	-0.000022
1947	1.9363e+02	0.6309	-7.659466	0.000201	2.006609	0.339929	-0.000020
1948	1.9373e+02	0.6208	-7.681055	0.000217	2.170414	0.367678	-0.000022
1949	1.9383e+02	0.6105	-7.702644	0.000217	2.170414	0.367678	-0.000022
1950	1.9393e+02	0.6011	-7.724233	0.000217	2.170414	0.367678	-0.000022
1951	1.9403e+02	0.5937	-7.749488	0.000254	2.538975	0.430114	-0.000025
1952	1.9412e+02	0.5815	-7.768633	0.000192	1.924707	0.326054	-0.000019
1953	1.9422e+02	0.5740	-7.795111	0.000266	2.661828	0.450926	-0.000027
1954	1.9432e+02	0.5627	-7.808960	0.000139	1.392341	0.235869	-0.000014
1955	1.9442e+02	0.5537	-7.834623	0.000258	2.579926	0.437051	-0.000026
1956	1.9452e+02	0.5418	-7.855805	0.000213	2.129463	0.360741	-0.000021
1957	1.9462e+02	0.5322	-7.878616	0.000229	2.293267	0.388490	-0.000023
1958	1.9472e+02	0.5221	-7.902649	0.000242	2.416121	0.409302	-0.000024
1959	1.9482e+02	0.5137	-7.921794	0.000192	1.924707	0.326054	-0.000019
1960	1.9492e+02	0.5038	-7.946235	0.000246	2.457072	0.416239	-0.000025
1961	1.9502e+02	0.4937	-7.971897	0.000258	2.579926	0.437051	-0.000026
1962	1.9512e+02	0.4826	-7.990635	0.000188	1.883755	0.319117	-0.000019
1963	1.9522e+02	0.4728	-8.016705	0.000262	2.620877	0.443989	-0.000026
1964	1.9532e+02	0.4626	-8.040738	0.000242	2.416121	0.409302	-0.000024
1965	1.9542e+02	0.4533	-8.065586	0.000250	2.498023	0.423177	-0.000025
1966	1.9552e+02	0.4424	-8.089619	0.000242	2.416121	0.409302	-0.000024
1967	1.9562e+02	0.4347	-8.111209	0.000217	2.170414	0.367678	-0.000022
1968	1.9572e+02	0.4220	-8.142981	0.000319	3.194194	0.541111	-0.000032
1969	1.9582e+02	0.4125	-8.160904	0.000180	1.801853	0.305242	-0.000018
1970	1.9592e+02	0.4030	-8.182494	0.000217	2.170414	0.367678	-0.000022
1971	1.9601e+02	0.3928	-8.207341	0.000250	2.498023	0.423177	-0.000025
1972	1.9611e+02	0.3815	-8.234226	0.000270	2.702780	0.457863	-0.000027
1973	1.9621e+02	0.3725	-8.256630	0.000225	2.252316	0.381553	-0.000023
1974	1.9631e+02	0.3650	-8.279034	0.000225	2.252316	0.381553	-0.000023
1975	1.9641e+02	0.3520	-8.304289	0.000254	2.538975	0.430114	-0.000025
1976	1.9651e+02	0.3451	-8.327100	0.000229	2.293267	0.388490	-0.000023
1977	1.9661e+02	0.3335	-8.348689	0.000217	2.170414	0.367678	-0.000022
1978	1.9671e+02	0.3241	-8.372315	0.000238	2.375170	0.402365	-0.000024
1979	1.9681e+02	0.3116	-8.393904	0.000217	2.170414	0.367678	-0.000022
1980	1.9691e+02	0.3046	-8.416308	0.000225	2.252316	0.381553	-0.000023
1981	1.9701e+02	0.2946	-8.442378	0.000262	2.620877	0.443989	-0.000026
1982	1.9711e+02	0.2851	-8.464782	0.000225	2.252316	0.381553	-0.000023
1983	1.9721e+02	0.2737	-8.486778	0.000221	2.211365	0.374615	-0.000022
1984	1.9731e+02	0.2628	-8.509590	0.000229	2.293267	0.388490	-0.000023
1985	1.9741e+02	0.2528	-8.530771	0.000213	2.129463	0.360741	-0.000021
1986	1.9751e+02	0.2433	-8.559693	0.000291	2.907536	0.492550	-0.000029
1987	1.9761e+02	0.2376	-8.579245	0.000197	1.965658	0.332991	-0.000020
1988	1.9771e+02	0.2261	-8.603278	0.000242	2.416121	0.409302	-0.000024
1989	1.9781e+02	0.2161	-8.620794	0.000176	1.760902	0.298305	-0.000018
1990	1.9791e+02	0.2020	-8.651345	0.000307	3.071340	0.520299	-0.000031
1991	1.9800e+02	0.1955	-8.674156	0.000229	2.293267	0.388490	-0.000023
1992	1.9810e+02	0.1827	-8.698189	0.000242	2.416121	0.409302	-0.000024
1993	1.9820e+02	0.1760	-8.721000	0.000229	2.293267	0.388490	-0.000023
1994	1.9830e+02	0.1658	-8.745848	0.000250	2.498023	0.423177	-0.000025
1995	1.9840e+02	0.1543	-8.771511	0.000258	2.579926	0.437051	-0.000026
1996	1.9850e+02	0.1457	-8.794729	0.000233	2.334219	0.395427	-0.000023
1997	1.9860e+02	0.1370	-8.823243	0.000287	2.866584	0.485613	-0.000029
1998	1.9870e+02	0.1233	-8.852979	0.000299	2.989438	0.506424	-0.000030
1999	1.9880e+02	0.1156	-8.875383	0.000225	2.252316	0.381553	-0.000023
2000	1.9890e+02	0.1064	-8.897787	0.000225	2.252316	0.381553	-0.000023
2001	1.9900e+02	0.0960	-8.924264	0.000266	2.661828	0.450926	-0.000027
2002	1.9910e+02	0.0839	-8.949520	0.000254	2.538975	0.430114	-0.000025
2003	1.9920e+02	0.0739	-8.973960	0.000246	2.457072	0.416239	-0.000025
2004	1.9930e+02	0.0667	-9.002881	0.000291	2.907536	0.492550	-0.000029
2005	1.9940e+02	0.0581	-9.028544	0.000258	2.579926	0.437051	-0.000026
2006	1.9950e+02	0.0454	-9.051763	0.000233	2.334219	0.395427	-0.000023
2007	1.9960e+02	0.0336	-9.074166	0.000225	2.252316	0.381553	-0.000023
2008	1.9970e+02	0.0235	-9.105939	0.000319	3.194194	0.541111	-0.000032
2009	1.9980e+02	0.0159	-9.133638	0.000278	2.784682	0.471738	-0.000028
2010	1.9990e+02	0.0034	-9.155635	0.000221	2.211365	0.374615	-0.000022
2011	2.0000e+02	-0.0018	-9.176817	0.000221	2.211365	0.374615	-0.000021

PMax (uC/cm2):	2.12e+01
Pr (uC/cm2):	1.42e+00
-Pr (uC/cm2):	0.00e+00
PLoss (uC/cm2):	0.00e+00
C (Max-Eff) (nF):	2.12e-01
K (Eff):	3.59e+02
Vert. (+/-Pr) Shift (uC/cm2):	7.09e-01
Offset (uC/cm2):	1.06e+01

A (Loop Area - uC/cm2·Volts):	-1.40e-02



Hysteresis Version: 5.48.1 - Radiant Technologies, Inc., 1999 - 9/12/24

