»»»»»»»»»»»»»»»»»»»»»»»»»»»»»»»»»»»» Hysteresis ««««««««««««««««««««««««««««««««««««
»»»  Executed Version:	5.48.1
»»»  Vision Version:	5.48.4 (R)
»»»  Vision Compiled:	9/18/24
»»»  Driver Version:	5.47.0
»»»  Windows Version:	Windows 8 or 8.1
»»»  Processor Information:	x86 (AMD or Intel) - 32 Processors
»»»  Tester Name:	PMF21124-494 (100V)
»»»  Tester S/N:	PMF21124-494
»»»  Internal Amp Type:	100V RevK 270k
»»»  Internal Amp S/N:	iAB2-596/K     
»»»  Execution Count:	1
»»»»»»»»»»»»»»»»»»»»»»»»»»»»»»»»»»»»»»»»»»««««««««««««««««««««««««««««««««««««««««««

Stored:	6/26/2025 - 15:54:29
Configured:	06/26/25 10:24:47 AM
Executed:	06/26/25 03:53:50 PM

»»»»»»»»»»»»»»»»»»»»»»»»»»»»»»»»»»» Sample Info ««««««««««««««««««««««««««««««««««««
Sample Name:	
Lot Name:	
Wafer Name:	
Die Row/Column:	0/0
Capacitor Number:	0
Sample Area (cm2):	1.00e-04
Sample Thickness (microns):	1.50e-01

Amplifier:	Internal

»»»»»»»»»»»»»»»»»»»»»»»»»»»»»»»»»»» Tester Info «««««««««««««««««««««««««««««««««««
Tester Name:	PMF21124-494 (100V)
Tester Serial Number:	PMF21124-494
Return Signal Amp. Level:	1.9 [Index: 2]

»»»»»»»»»»»»»»»»»»»»»»»»»»»»»»»» Hysteresis Info ««««««««««««««««««««««««««««««««««
Task Name:	Hyst-562
Volts:	10.00
Field:	666.67 (kV/cm)
DCBias:	0.00
DCField:	0.00 (kV/cm)
Hysteresis Period (ms):	2.00e+02
Preset:	Enabled
Preset Delay (ms):	1.00e+03
Profile:	Standard Monopolar

»»»»»»»»»»»»»»»»»»»»»»»»»»»»»»»»»»»»»» Data «««««««««««««««««««««««««««««««««««««««
Points:	2011

Valid Data

Point	Time (ms)	Drive Voltage	Measured Polarization (uC/cm2)	Capacitance (uF)	Normalized Capacitance (uF/cm2)	Dielectric Constant	Instantaneous Current (mA)
   1	0.0000e+00	-0.0063	-10.425933	0.000180	1.801351	0.305157	0.000018
   2	9.9500e-02	0.0050	-10.408010	0.000180	1.801351	0.305157	0.000018
   3	1.9900e-01	0.0172	-10.388050	0.000201	2.006050	0.339834	0.000020
   4	2.9850e-01	0.0265	-10.362387	0.000258	2.579207	0.436930	0.000026
   5	3.9800e-01	0.0321	-10.343649	0.000188	1.883231	0.319028	0.000019
   6	4.9750e-01	0.0455	-10.323282	0.000205	2.046990	0.346769	0.000020
   7	5.9700e-01	0.0578	-10.305767	0.000176	1.760411	0.298222	0.000018
   8	6.9650e-01	0.0587	-10.283363	0.000225	2.251689	0.381446	0.000023
   9	7.9600e-01	0.0786	-10.265440	0.000180	1.801351	0.305157	0.000018
  10	8.9550e-01	0.0863	-10.242628	0.000229	2.292629	0.388382	0.000023
  11	9.9500e-01	0.0953	-10.219410	0.000233	2.333569	0.395317	0.000023
  12	1.0945e+00	0.1035	-10.202709	0.000168	1.678532	0.284351	0.000017
  13	1.1940e+00	0.1140	-10.179490	0.000233	2.333569	0.395317	0.000023
  14	1.2935e+00	0.1253	-10.158716	0.000209	2.087930	0.353705	0.000021
  15	1.3930e+00	0.1321	-10.142422	0.000164	1.637592	0.277416	0.000016
  16	1.4925e+00	0.1465	-10.117167	0.000254	2.538268	0.429994	0.000025
  17	1.5920e+00	0.1548	-10.098837	0.000184	1.842291	0.312093	0.000018
  18	1.6915e+00	0.1663	-10.076840	0.000221	2.210749	0.374511	0.000022
  19	1.7910e+00	0.1767	-10.056880	0.000201	2.006050	0.339834	0.000020
  20	1.8905e+00	0.1855	-10.036920	0.000201	2.006050	0.339834	0.000020
  21	1.9900e+00	0.1962	-10.019405	0.000176	1.760411	0.298222	0.000018
  22	2.0895e+00	0.2031	-9.996594	0.000229	2.292629	0.388382	0.000023
  23	2.1890e+00	0.2145	-9.972968	0.000237	2.374508	0.402253	0.000024
  24	2.2885e+00	0.2222	-9.950564	0.000225	2.251689	0.381446	0.000023
  25	2.3880e+00	0.2344	-9.934270	0.000164	1.637592	0.277416	0.000016
  26	2.4875e+00	0.2450	-9.912681	0.000217	2.169809	0.367576	0.000022
  27	2.5870e+00	0.2544	-9.892721	0.000201	2.006050	0.339834	0.000020
  28	2.6865e+00	0.2626	-9.870317	0.000225	2.251689	0.381446	0.000023
  29	2.7860e+00	0.2726	-9.853616	0.000168	1.678532	0.284351	0.000017
  30	2.8855e+00	0.2850	-9.828768	0.000250	2.497328	0.423059	0.000025
  31	2.9850e+00	0.2960	-9.807587	0.000213	2.128870	0.360640	0.000021
  32	3.0845e+00	0.3052	-9.789256	0.000184	1.842291	0.312093	0.000018
  33	3.1840e+00	0.3138	-9.766445	0.000229	2.292629	0.388382	0.000023
  34	3.2835e+00	0.3258	-9.743226	0.000233	2.333569	0.395317	0.000023
  35	3.3830e+00	0.3353	-9.721230	0.000221	2.210749	0.374511	0.000022
  36	3.4825e+00	0.3446	-9.700048	0.000213	2.128870	0.360640	0.000021
  37	3.5820e+00	0.3558	-9.679681	0.000205	2.046990	0.346769	0.000020
  38	3.6815e+00	0.3641	-9.658092	0.000217	2.169809	0.367576	0.000022
  39	3.7810e+00	0.3744	-9.636503	0.000217	2.169809	0.367576	0.000022
  40	3.8805e+00	0.3804	-9.617765	0.000188	1.883231	0.319028	0.000019
  41	3.9800e+00	0.3899	-9.592102	0.000258	2.579207	0.436930	0.000026
  42	4.0795e+00	0.4044	-9.573365	0.000188	1.883231	0.319028	0.000019
  43	4.1790e+00	0.4148	-9.550146	0.000233	2.333569	0.395317	0.000023
  44	4.2785e+00	0.4230	-9.529372	0.000209	2.087930	0.353705	0.000021
  45	4.3780e+00	0.4333	-9.509005	0.000205	2.046990	0.346769	0.000020
  46	4.4775e+00	0.4462	-9.481713	0.000274	2.742967	0.464671	0.000027
  47	4.5770e+00	0.4545	-9.457272	0.000246	2.456388	0.416123	0.000025
  48	4.6765e+00	0.4611	-9.440164	0.000172	1.719472	0.291286	0.000017
  49	4.7760e+00	0.4745	-9.416130	0.000242	2.415448	0.409188	0.000024
  50	4.8755e+00	0.4826	-9.391283	0.000250	2.497328	0.423059	0.000025
  51	4.9750e+00	0.4929	-9.368064	0.000233	2.333569	0.395317	0.000023
  52	5.0745e+00	0.5025	-9.345253	0.000229	2.292629	0.388382	0.000023
  53	5.1740e+00	0.5122	-9.321627	0.000237	2.374508	0.402253	0.000024
  54	5.2735e+00	0.5241	-9.297186	0.000246	2.456388	0.416123	0.000025
  55	5.3730e+00	0.5341	-9.276819	0.000205	2.046990	0.346769	0.000020
  56	5.4725e+00	0.5428	-9.251564	0.000254	2.538268	0.429994	0.000025
  57	5.5720e+00	0.5530	-9.225087	0.000266	2.661087	0.450800	0.000027
  58	5.6715e+00	0.5630	-9.205534	0.000197	1.965110	0.332899	0.000020
  59	5.7710e+00	0.5724	-9.177020	0.000287	2.865786	0.485477	0.000029
  60	5.8705e+00	0.5824	-9.155024	0.000221	2.210749	0.374511	0.000022
  61	5.9700e+00	0.5927	-9.131398	0.000237	2.374508	0.402253	0.000024
  62	6.0695e+00	0.6013	-9.109401	0.000221	2.210749	0.374511	0.000022
  63	6.1690e+00	0.6110	-9.086183	0.000233	2.333569	0.395317	0.000023
  64	6.2685e+00	0.6203	-9.061335	0.000250	2.497328	0.423059	0.000025
  65	6.3680e+00	0.6316	-9.034858	0.000266	2.661087	0.450800	0.000027
  66	6.4675e+00	0.6452	-9.008381	0.000266	2.661087	0.450800	0.000027
  67	6.5670e+00	0.6524	-8.992087	0.000164	1.637592	0.277416	0.000016
  68	6.6665e+00	0.6630	-8.970498	0.000217	2.169809	0.367576	0.000022
  69	6.7660e+00	0.6730	-8.942798	0.000278	2.783906	0.471607	0.000028
  70	6.8655e+00	0.6829	-8.919987	0.000229	2.292629	0.388382	0.000023
  71	6.9650e+00	0.6915	-8.897991	0.000221	2.210749	0.374511	0.000022
  72	7.0645e+00	0.6983	-8.872328	0.000258	2.579207	0.436930	0.000026
  73	7.1640e+00	0.7092	-8.848295	0.000242	2.415448	0.409188	0.000024
  74	7.2635e+00	0.7238	-8.823447	0.000250	2.497328	0.423059	0.000025
  75	7.3630e+00	0.7305	-8.801451	0.000221	2.210749	0.374511	0.000022
  76	7.4625e+00	0.7443	-8.776603	0.000250	2.497328	0.423059	0.000025
  77	7.5620e+00	0.7536	-8.754199	0.000225	2.251689	0.381446	0.000023
  78	7.6615e+00	0.7619	-8.726092	0.000282	2.824846	0.478542	0.000028
  79	7.7610e+00	0.7762	-8.700430	0.000258	2.579207	0.436930	0.000026
  80	7.8605e+00	0.7848	-8.678026	0.000225	2.251689	0.381446	0.000023
  81	7.9600e+00	0.7930	-8.650734	0.000274	2.742967	0.464671	0.000027
  82	8.0595e+00	0.8001	-8.625886	0.000250	2.497328	0.423059	0.000025
  83	8.1590e+00	0.8111	-8.603075	0.000229	2.292629	0.388382	0.000023
  84	8.2585e+00	0.8214	-8.580264	0.000229	2.292629	0.388382	0.000023
  85	8.3580e+00	0.8324	-8.554601	0.000258	2.579207	0.436930	0.000026
  86	8.4575e+00	0.8422	-8.528938	0.000258	2.579207	0.436930	0.000026
  87	8.5570e+00	0.8546	-8.507757	0.000213	2.128870	0.360640	0.000021
  88	8.6565e+00	0.8619	-8.480465	0.000274	2.742967	0.464671	0.000027
  89	8.7560e+00	0.8710	-8.455617	0.000250	2.497328	0.423059	0.000025
  90	8.8555e+00	0.8823	-8.429547	0.000262	2.620147	0.443865	0.000026
  91	8.9550e+00	0.8916	-8.404699	0.000250	2.497328	0.423059	0.000025
  92	9.0545e+00	0.9014	-8.378629	0.000262	2.620147	0.443865	0.000026
  93	9.1540e+00	0.9116	-8.355003	0.000237	2.374508	0.402253	0.000024
  94	9.2535e+00	0.9199	-8.327711	0.000274	2.742967	0.464671	0.000027
  95	9.3530e+00	0.9325	-8.302456	0.000254	2.538268	0.429994	0.000025
  96	9.4525e+00	0.9399	-8.273942	0.000287	2.865786	0.485477	0.000029
  97	9.5520e+00	0.9513	-8.255204	0.000188	1.883231	0.319028	0.000019
  98	9.6515e+00	0.9611	-8.228727	0.000266	2.661087	0.450800	0.000027
  99	9.7510e+00	0.9712	-8.199806	0.000291	2.906726	0.492413	0.000029
 100	9.8505e+00	0.9805	-8.174143	0.000258	2.579207	0.436930	0.000026
 101	9.9500e+00	0.9899	-8.148480	0.000258	2.579207	0.436930	0.000026
 102	1.0050e+01	1.0030	-8.126077	0.000225	2.251689	0.381446	0.000023
 103	1.0149e+01	1.0117	-8.095933	0.000303	3.029545	0.513219	0.000030
 104	1.0248e+01	1.0212	-8.074344	0.000217	2.169809	0.367576	0.000022
 105	1.0348e+01	1.0305	-8.050311	0.000242	2.415448	0.409188	0.000024
 106	1.0447e+01	1.0429	-8.024241	0.000262	2.620147	0.443865	0.000026
 107	1.0547e+01	1.0513	-7.998578	0.000258	2.579207	0.436930	0.000026
 108	1.0646e+01	1.0592	-7.976582	0.000221	2.210749	0.374511	0.000022
 109	1.0746e+01	1.0683	-7.949697	0.000270	2.702027	0.457736	0.000027
 110	1.0845e+01	1.0806	-7.920776	0.000291	2.906726	0.492413	0.000029
 111	1.0945e+01	1.0903	-7.902038	0.000188	1.883231	0.319028	0.000019
 112	1.1044e+01	1.0993	-7.874339	0.000278	2.783906	0.471607	0.000028
 113	1.1144e+01	1.1091	-7.849084	0.000254	2.538268	0.429994	0.000025
 114	1.1243e+01	1.1186	-7.822606	0.000266	2.661087	0.450800	0.000027
 115	1.1343e+01	1.1295	-7.796536	0.000262	2.620147	0.443865	0.000026
 116	1.1443e+01	1.1411	-7.772503	0.000242	2.415448	0.409188	0.000024
 117	1.1542e+01	1.1494	-7.750507	0.000221	2.210749	0.374511	0.000022
 118	1.1642e+01	1.1599	-7.724437	0.000262	2.620147	0.443865	0.000026
 119	1.1741e+01	1.1684	-7.699996	0.000246	2.456388	0.416123	0.000025
 120	1.1841e+01	1.1787	-7.673112	0.000270	2.702027	0.457736	0.000027
 121	1.1940e+01	1.1892	-7.647856	0.000254	2.538268	0.429994	0.000025
 122	1.2040e+01	1.1987	-7.623823	0.000242	2.415448	0.409188	0.000024
 123	1.2139e+01	1.2079	-7.599383	0.000246	2.456388	0.416123	0.000025
 124	1.2239e+01	1.2199	-7.574127	0.000254	2.538268	0.429994	0.000025
 125	1.2338e+01	1.2307	-7.552131	0.000221	2.210749	0.374511	0.000022
 126	1.2438e+01	1.2400	-7.526061	0.000262	2.620147	0.443865	0.000026
 127	1.2537e+01	1.2470	-7.503657	0.000225	2.251689	0.381446	0.000023
 128	1.2636e+01	1.2585	-7.480846	0.000229	2.292629	0.388382	0.000023
 129	1.2736e+01	1.2672	-7.460886	0.000201	2.006050	0.339834	0.000020
 130	1.2835e+01	1.2766	-7.437260	0.000237	2.374508	0.402253	0.000024
 131	1.2935e+01	1.2884	-7.412412	0.000250	2.497328	0.423059	0.000025
 132	1.3034e+01	1.2977	-7.387972	0.000246	2.456388	0.416123	0.000025
 133	1.3134e+01	1.3081	-7.365975	0.000221	2.210749	0.374511	0.000022
 134	1.3233e+01	1.3196	-7.342757	0.000233	2.333569	0.395317	0.000023
 135	1.3333e+01	1.3308	-7.322797	0.000201	2.006050	0.339834	0.000020
 136	1.3432e+01	1.3394	-7.299171	0.000237	2.374508	0.402253	0.000024
 137	1.3532e+01	1.3458	-7.279211	0.000201	2.006050	0.339834	0.000020
 138	1.3632e+01	1.3598	-7.253141	0.000262	2.620147	0.443865	0.000026
 139	1.3731e+01	1.3705	-7.231552	0.000217	2.169809	0.367576	0.000022
 140	1.3831e+01	1.3776	-7.210778	0.000209	2.087930	0.353705	0.000021
 141	1.3930e+01	1.3895	-7.185115	0.000258	2.579207	0.436930	0.000026
 142	1.4030e+01	1.4011	-7.164748	0.000205	2.046990	0.346769	0.000020
 143	1.4129e+01	1.4083	-7.147640	0.000172	1.719472	0.291286	0.000017
 144	1.4229e+01	1.4196	-7.119126	0.000287	2.865786	0.485477	0.000029
 145	1.4328e+01	1.4290	-7.100795	0.000184	1.842291	0.312093	0.000018
 146	1.4428e+01	1.4379	-7.079206	0.000217	2.169809	0.367576	0.000022
 147	1.4527e+01	1.4471	-7.056802	0.000225	2.251689	0.381446	0.000023
 148	1.4627e+01	1.4567	-7.032362	0.000246	2.456388	0.416123	0.000025
 149	1.4726e+01	1.4708	-7.014031	0.000184	1.842291	0.312093	0.000018
 150	1.4825e+01	1.4796	-6.988776	0.000254	2.538268	0.429994	0.000025
 151	1.4925e+01	1.4886	-6.968816	0.000201	2.006050	0.339834	0.000020
 152	1.5024e+01	1.4989	-6.947227	0.000217	2.169809	0.367576	0.000022
 153	1.5124e+01	1.5079	-6.923601	0.000237	2.374508	0.402253	0.000024
 154	1.5223e+01	1.5185	-6.903642	0.000201	2.006050	0.339834	0.000020
 155	1.5323e+01	1.5270	-6.885718	0.000180	1.801351	0.305157	0.000018
 156	1.5422e+01	1.5381	-6.863722	0.000221	2.210749	0.374511	0.000022
 157	1.5522e+01	1.5478	-6.840096	0.000237	2.374508	0.402253	0.000024
 158	1.5621e+01	1.5580	-6.815656	0.000246	2.456388	0.416123	0.000025
 159	1.5721e+01	1.5659	-6.797325	0.000184	1.842291	0.312093	0.000018
 160	1.5820e+01	1.5759	-6.771663	0.000258	2.579207	0.436930	0.000026
 161	1.5920e+01	1.5874	-6.752110	0.000197	1.965110	0.332899	0.000020
 162	1.6020e+01	1.5961	-6.728892	0.000233	2.333569	0.395317	0.000023
 163	1.6119e+01	1.6085	-6.710969	0.000180	1.801351	0.305157	0.000018
 164	1.6218e+01	1.6154	-6.686935	0.000242	2.415448	0.409188	0.000024
 165	1.6318e+01	1.6288	-6.667790	0.000192	1.924171	0.325963	0.000019
 166	1.6418e+01	1.6368	-6.645386	0.000225	2.251689	0.381446	0.000023
 167	1.6517e+01	1.6470	-6.627463	0.000180	1.801351	0.305157	0.000018
 168	1.6616e+01	1.6572	-6.603430	0.000242	2.415448	0.409188	0.000024
 169	1.6716e+01	1.6705	-6.584285	0.000192	1.924171	0.325963	0.000019
 170	1.6816e+01	1.6750	-6.560252	0.000242	2.415448	0.409188	0.000024
 171	1.6915e+01	1.6848	-6.543143	0.000172	1.719472	0.291286	0.000017
 172	1.7015e+01	1.6967	-6.521554	0.000217	2.169809	0.367576	0.000022
 173	1.7114e+01	1.7073	-6.500780	0.000209	2.087930	0.353705	0.000021
 174	1.7213e+01	1.7165	-6.482449	0.000184	1.842291	0.312093	0.000018
 175	1.7313e+01	1.7284	-6.463304	0.000192	1.924171	0.325963	0.000019
 176	1.7413e+01	1.7387	-6.443752	0.000197	1.965110	0.332899	0.000020
 177	1.7512e+01	1.7470	-6.427051	0.000168	1.678532	0.284351	0.000017
 178	1.7611e+01	1.7565	-6.403425	0.000237	2.374508	0.402253	0.000024
 179	1.7711e+01	1.7680	-6.382650	0.000209	2.087930	0.353705	0.000021
 180	1.7811e+01	1.7740	-6.363505	0.000192	1.924171	0.325963	0.000019
 181	1.7910e+01	1.7879	-6.343138	0.000205	2.046990	0.346769	0.000020
 182	1.8009e+01	1.7966	-6.325622	0.000176	1.760411	0.298222	0.000018
 183	1.8109e+01	1.8059	-6.304848	0.000209	2.087930	0.353705	0.000021
 184	1.8209e+01	1.8132	-6.284074	0.000209	2.087930	0.353705	0.000021
 185	1.8308e+01	1.8265	-6.263299	0.000209	2.087930	0.353705	0.000021
 186	1.8407e+01	1.8375	-6.244154	0.000192	1.924171	0.325963	0.000019
 187	1.8507e+01	1.8469	-6.225009	0.000192	1.924171	0.325963	0.000019
 188	1.8607e+01	1.8570	-6.204642	0.000205	2.046990	0.346769	0.000020
 189	1.8706e+01	1.8671	-6.185089	0.000197	1.965110	0.332899	0.000020
 190	1.8805e+01	1.8760	-6.166759	0.000184	1.842291	0.312093	0.000018
 191	1.8905e+01	1.8900	-6.143948	0.000229	2.292629	0.388382	0.000023
 192	1.9005e+01	1.8935	-6.125210	0.000188	1.883231	0.319028	0.000019
 193	1.9104e+01	1.9067	-6.105658	0.000197	1.965110	0.332899	0.000020
 194	1.9203e+01	1.9147	-6.086920	0.000188	1.883231	0.319028	0.000019
 195	1.9303e+01	1.9257	-6.062072	0.000250	2.497328	0.423059	0.000025
 196	1.9402e+01	1.9350	-6.042519	0.000197	1.965110	0.332899	0.000020
 197	1.9502e+01	1.9450	-6.027448	0.000151	1.514773	0.256609	0.000015
 198	1.9602e+01	1.9559	-6.006673	0.000209	2.087930	0.353705	0.000021
 199	1.9701e+01	1.9653	-5.984269	0.000225	2.251689	0.381446	0.000023
 200	1.9800e+01	1.9760	-5.963495	0.000209	2.087930	0.353705	0.000021
 201	1.9900e+01	1.9857	-5.943943	0.000197	1.965110	0.332899	0.000020
 202	2.0000e+01	1.9969	-5.925612	0.000184	1.842291	0.312093	0.000018
 203	2.0099e+01	2.0075	-5.900764	0.000250	2.497328	0.423059	0.000025
 204	2.0198e+01	2.0123	-5.888544	0.000123	1.228194	0.208062	0.000012
 205	2.0298e+01	2.0234	-5.862067	0.000266	2.661087	0.450800	0.000027
 206	2.0398e+01	2.0352	-5.840070	0.000221	2.210749	0.374511	0.000022
 207	2.0497e+01	2.0456	-5.821332	0.000188	1.883231	0.319028	0.000019
 208	2.0596e+01	2.0548	-5.802595	0.000188	1.883231	0.319028	0.000019
 209	2.0696e+01	2.0657	-5.780191	0.000225	2.251689	0.381446	0.000023
 210	2.0796e+01	2.0760	-5.761046	0.000192	1.924171	0.325963	0.000019
 211	2.0895e+01	2.0848	-5.739049	0.000221	2.210749	0.374511	0.000022
 212	2.0994e+01	2.0934	-5.719497	0.000197	1.965110	0.332899	0.000020
 213	2.1094e+01	2.1069	-5.692205	0.000274	2.742967	0.464671	0.000027
 214	2.1194e+01	2.1159	-5.673060	0.000192	1.924171	0.325963	0.000019
 215	2.1293e+01	2.1250	-5.651471	0.000217	2.169809	0.367576	0.000022
 216	2.1392e+01	2.1352	-5.631511	0.000201	2.006050	0.339834	0.000020
 217	2.1492e+01	2.1451	-5.605848	0.000258	2.579207	0.436930	0.000026
 218	2.1591e+01	2.1533	-5.586703	0.000192	1.924171	0.325963	0.000019
 219	2.1691e+01	2.1630	-5.567151	0.000197	1.965110	0.332899	0.000020
 220	2.1791e+01	2.1760	-5.538637	0.000287	2.865786	0.485477	0.000029
 221	2.1890e+01	2.1868	-5.518677	0.000201	2.006050	0.339834	0.000020
 222	2.1989e+01	2.1933	-5.496273	0.000225	2.251689	0.381446	0.000023
 223	2.2089e+01	2.2031	-5.471018	0.000254	2.538268	0.429994	0.000025
 224	2.2189e+01	2.2169	-5.451058	0.000201	2.006050	0.339834	0.000020
 225	2.2288e+01	2.2236	-5.429469	0.000217	2.169809	0.367576	0.000022
 226	2.2387e+01	2.2337	-5.403399	0.000262	2.620147	0.443865	0.000026
 227	2.2487e+01	2.2435	-5.387513	0.000160	1.596652	0.270480	0.000016
 228	2.2587e+01	2.2524	-5.357369	0.000303	3.029545	0.513219	0.000030
 229	2.2686e+01	2.2640	-5.337409	0.000201	2.006050	0.339834	0.000020
 230	2.2785e+01	2.2735	-5.315820	0.000217	2.169809	0.367576	0.000022
 231	2.2885e+01	2.2851	-5.293416	0.000225	2.251689	0.381446	0.000023
 232	2.2985e+01	2.2970	-5.270605	0.000229	2.292629	0.388382	0.000023
 233	2.3084e+01	2.3019	-5.242906	0.000278	2.783906	0.471607	0.000028
 234	2.3183e+01	2.3119	-5.223761	0.000192	1.924171	0.325963	0.000019
 235	2.3283e+01	2.3242	-5.200542	0.000233	2.333569	0.395317	0.000023
 236	2.3383e+01	2.3317	-5.178546	0.000221	2.210749	0.374511	0.000022
 237	2.3482e+01	2.3448	-5.153698	0.000250	2.497328	0.423059	0.000025
 238	2.3581e+01	2.3573	-5.127221	0.000266	2.661087	0.450800	0.000027
 239	2.3681e+01	2.3682	-5.112964	0.000143	1.432893	0.242739	0.000014
 240	2.3780e+01	2.3727	-5.087708	0.000254	2.538268	0.429994	0.000025
 241	2.3880e+01	2.3833	-5.063675	0.000242	2.415448	0.409188	0.000024
 242	2.3980e+01	2.3921	-5.040457	0.000233	2.333569	0.395317	0.000023
 243	2.4079e+01	2.4039	-5.015201	0.000254	2.538268	0.429994	0.000025
 244	2.4178e+01	2.4140	-4.996464	0.000188	1.883231	0.319028	0.000019
 245	2.4278e+01	2.4223	-4.972431	0.000242	2.415448	0.409188	0.000024
 246	2.4378e+01	2.4366	-4.950841	0.000217	2.169809	0.367576	0.000022
 247	2.4477e+01	2.4436	-4.926808	0.000242	2.415448	0.409188	0.000024
 248	2.4576e+01	2.4536	-4.903997	0.000229	2.292629	0.388382	0.000023
 249	2.4676e+01	2.4622	-4.879149	0.000250	2.497328	0.423059	0.000025
 250	2.4776e+01	2.4729	-4.853487	0.000258	2.579207	0.436930	0.000026
 251	2.4875e+01	2.4859	-4.833119	0.000205	2.046990	0.346769	0.000020
 252	2.4974e+01	2.4936	-4.809494	0.000237	2.374508	0.402253	0.000024
 253	2.5074e+01	2.5039	-4.783831	0.000258	2.579207	0.436930	0.000026
 254	2.5174e+01	2.5130	-4.757354	0.000266	2.661087	0.450800	0.000027
 255	2.5273e+01	2.5228	-4.737394	0.000201	2.006050	0.339834	0.000020
 256	2.5372e+01	2.5316	-4.710917	0.000266	2.661087	0.450800	0.000027
 257	2.5472e+01	2.5411	-4.689327	0.000217	2.169809	0.367576	0.000022
 258	2.5572e+01	2.5521	-4.662443	0.000270	2.702027	0.457736	0.000027
 259	2.5671e+01	2.5652	-4.634336	0.000282	2.824846	0.478542	0.000028
 260	2.5770e+01	2.5716	-4.611118	0.000233	2.333569	0.395317	0.000023
 261	2.5870e+01	2.5805	-4.585862	0.000254	2.538268	0.429994	0.000025
 262	2.5970e+01	2.5923	-4.567939	0.000180	1.801351	0.305157	0.000018
 263	2.6069e+01	2.6028	-4.543091	0.000250	2.497328	0.423059	0.000025
 264	2.6169e+01	2.6101	-4.522317	0.000209	2.087930	0.353705	0.000021
 265	2.6268e+01	2.6238	-4.494210	0.000282	2.824846	0.478542	0.000028
 266	2.6367e+01	2.6336	-4.468140	0.000262	2.620147	0.443865	0.000026
 267	2.6467e+01	2.6405	-4.443700	0.000246	2.456388	0.416123	0.000025
 268	2.6567e+01	2.6537	-4.417223	0.000266	2.661087	0.450800	0.000027
 269	2.6666e+01	2.6617	-4.392375	0.000250	2.497328	0.423059	0.000025
 270	2.6765e+01	2.6730	-4.371193	0.000213	2.128870	0.360640	0.000021
 271	2.6865e+01	2.6807	-4.345123	0.000262	2.620147	0.443865	0.000026
 272	2.6965e+01	2.6922	-4.325163	0.000201	2.006050	0.339834	0.000020
 273	2.7064e+01	2.7059	-4.297057	0.000282	2.824846	0.478542	0.000028
 274	2.7163e+01	2.7121	-4.274245	0.000229	2.292629	0.388382	0.000023
 275	2.7263e+01	2.7238	-4.249805	0.000246	2.456388	0.416123	0.000025
 276	2.7363e+01	2.7327	-4.229030	0.000209	2.087930	0.353705	0.000021
 277	2.7462e+01	2.7425	-4.202960	0.000262	2.620147	0.443865	0.000026
 278	2.7561e+01	2.7540	-4.177705	0.000254	2.538268	0.429994	0.000025
 279	2.7661e+01	2.7616	-4.150821	0.000270	2.702027	0.457736	0.000027
 280	2.7761e+01	2.7724	-4.130453	0.000205	2.046990	0.346769	0.000020
 281	2.7860e+01	2.7808	-4.105198	0.000254	2.538268	0.429994	0.000025
 282	2.7959e+01	2.7908	-4.083609	0.000217	2.169809	0.367576	0.000022
 283	2.8059e+01	2.8038	-4.060798	0.000229	2.292629	0.388382	0.000023
 284	2.8159e+01	2.8126	-4.035543	0.000254	2.538268	0.429994	0.000025
 285	2.8258e+01	2.8206	-4.008658	0.000270	2.702027	0.457736	0.000027
 286	2.8358e+01	2.8316	-3.984625	0.000242	2.415448	0.409188	0.000024
 287	2.8457e+01	2.8394	-3.962221	0.000225	2.251689	0.381446	0.000023
 288	2.8556e+01	2.8523	-3.940632	0.000217	2.169809	0.367576	0.000022
 289	2.8656e+01	2.8617	-3.912525	0.000282	2.824846	0.478542	0.000028
 290	2.8756e+01	2.8692	-3.891343	0.000213	2.128870	0.360640	0.000021
 291	2.8855e+01	2.8819	-3.868940	0.000225	2.251689	0.381446	0.000023
 292	2.8954e+01	2.8895	-3.844906	0.000242	2.415448	0.409188	0.000024
 293	2.9054e+01	2.9034	-3.821280	0.000237	2.374508	0.402253	0.000024
 294	2.9154e+01	2.9113	-3.801321	0.000201	2.006050	0.339834	0.000020
 295	2.9253e+01	2.9188	-3.774843	0.000266	2.661087	0.450800	0.000027
 296	2.9352e+01	2.9300	-3.752847	0.000221	2.210749	0.374511	0.000022
 297	2.9452e+01	2.9424	-3.732887	0.000201	2.006050	0.339834	0.000020
 298	2.9552e+01	2.9494	-3.709261	0.000237	2.374508	0.402253	0.000024
 299	2.9651e+01	2.9627	-3.689301	0.000201	2.006050	0.339834	0.000020
 300	2.9750e+01	2.9716	-3.668120	0.000213	2.128870	0.360640	0.000021
 301	2.9850e+01	2.9813	-3.644901	0.000233	2.333569	0.395317	0.000023
 302	2.9950e+01	2.9902	-3.622497	0.000225	2.251689	0.381446	0.000023
 303	3.0049e+01	3.0042	-3.599686	0.000229	2.292629	0.388382	0.000023
 304	3.0148e+01	3.0123	-3.580134	0.000197	1.965110	0.332899	0.000020
 305	3.0248e+01	3.0202	-3.558137	0.000221	2.210749	0.374511	0.000022
 306	3.0348e+01	3.0296	-3.533697	0.000246	2.456388	0.416123	0.000025
 307	3.0447e+01	3.0399	-3.515774	0.000180	1.801351	0.305157	0.000018
 308	3.0547e+01	3.0477	-3.494184	0.000217	2.169809	0.367576	0.000022
 309	3.0646e+01	3.0614	-3.474632	0.000197	1.965110	0.332899	0.000020
 310	3.0745e+01	3.0709	-3.449784	0.000250	2.497328	0.423059	0.000025
 311	3.0845e+01	3.0785	-3.435120	0.000147	1.473833	0.249674	0.000015
 312	3.0945e+01	3.0891	-3.412309	0.000229	2.292629	0.388382	0.000023
 313	3.1044e+01	3.0998	-3.390719	0.000217	2.169809	0.367576	0.000022
 314	3.1143e+01	3.1129	-3.374426	0.000164	1.637592	0.277416	0.000016
 315	3.1243e+01	3.1188	-3.347948	0.000266	2.661087	0.450800	0.000027
 316	3.1343e+01	3.1278	-3.326359	0.000217	2.169809	0.367576	0.000022
 317	3.1442e+01	3.1399	-3.306807	0.000197	1.965110	0.332899	0.000020
 318	3.1541e+01	3.1501	-3.288069	0.000188	1.883231	0.319028	0.000019
 319	3.1641e+01	3.1602	-3.268109	0.000201	2.006050	0.339834	0.000020
 320	3.1741e+01	3.1686	-3.245705	0.000225	2.251689	0.381446	0.000023
 321	3.1840e+01	3.1806	-3.224116	0.000217	2.169809	0.367576	0.000022
 322	3.1939e+01	3.1902	-3.200490	0.000237	2.374508	0.402253	0.000024
 323	3.2039e+01	3.1984	-3.183789	0.000168	1.678532	0.284351	0.000017
 324	3.2139e+01	3.2100	-3.163422	0.000205	2.046990	0.346769	0.000020
 325	3.2238e+01	3.2211	-3.141833	0.000217	2.169809	0.367576	0.000022
 326	3.2337e+01	3.2303	-3.124725	0.000172	1.719472	0.291286	0.000017
 327	3.2437e+01	3.2389	-3.106802	0.000180	1.801351	0.305157	0.000018
 328	3.2536e+01	3.2511	-3.082361	0.000246	2.456388	0.416123	0.000025
 329	3.2636e+01	3.2604	-3.058328	0.000242	2.415448	0.409188	0.000024
 330	3.2736e+01	3.2667	-3.042442	0.000160	1.596652	0.270480	0.000016
 331	3.2835e+01	3.2790	-3.019630	0.000229	2.292629	0.388382	0.000023
 332	3.2934e+01	3.2887	-2.999671	0.000201	2.006050	0.339834	0.000020
 333	3.3034e+01	3.2977	-2.980933	0.000188	1.883231	0.319028	0.000019
 334	3.3133e+01	3.3103	-2.957714	0.000233	2.333569	0.395317	0.000023
 335	3.3233e+01	3.3166	-2.941421	0.000164	1.637592	0.277416	0.000016
 336	3.3333e+01	3.3279	-2.921053	0.000205	2.046990	0.346769	0.000020
 337	3.3432e+01	3.3399	-2.900279	0.000209	2.087930	0.353705	0.000021
 338	3.3532e+01	3.3506	-2.881134	0.000192	1.924171	0.325963	0.000019
 339	3.3631e+01	3.3591	-2.858323	0.000229	2.292629	0.388382	0.000023
 340	3.3730e+01	3.3675	-2.845695	0.000127	1.269134	0.214997	0.000013
 341	3.3830e+01	3.3767	-2.825735	0.000201	2.006050	0.339834	0.000020
 342	3.3929e+01	3.3895	-2.805775	0.000201	2.006050	0.339834	0.000020
 343	3.4029e+01	3.3990	-2.787038	0.000188	1.883231	0.319028	0.000019
 344	3.4129e+01	3.4075	-2.768300	0.000188	1.883231	0.319028	0.000019
 345	3.4228e+01	3.4151	-2.747933	0.000205	2.046990	0.346769	0.000020
 346	3.4328e+01	3.4290	-2.731639	0.000164	1.637592	0.277416	0.000016
 347	3.4427e+01	3.4402	-2.709643	0.000221	2.210749	0.374511	0.000022
 348	3.4526e+01	3.4496	-2.692534	0.000172	1.719472	0.291286	0.000017
 349	3.4626e+01	3.4586	-2.676241	0.000164	1.637592	0.277416	0.000016
 350	3.4725e+01	3.4692	-2.657503	0.000188	1.883231	0.319028	0.000019
 351	3.4825e+01	3.4811	-2.634692	0.000229	2.292629	0.388382	0.000023
 352	3.4925e+01	3.4888	-2.620027	0.000147	1.473833	0.249674	0.000015
 353	3.5024e+01	3.4975	-2.597216	0.000229	2.292629	0.388382	0.000023
 354	3.5123e+01	3.5087	-2.585811	0.000115	1.146314	0.194191	0.000011
 355	3.5223e+01	3.5182	-2.562999	0.000229	2.292629	0.388382	0.000023
 356	3.5322e+01	3.5262	-2.543447	0.000197	1.965110	0.332899	0.000020
 357	3.5422e+01	3.5381	-2.525116	0.000184	1.842291	0.312093	0.000018
 358	3.5522e+01	3.5477	-2.503527	0.000217	2.169809	0.367576	0.000022
 359	3.5621e+01	3.5583	-2.483568	0.000201	2.006050	0.339834	0.000020
 360	3.5721e+01	3.5665	-2.467274	0.000164	1.637592	0.277416	0.000016
 361	3.5820e+01	3.5789	-2.447721	0.000197	1.965110	0.332899	0.000020
 362	3.5919e+01	3.5876	-2.431020	0.000168	1.678532	0.284351	0.000017
 363	3.6019e+01	3.5978	-2.413505	0.000176	1.760411	0.298222	0.000018
 364	3.6118e+01	3.6053	-2.391101	0.000225	2.251689	0.381446	0.000023
 365	3.6218e+01	3.6172	-2.373585	0.000176	1.760411	0.298222	0.000018
 366	3.6318e+01	3.6254	-2.354847	0.000188	1.883231	0.319028	0.000019
 367	3.6417e+01	3.6347	-2.335702	0.000192	1.924171	0.325963	0.000019
 368	3.6517e+01	3.6491	-2.317372	0.000184	1.842291	0.312093	0.000018
 369	3.6616e+01	3.6565	-2.298634	0.000188	1.883231	0.319028	0.000019
 370	3.6715e+01	3.6687	-2.277860	0.000209	2.087930	0.353705	0.000021
 371	3.6815e+01	3.6784	-2.260344	0.000176	1.760411	0.298222	0.000018
 372	3.6914e+01	3.6877	-2.235903	0.000246	2.456388	0.416123	0.000025
 373	3.7014e+01	3.6958	-2.219202	0.000168	1.678532	0.284351	0.000017
 374	3.7114e+01	3.7056	-2.199650	0.000197	1.965110	0.332899	0.000020
 375	3.7213e+01	3.7160	-2.182541	0.000172	1.719472	0.291286	0.000017
 376	3.7313e+01	3.7287	-2.161360	0.000213	2.128870	0.360640	0.000021
 377	3.7412e+01	3.7366	-2.140585	0.000209	2.087930	0.353705	0.000021
 378	3.7511e+01	3.7472	-2.124291	0.000164	1.637592	0.277416	0.000016
 379	3.7611e+01	3.7579	-2.101073	0.000233	2.333569	0.395317	0.000023
 380	3.7711e+01	3.7668	-2.081520	0.000197	1.965110	0.332899	0.000020
 381	3.7810e+01	3.7768	-2.061153	0.000205	2.046990	0.346769	0.000020
 382	3.7910e+01	3.7875	-2.042823	0.000184	1.842291	0.312093	0.000018
 383	3.8009e+01	3.7972	-2.020419	0.000225	2.251689	0.381446	0.000023
 384	3.8108e+01	3.8062	-1.998015	0.000225	2.251689	0.381446	0.000023
 385	3.8208e+01	3.8165	-1.978463	0.000197	1.965110	0.332899	0.000020
 386	3.8307e+01	3.8269	-1.956466	0.000221	2.210749	0.374511	0.000022
 387	3.8407e+01	3.8342	-1.933655	0.000229	2.292629	0.388382	0.000023
 388	3.8507e+01	3.8482	-1.915325	0.000184	1.842291	0.312093	0.000018
 389	3.8606e+01	3.8567	-1.892921	0.000225	2.251689	0.381446	0.000023
 390	3.8706e+01	3.8642	-1.873368	0.000197	1.965110	0.332899	0.000020
 391	3.8805e+01	3.8754	-1.849335	0.000242	2.415448	0.409188	0.000024
 392	3.8904e+01	3.8854	-1.831005	0.000184	1.842291	0.312093	0.000018
 393	3.9004e+01	3.8944	-1.807786	0.000233	2.333569	0.395317	0.000023
 394	3.9103e+01	3.9045	-1.785382	0.000225	2.251689	0.381446	0.000023
 395	3.9203e+01	3.9143	-1.766237	0.000192	1.924171	0.325963	0.000019
 396	3.9303e+01	3.9251	-1.745463	0.000209	2.087930	0.353705	0.000021
 397	3.9402e+01	3.9366	-1.723466	0.000221	2.210749	0.374511	0.000022
 398	3.9502e+01	3.9462	-1.698618	0.000250	2.497328	0.423059	0.000025
 399	3.9601e+01	3.9571	-1.677437	0.000213	2.128870	0.360640	0.000021
 400	3.9700e+01	3.9677	-1.654218	0.000233	2.333569	0.395317	0.000023
 401	3.9800e+01	3.9745	-1.634666	0.000197	1.965110	0.332899	0.000020
 402	3.9900e+01	3.9877	-1.611854	0.000229	2.292629	0.388382	0.000023
 403	3.9999e+01	3.9938	-1.591080	0.000209	2.087930	0.353705	0.000021
 404	4.0099e+01	4.0051	-1.569491	0.000217	2.169809	0.367576	0.000022
 405	4.0198e+01	4.0153	-1.546680	0.000229	2.292629	0.388382	0.000023
 406	4.0297e+01	4.0241	-1.529979	0.000168	1.678532	0.284351	0.000017
 407	4.0397e+01	4.0338	-1.505131	0.000250	2.497328	0.423059	0.000025
 408	4.0496e+01	4.0468	-1.483134	0.000221	2.210749	0.374511	0.000022
 409	4.0596e+01	4.0536	-1.460323	0.000229	2.292629	0.388382	0.000023
 410	4.0696e+01	4.0649	-1.437919	0.000225	2.251689	0.381446	0.000023
 411	4.0795e+01	4.0758	-1.414701	0.000233	2.333569	0.395317	0.000023
 412	4.0895e+01	4.0842	-1.395963	0.000188	1.883231	0.319028	0.000019
 413	4.0994e+01	4.0942	-1.373152	0.000229	2.292629	0.388382	0.000023
 414	4.1093e+01	4.1037	-1.347489	0.000258	2.579207	0.436930	0.000026
 415	4.1193e+01	4.1140	-1.331603	0.000160	1.596652	0.270480	0.000016
 416	4.1292e+01	4.1251	-1.305940	0.000258	2.579207	0.436930	0.000026
 417	4.1392e+01	4.1344	-1.285980	0.000201	2.006050	0.339834	0.000020
 418	4.1492e+01	4.1441	-1.261540	0.000246	2.456388	0.416123	0.000025
 419	4.1591e+01	4.1560	-1.238729	0.000229	2.292629	0.388382	0.000023
 420	4.1691e+01	4.1663	-1.216732	0.000221	2.210749	0.374511	0.000022
 421	4.1790e+01	4.1736	-1.195958	0.000209	2.087930	0.353705	0.000021
 422	4.1889e+01	4.1846	-1.173147	0.000229	2.292629	0.388382	0.000023
 423	4.1989e+01	4.1943	-1.151150	0.000221	2.210749	0.374511	0.000022
 424	4.2089e+01	4.2026	-1.125080	0.000262	2.620147	0.443865	0.000026
 425	4.2188e+01	4.2142	-1.100640	0.000246	2.456388	0.416123	0.000025
 426	4.2288e+01	4.2241	-1.078236	0.000225	2.251689	0.381446	0.000023
 427	4.2387e+01	4.2343	-1.057461	0.000209	2.087930	0.353705	0.000021
 428	4.2486e+01	4.2449	-1.030169	0.000274	2.742967	0.464671	0.000027
 429	4.2586e+01	4.2554	-1.009395	0.000209	2.087930	0.353705	0.000021
 430	4.2685e+01	4.2606	-0.985769	0.000237	2.374508	0.402253	0.000024
 431	4.2785e+01	4.2741	-0.962143	0.000237	2.374508	0.402253	0.000024
 432	4.2885e+01	4.2838	-0.940554	0.000217	2.169809	0.367576	0.000022
 433	4.2984e+01	4.2949	-0.916113	0.000246	2.456388	0.416123	0.000025
 434	4.3084e+01	4.3037	-0.888414	0.000278	2.783906	0.471607	0.000028
 435	4.3183e+01	4.3134	-0.867232	0.000213	2.128870	0.360640	0.000021
 436	4.3282e+01	4.3262	-0.844421	0.000229	2.292629	0.388382	0.000023
 437	4.3382e+01	4.3323	-0.822832	0.000217	2.169809	0.367576	0.000022
 438	4.3481e+01	4.3455	-0.802465	0.000205	2.046990	0.346769	0.000020
 439	4.3581e+01	4.3539	-0.775580	0.000270	2.702027	0.457736	0.000027
 440	4.3681e+01	4.3659	-0.754806	0.000209	2.087930	0.353705	0.000021
 441	4.3780e+01	4.3758	-0.733217	0.000217	2.169809	0.367576	0.000022
 442	4.3880e+01	4.3872	-0.707961	0.000254	2.538268	0.429994	0.000025
 443	4.3979e+01	4.3920	-0.692075	0.000160	1.596652	0.270480	0.000016
 444	4.4078e+01	4.4059	-0.661117	0.000311	3.111425	0.527090	0.000031
 445	4.4178e+01	4.4121	-0.640750	0.000205	2.046990	0.346769	0.000020
 446	4.4278e+01	4.4250	-0.619568	0.000213	2.128870	0.360640	0.000021
 447	4.4377e+01	4.4328	-0.593905	0.000258	2.579207	0.436930	0.000026
 448	4.4477e+01	4.4424	-0.571502	0.000225	2.251689	0.381446	0.000023
 449	4.4576e+01	4.4543	-0.549912	0.000217	2.169809	0.367576	0.000022
 450	4.4675e+01	4.4629	-0.526694	0.000233	2.333569	0.395317	0.000023
 451	4.4775e+01	4.4741	-0.505512	0.000213	2.128870	0.360640	0.000021
 452	4.4874e+01	4.4857	-0.482294	0.000233	2.333569	0.395317	0.000023
 453	4.4974e+01	4.4915	-0.457853	0.000246	2.456388	0.416123	0.000025
 454	4.5074e+01	4.5032	-0.436264	0.000217	2.169809	0.367576	0.000022
 455	4.5173e+01	4.5106	-0.415082	0.000213	2.128870	0.360640	0.000021
 456	4.5273e+01	4.5213	-0.392678	0.000225	2.251689	0.381446	0.000023
 457	4.5372e+01	4.5311	-0.368645	0.000242	2.415448	0.409188	0.000024
 458	4.5471e+01	4.5428	-0.347871	0.000209	2.087930	0.353705	0.000021
 459	4.5571e+01	4.5513	-0.323430	0.000246	2.456388	0.416123	0.000025
 460	4.5670e+01	4.5631	-0.300619	0.000229	2.292629	0.388382	0.000023
 461	4.5770e+01	4.5712	-0.279437	0.000213	2.128870	0.360640	0.000021
 462	4.5870e+01	4.5818	-0.254589	0.000250	2.497328	0.423059	0.000025
 463	4.5969e+01	4.5932	-0.233000	0.000217	2.169809	0.367576	0.000022
 464	4.6069e+01	4.6010	-0.214262	0.000188	1.883231	0.319028	0.000019
 465	4.6168e+01	4.6128	-0.194710	0.000197	1.965110	0.332899	0.000020
 466	4.6267e+01	4.6218	-0.172713	0.000221	2.210749	0.374511	0.000022
 467	4.6367e+01	4.6351	-0.153161	0.000197	1.965110	0.332899	0.000020
 468	4.6467e+01	4.6449	-0.134423	0.000188	1.883231	0.319028	0.000019
 469	4.6566e+01	4.6507	-0.110390	0.000242	2.415448	0.409188	0.000024
 470	4.6666e+01	4.6621	-0.094503	0.000160	1.596652	0.270480	0.000016
 471	4.6765e+01	4.6712	-0.070063	0.000246	2.456388	0.416123	0.000025
 472	4.6864e+01	4.6819	-0.050918	0.000192	1.924171	0.325963	0.000019
 473	4.6964e+01	4.6912	-0.030551	0.000205	2.046990	0.346769	0.000020
 474	4.7063e+01	4.7037	-0.006925	0.000237	2.374508	0.402253	0.000024
 475	4.7163e+01	4.7114	0.008147	0.000151	1.514773	0.256609	0.000015
 476	4.7263e+01	4.7196	0.029329	0.000213	2.128870	0.360640	0.000021
 477	4.7362e+01	4.7307	0.046437	0.000172	1.719472	0.291286	0.000017
 478	4.7462e+01	4.7402	0.067619	0.000213	2.128870	0.360640	0.000021
 479	4.7561e+01	4.7510	0.089615	0.000221	2.210749	0.374511	0.000022
 480	4.7660e+01	4.7601	0.107131	0.000176	1.760411	0.298222	0.000018
 481	4.7760e+01	4.7707	0.129535	0.000225	2.251689	0.381446	0.000023
 482	4.7859e+01	4.7820	0.143792	0.000143	1.432893	0.242739	0.000014
 483	4.7959e+01	4.7944	0.169047	0.000254	2.538268	0.429994	0.000025
 484	4.8059e+01	4.8006	0.183711	0.000147	1.473833	0.249674	0.000015
 485	4.8158e+01	4.8099	0.205708	0.000221	2.210749	0.374511	0.000022
 486	4.8258e+01	4.8226	0.224853	0.000192	1.924171	0.325963	0.000019
 487	4.8357e+01	4.8334	0.244406	0.000197	1.965110	0.332899	0.000020
 488	4.8456e+01	4.8399	0.265180	0.000209	2.087930	0.353705	0.000021
 489	4.8556e+01	4.8475	0.284732	0.000197	1.965110	0.332899	0.000020
 490	4.8656e+01	4.8593	0.302248	0.000176	1.760411	0.298222	0.000018
 491	4.8755e+01	4.8696	0.322615	0.000205	2.046990	0.346769	0.000020
 492	4.8855e+01	4.8803	0.342575	0.000201	2.006050	0.339834	0.000020
 493	4.8954e+01	4.8915	0.362942	0.000205	2.046990	0.346769	0.000020
 494	4.9053e+01	4.9012	0.384531	0.000217	2.169809	0.367576	0.000022
 495	4.9153e+01	4.9117	0.401232	0.000168	1.678532	0.284351	0.000017
 496	4.9252e+01	4.9234	0.417526	0.000164	1.637592	0.277416	0.000016
 497	4.9352e+01	4.9314	0.435857	0.000184	1.842291	0.312093	0.000018
 498	4.9452e+01	4.9415	0.457038	0.000213	2.128870	0.360640	0.000021
 499	4.9551e+01	4.9523	0.480257	0.000233	2.333569	0.395317	0.000023
 500	4.9651e+01	4.9610	0.494921	0.000147	1.473833	0.249674	0.000015
 501	4.9750e+01	4.9715	0.513252	0.000184	1.842291	0.312093	0.000018
 502	4.9849e+01	4.9821	0.532397	0.000192	1.924171	0.325963	0.000019
 503	4.9949e+01	4.9903	0.553986	0.000217	2.169809	0.367576	0.000022
 504	5.0048e+01	5.0008	0.571094	0.000172	1.719472	0.291286	0.000017
 505	5.0148e+01	5.0124	0.590647	0.000197	1.965110	0.332899	0.000020
 506	5.0248e+01	5.0233	0.608570	0.000180	1.801351	0.305157	0.000018
 507	5.0347e+01	5.0317	0.626086	0.000176	1.760411	0.298222	0.000018
 508	5.0447e+01	5.0408	0.644009	0.000180	1.801351	0.305157	0.000018
 509	5.0546e+01	5.0515	0.657451	0.000135	1.351013	0.228868	0.000014
 510	5.0645e+01	5.0602	0.675781	0.000184	1.842291	0.312093	0.000018
 511	5.0745e+01	5.0709	0.693297	0.000176	1.760411	0.298222	0.000018
 512	5.0844e+01	5.0780	0.712849	0.000197	1.965110	0.332899	0.000020
 513	5.0944e+01	5.0893	0.731180	0.000184	1.842291	0.312093	0.000018
 514	5.1044e+01	5.1008	0.751547	0.000205	2.046990	0.346769	0.000020
 515	5.1143e+01	5.1105	0.762545	0.000111	1.105375	0.187256	0.000011
 516	5.1242e+01	5.1208	0.782505	0.000201	2.006050	0.339834	0.000020
 517	5.1342e+01	5.1313	0.801243	0.000188	1.883231	0.319028	0.000019
 518	5.1441e+01	5.1383	0.818351	0.000172	1.719472	0.291286	0.000017
 519	5.1541e+01	5.1529	0.835460	0.000172	1.719472	0.291286	0.000017
 520	5.1641e+01	5.1586	0.848902	0.000135	1.351013	0.228868	0.000014
 521	5.1740e+01	5.1676	0.869676	0.000209	2.087930	0.353705	0.000021
 522	5.1840e+01	5.1774	0.884341	0.000147	1.473833	0.249674	0.000015
 523	5.1939e+01	5.1884	0.905115	0.000209	2.087930	0.353705	0.000021
 524	5.2038e+01	5.1992	0.922631	0.000176	1.760411	0.298222	0.000018
 525	5.2138e+01	5.2090	0.941776	0.000192	1.924171	0.325963	0.000019
 526	5.2237e+01	5.2180	0.958477	0.000168	1.678532	0.284351	0.000017
 527	5.2337e+01	5.2305	0.980474	0.000221	2.210749	0.374511	0.000022
 528	5.2437e+01	5.2394	0.994731	0.000143	1.432893	0.242739	0.000014
 529	5.2536e+01	5.2477	1.011839	0.000172	1.719472	0.291286	0.000017
 530	5.2636e+01	5.2590	1.027318	0.000156	1.555712	0.263545	0.000016
 531	5.2735e+01	5.2699	1.050129	0.000229	2.292629	0.388382	0.000023
 532	5.2834e+01	5.2789	1.063164	0.000131	1.310074	0.221932	0.000013
 533	5.2934e+01	5.2857	1.085161	0.000221	2.210749	0.374511	0.000022
 534	5.3033e+01	5.2988	1.103491	0.000184	1.842291	0.312093	0.000018
 535	5.3133e+01	5.3068	1.120192	0.000168	1.678532	0.284351	0.000017
 536	5.3233e+01	5.3176	1.137708	0.000176	1.760411	0.298222	0.000018
 537	5.3332e+01	5.3309	1.154816	0.000172	1.719472	0.291286	0.000017
 538	5.3431e+01	5.3384	1.176405	0.000217	2.169809	0.367576	0.000022
 539	5.3531e+01	5.3490	1.188626	0.000123	1.228194	0.208062	0.000012
 540	5.3630e+01	5.3582	1.211844	0.000233	2.333569	0.395317	0.000023
 541	5.3730e+01	5.3736	1.228545	0.000168	1.678532	0.284351	0.000017
 542	5.3830e+01	5.3779	1.248505	0.000201	2.006050	0.339834	0.000020
 543	5.3929e+01	5.3873	1.265206	0.000168	1.678532	0.284351	0.000017
 544	5.4029e+01	5.4012	1.283944	0.000188	1.883231	0.319028	0.000019
 545	5.4128e+01	5.4084	1.300237	0.000164	1.637592	0.277416	0.000016
 546	5.4227e+01	5.4193	1.316938	0.000168	1.678532	0.284351	0.000017
 547	5.4327e+01	5.4314	1.336491	0.000197	1.965110	0.332899	0.000020
 548	5.4426e+01	5.4362	1.355636	0.000192	1.924171	0.325963	0.000019
 549	5.4526e+01	5.4492	1.379669	0.000242	2.415448	0.409188	0.000024
 550	5.4626e+01	5.4548	1.395556	0.000160	1.596652	0.270480	0.000016
 551	5.4725e+01	5.4668	1.417959	0.000225	2.251689	0.381446	0.000023
 552	5.4825e+01	5.4766	1.436697	0.000188	1.883231	0.319028	0.000019
 553	5.4924e+01	5.4861	1.455842	0.000192	1.924171	0.325963	0.000019
 554	5.5023e+01	5.4949	1.475395	0.000197	1.965110	0.332899	0.000020
 555	5.5123e+01	5.5073	1.497391	0.000221	2.210749	0.374511	0.000022
 556	5.5222e+01	5.5170	1.518166	0.000209	2.087930	0.353705	0.000021
 557	5.5322e+01	5.5284	1.539755	0.000217	2.169809	0.367576	0.000022
 558	5.5422e+01	5.5376	1.557271	0.000176	1.760411	0.298222	0.000018
 559	5.5521e+01	5.5456	1.580489	0.000233	2.333569	0.395317	0.000023
 560	5.5620e+01	5.5581	1.601264	0.000209	2.087930	0.353705	0.000021
 561	5.5720e+01	5.5672	1.617965	0.000168	1.678532	0.284351	0.000017
 562	5.5819e+01	5.5795	1.637924	0.000201	2.006050	0.339834	0.000020
 563	5.5919e+01	5.5865	1.664809	0.000270	2.702027	0.457736	0.000027
 564	5.6019e+01	5.5978	1.678251	0.000135	1.351013	0.228868	0.000014
 565	5.6118e+01	5.6070	1.699840	0.000217	2.169809	0.367576	0.000022
 566	5.6218e+01	5.6154	1.719800	0.000201	2.006050	0.339834	0.000020
 567	5.6317e+01	5.6290	1.742611	0.000229	2.292629	0.388382	0.000023
 568	5.6416e+01	5.6374	1.762164	0.000197	1.965110	0.332899	0.000020
 569	5.6516e+01	5.6483	1.782938	0.000209	2.087930	0.353705	0.000021
 570	5.6615e+01	5.6582	1.804528	0.000217	2.169809	0.367576	0.000022
 571	5.6715e+01	5.6669	1.823265	0.000188	1.883231	0.319028	0.000019
 572	5.6815e+01	5.6757	1.844854	0.000217	2.169809	0.367576	0.000022
 573	5.6914e+01	5.6881	1.867258	0.000225	2.251689	0.381446	0.000023
 574	5.7014e+01	5.6988	1.881923	0.000147	1.473833	0.249674	0.000015
 575	5.7113e+01	5.7067	1.907993	0.000262	2.620147	0.443865	0.000026
 576	5.7212e+01	5.7168	1.929989	0.000221	2.210749	0.374511	0.000022
 577	5.7312e+01	5.7288	1.946690	0.000168	1.678532	0.284351	0.000017
 578	5.7411e+01	5.7349	1.969094	0.000225	2.251689	0.381446	0.000023
 579	5.7511e+01	5.7477	1.988239	0.000192	1.924171	0.325963	0.000019
 580	5.7611e+01	5.7546	2.006162	0.000180	1.801351	0.305157	0.000018
 581	5.7710e+01	5.7702	2.033047	0.000270	2.702027	0.457736	0.000027
 582	5.7809e+01	5.7741	2.053821	0.000209	2.087930	0.353705	0.000021
 583	5.7909e+01	5.7861	2.074188	0.000205	2.046990	0.346769	0.000020
 584	5.8008e+01	5.7973	2.093333	0.000192	1.924171	0.325963	0.000019
 585	5.8108e+01	5.8080	2.114923	0.000217	2.169809	0.367576	0.000022
 586	5.8208e+01	5.8163	2.140585	0.000258	2.579207	0.436930	0.000026
 587	5.8307e+01	5.8268	2.157693	0.000172	1.719472	0.291286	0.000017
 588	5.8407e+01	5.8355	2.178875	0.000213	2.128870	0.360640	0.000021
 589	5.8506e+01	5.8447	2.200057	0.000213	2.128870	0.360640	0.000021
 590	5.8605e+01	5.8543	2.215943	0.000160	1.596652	0.270480	0.000016
 591	5.8705e+01	5.8676	2.243235	0.000274	2.742967	0.464671	0.000027
 592	5.8804e+01	5.8739	2.268491	0.000254	2.538268	0.429994	0.000025
 593	5.8904e+01	5.8849	2.289265	0.000209	2.087930	0.353705	0.000021
 594	5.9004e+01	5.8950	2.314113	0.000250	2.497328	0.423059	0.000025
 595	5.9103e+01	5.9063	2.334888	0.000209	2.087930	0.353705	0.000021
 596	5.9203e+01	5.9141	2.357699	0.000229	2.292629	0.388382	0.000023
 597	5.9302e+01	5.9284	2.380103	0.000225	2.251689	0.381446	0.000023
 598	5.9401e+01	5.9333	2.403728	0.000237	2.374508	0.402253	0.000024
 599	5.9501e+01	5.9434	2.425725	0.000221	2.210749	0.374511	0.000022
 600	5.9600e+01	5.9563	2.443241	0.000176	1.760411	0.298222	0.000018
 601	5.9700e+01	5.9640	2.469311	0.000262	2.620147	0.443865	0.000026
 602	5.9800e+01	5.9766	2.492529	0.000233	2.333569	0.395317	0.000023
 603	5.9899e+01	5.9856	2.512489	0.000201	2.006050	0.339834	0.000020
 604	5.9998e+01	5.9933	2.532041	0.000197	1.965110	0.332899	0.000020
 605	6.0098e+01	6.0052	2.554445	0.000225	2.251689	0.381446	0.000023
 606	6.0197e+01	6.0168	2.577664	0.000233	2.333569	0.395317	0.000023
 607	6.0297e+01	6.0270	2.600882	0.000233	2.333569	0.395317	0.000023
 608	6.0397e+01	6.0345	2.618805	0.000180	1.801351	0.305157	0.000018
 609	6.0496e+01	6.0445	2.643246	0.000246	2.456388	0.416123	0.000025
 610	6.0596e+01	6.0551	2.665242	0.000221	2.210749	0.374511	0.000022
 611	6.0695e+01	6.0658	2.684795	0.000197	1.965110	0.332899	0.000020
 612	6.0794e+01	6.0761	2.710457	0.000258	2.579207	0.436930	0.000026
 613	6.0894e+01	6.0833	2.729602	0.000192	1.924171	0.325963	0.000019
 614	6.0993e+01	6.0943	2.751599	0.000221	2.210749	0.374511	0.000022
 615	6.1093e+01	6.1040	2.774003	0.000225	2.251689	0.381446	0.000023
 616	6.1193e+01	6.1166	2.795999	0.000221	2.210749	0.374511	0.000022
 617	6.1292e+01	6.1266	2.817588	0.000217	2.169809	0.367576	0.000022
 618	6.1392e+01	6.1364	2.838363	0.000209	2.087930	0.353705	0.000021
 619	6.1491e+01	6.1465	2.858323	0.000201	2.006050	0.339834	0.000020
 620	6.1590e+01	6.1530	2.881949	0.000237	2.374508	0.402253	0.000024
 621	6.1690e+01	6.1629	2.903130	0.000213	2.128870	0.360640	0.000021
 622	6.1789e+01	6.1733	2.926756	0.000237	2.374508	0.402253	0.000024
 623	6.1889e+01	6.1855	2.946309	0.000197	1.965110	0.332899	0.000020
 624	6.1989e+01	6.1935	2.969120	0.000229	2.292629	0.388382	0.000023
 625	6.2088e+01	6.2045	2.990302	0.000213	2.128870	0.360640	0.000021
 626	6.2188e+01	6.2167	3.009854	0.000197	1.965110	0.332899	0.000020
 627	6.2287e+01	6.2247	3.032665	0.000229	2.292629	0.388382	0.000023
 628	6.2386e+01	6.2341	3.055476	0.000229	2.292629	0.388382	0.000023
 629	6.2486e+01	6.2476	3.073807	0.000184	1.842291	0.312093	0.000018
 630	6.2586e+01	6.2562	3.096618	0.000229	2.292629	0.388382	0.000023
 631	6.2685e+01	6.2689	3.118207	0.000217	2.169809	0.367576	0.000022
 632	6.2785e+01	6.2740	3.139389	0.000213	2.128870	0.360640	0.000021
 633	6.2884e+01	6.2853	3.154053	0.000147	1.473833	0.249674	0.000015
 634	6.2983e+01	6.2939	3.175643	0.000217	2.169809	0.367576	0.000022
 635	6.3083e+01	6.3048	3.196417	0.000209	2.087930	0.353705	0.000021
 636	6.3182e+01	6.3122	3.216377	0.000201	2.006050	0.339834	0.000020
 637	6.3282e+01	6.3247	3.233078	0.000168	1.678532	0.284351	0.000017
 638	6.3382e+01	6.3393	3.251001	0.000180	1.801351	0.305157	0.000018
 639	6.3481e+01	6.3453	3.268924	0.000180	1.801351	0.305157	0.000018
 640	6.3581e+01	6.3526	3.287254	0.000184	1.842291	0.312093	0.000018
 641	6.3680e+01	6.3619	3.307214	0.000201	2.006050	0.339834	0.000020
 642	6.3779e+01	6.3712	3.326359	0.000192	1.924171	0.325963	0.000019
 643	6.3879e+01	6.3833	3.343875	0.000176	1.760411	0.298222	0.000018
 644	6.3978e+01	6.3937	3.366686	0.000229	2.292629	0.388382	0.000023
 645	6.4078e+01	6.4046	3.382165	0.000156	1.555712	0.263545	0.000016
 646	6.4177e+01	6.4123	3.402532	0.000205	2.046990	0.346769	0.000020
 647	6.4277e+01	6.4228	3.421677	0.000192	1.924171	0.325963	0.000019
 648	6.4376e+01	6.4317	3.437156	0.000156	1.555712	0.263545	0.000016
 649	6.4476e+01	6.4448	3.457931	0.000209	2.087930	0.353705	0.000021
 650	6.4576e+01	6.4512	3.477076	0.000192	1.924171	0.325963	0.000019
 651	6.4675e+01	6.4620	3.491740	0.000147	1.473833	0.249674	0.000015
 652	6.4775e+01	6.4735	3.512107	0.000205	2.046990	0.346769	0.000020
 653	6.4874e+01	6.4849	3.531253	0.000192	1.924171	0.325963	0.000019
 654	6.4974e+01	6.4940	3.550398	0.000192	1.924171	0.325963	0.000019
 655	6.5073e+01	6.5002	3.568321	0.000180	1.801351	0.305157	0.000018
 656	6.5172e+01	6.5141	3.588281	0.000201	2.006050	0.339834	0.000020
 657	6.5272e+01	6.5231	3.606204	0.000180	1.801351	0.305157	0.000018
 658	6.5371e+01	6.5365	3.624534	0.000184	1.842291	0.312093	0.000018
 659	6.5471e+01	6.5423	3.643679	0.000192	1.924171	0.325963	0.000019
 660	6.5570e+01	6.5516	3.660380	0.000168	1.678532	0.284351	0.000017
 661	6.5670e+01	6.5649	3.679933	0.000197	1.965110	0.332899	0.000020
 662	6.5769e+01	6.5739	3.698670	0.000188	1.883231	0.319028	0.000019
 663	6.5869e+01	6.5858	3.717001	0.000184	1.842291	0.312093	0.000018
 664	6.5969e+01	6.5923	3.732480	0.000156	1.555712	0.263545	0.000016
 665	6.6068e+01	6.6033	3.746329	0.000139	1.391953	0.235803	0.000014
 666	6.6168e+01	6.6129	3.769548	0.000233	2.333569	0.395317	0.000023
 667	6.6267e+01	6.6215	3.788286	0.000188	1.883231	0.319028	0.000019
 668	6.6367e+01	6.6314	3.807023	0.000188	1.883231	0.319028	0.000019
 669	6.6466e+01	6.6433	3.823317	0.000164	1.637592	0.277416	0.000016
 670	6.6566e+01	6.6523	3.843277	0.000201	2.006050	0.339834	0.000020
 671	6.6665e+01	6.6619	3.860793	0.000176	1.760411	0.298222	0.000018
 672	6.6764e+01	6.6729	3.878716	0.000180	1.801351	0.305157	0.000018
 673	6.6864e+01	6.6797	3.898268	0.000197	1.965110	0.332899	0.000020
 674	6.6963e+01	6.6926	3.913340	0.000151	1.514773	0.256609	0.000015
 675	6.7063e+01	6.7040	3.928004	0.000147	1.473833	0.249674	0.000015
 676	6.7162e+01	6.7110	3.944705	0.000168	1.678532	0.284351	0.000017
 677	6.7262e+01	6.7226	3.961814	0.000172	1.719472	0.291286	0.000017
 678	6.7362e+01	6.7312	3.978922	0.000172	1.719472	0.291286	0.000017
 679	6.7461e+01	6.7391	3.996030	0.000172	1.719472	0.291286	0.000017
 680	6.7561e+01	6.7507	4.013139	0.000172	1.719472	0.291286	0.000017
 681	6.7660e+01	6.7620	4.030247	0.000172	1.719472	0.291286	0.000017
 682	6.7760e+01	6.7697	4.043690	0.000135	1.351013	0.228868	0.000014
 683	6.7859e+01	6.7835	4.061205	0.000176	1.760411	0.298222	0.000018
 684	6.7959e+01	6.7928	4.080350	0.000192	1.924171	0.325963	0.000019
 685	6.8058e+01	6.8004	4.095015	0.000147	1.473833	0.249674	0.000015
 686	6.8157e+01	6.8105	4.110086	0.000151	1.514773	0.256609	0.000015
 687	6.8257e+01	6.8209	4.127195	0.000172	1.719472	0.291286	0.000017
 688	6.8356e+01	6.8313	4.142674	0.000156	1.555712	0.263545	0.000016
 689	6.8456e+01	6.8417	4.159782	0.000172	1.719472	0.291286	0.000017
 690	6.8555e+01	6.8514	4.177298	0.000176	1.760411	0.298222	0.000018
 691	6.8655e+01	6.8621	4.194406	0.000172	1.719472	0.291286	0.000017
 692	6.8754e+01	6.8745	4.209885	0.000156	1.555712	0.263545	0.000016
 693	6.8854e+01	6.8804	4.230252	0.000205	2.046990	0.346769	0.000020
 694	6.8954e+01	6.8909	4.248990	0.000188	1.883231	0.319028	0.000019
 695	6.9053e+01	6.9015	4.264062	0.000151	1.514773	0.256609	0.000015
 696	6.9153e+01	6.9118	4.278726	0.000147	1.473833	0.249674	0.000015
 697	6.9252e+01	6.9201	4.296649	0.000180	1.801351	0.305157	0.000018
 698	6.9352e+01	6.9292	4.313350	0.000168	1.678532	0.284351	0.000017
 699	6.9451e+01	6.9398	4.330459	0.000172	1.719472	0.291286	0.000017
 700	6.9550e+01	6.9494	4.346345	0.000160	1.596652	0.270480	0.000016
 701	6.9650e+01	6.9580	4.361417	0.000151	1.514773	0.256609	0.000015
 702	6.9749e+01	6.9723	4.382599	0.000213	2.128870	0.360640	0.000021
 703	6.9849e+01	6.9814	4.397670	0.000151	1.514773	0.256609	0.000015
 704	6.9948e+01	6.9927	4.416001	0.000184	1.842291	0.312093	0.000018
 705	7.0048e+01	6.9997	4.430258	0.000143	1.432893	0.242739	0.000014
 706	7.0147e+01	7.0074	4.451032	0.000209	2.087930	0.353705	0.000021
 707	7.0247e+01	7.0213	4.467733	0.000168	1.678532	0.284351	0.000017
 708	7.0347e+01	7.0318	4.488508	0.000209	2.087930	0.353705	0.000021
 709	7.0446e+01	7.0397	4.501543	0.000131	1.310074	0.221932	0.000013
 710	7.0546e+01	7.0484	4.519466	0.000180	1.801351	0.305157	0.000018
 711	7.0645e+01	7.0604	4.535352	0.000160	1.596652	0.270480	0.000016
 712	7.0745e+01	7.0692	4.554904	0.000197	1.965110	0.332899	0.000020
 713	7.0844e+01	7.0825	4.572827	0.000180	1.801351	0.305157	0.000018
 714	7.0944e+01	7.0898	4.588306	0.000156	1.555712	0.263545	0.000016
 715	7.1043e+01	7.1003	4.610303	0.000221	2.210749	0.374511	0.000022
 716	7.1142e+01	7.1086	4.627004	0.000168	1.678532	0.284351	0.000017
 717	7.1242e+01	7.1206	4.643298	0.000164	1.637592	0.277416	0.000016
 718	7.1341e+01	7.1297	4.664480	0.000213	2.128870	0.360640	0.000021
 719	7.1441e+01	7.1400	4.684847	0.000205	2.046990	0.346769	0.000020
 720	7.1540e+01	7.1478	4.703584	0.000188	1.883231	0.319028	0.000019
 721	7.1640e+01	7.1565	4.722730	0.000192	1.924171	0.325963	0.000019
 722	7.1740e+01	7.1697	4.741467	0.000188	1.883231	0.319028	0.000019
 723	7.1839e+01	7.1785	4.761020	0.000197	1.965110	0.332899	0.000020
 724	7.1939e+01	7.1916	4.780165	0.000192	1.924171	0.325963	0.000019
 725	7.2038e+01	7.2005	4.800939	0.000209	2.087930	0.353705	0.000021
 726	7.2138e+01	7.2082	4.820492	0.000197	1.965110	0.332899	0.000020
 727	7.2237e+01	7.2186	4.835563	0.000151	1.514773	0.256609	0.000015
 728	7.2337e+01	7.2277	4.858782	0.000233	2.333569	0.395317	0.000023
 729	7.2436e+01	7.2381	4.882000	0.000233	2.333569	0.395317	0.000023
 730	7.2535e+01	7.2494	4.896665	0.000147	1.473833	0.249674	0.000015
 731	7.2635e+01	7.2594	4.917847	0.000213	2.128870	0.360640	0.000021
 732	7.2734e+01	7.2697	4.938214	0.000205	2.046990	0.346769	0.000020
 733	7.2834e+01	7.2778	4.957766	0.000197	1.965110	0.332899	0.000020
 734	7.2933e+01	7.2928	4.978541	0.000209	2.087930	0.353705	0.000021
 735	7.3033e+01	7.2990	5.000945	0.000225	2.251689	0.381446	0.000023
 736	7.3132e+01	7.3077	5.016831	0.000160	1.596652	0.270480	0.000016
 737	7.3232e+01	7.3213	5.035569	0.000188	1.883231	0.319028	0.000019
 738	7.3332e+01	7.3301	5.057565	0.000221	2.210749	0.374511	0.000022
 739	7.3431e+01	7.3370	5.075896	0.000184	1.842291	0.312093	0.000018
 740	7.3531e+01	7.3489	5.098299	0.000225	2.251689	0.381446	0.000023
 741	7.3630e+01	7.3589	5.118667	0.000205	2.046990	0.346769	0.000020
 742	7.3730e+01	7.3705	5.138626	0.000201	2.006050	0.339834	0.000020
 743	7.3829e+01	7.3792	5.156142	0.000176	1.760411	0.298222	0.000018
 744	7.3928e+01	7.3872	5.178546	0.000225	2.251689	0.381446	0.000023
 745	7.4028e+01	7.3986	5.200135	0.000217	2.169809	0.367576	0.000022
 746	7.4127e+01	7.4072	5.219280	0.000192	1.924171	0.325963	0.000019
 747	7.4227e+01	7.4164	5.238833	0.000197	1.965110	0.332899	0.000020
 748	7.4326e+01	7.4280	5.258792	0.000201	2.006050	0.339834	0.000020
 749	7.4426e+01	7.4365	5.281604	0.000229	2.292629	0.388382	0.000023
 750	7.4525e+01	7.4477	5.299934	0.000184	1.842291	0.312093	0.000018
 751	7.4625e+01	7.4587	5.320708	0.000209	2.087930	0.353705	0.000021
 752	7.4725e+01	7.4673	5.341076	0.000205	2.046990	0.346769	0.000020
 753	7.4824e+01	7.4767	5.361850	0.000209	2.087930	0.353705	0.000021
 754	7.4924e+01	7.4889	5.380995	0.000192	1.924171	0.325963	0.000019
 755	7.5023e+01	7.4969	5.403399	0.000225	2.251689	0.381446	0.000023
 756	7.5123e+01	7.5074	5.423359	0.000201	2.006050	0.339834	0.000020
 757	7.5222e+01	7.5185	5.444133	0.000209	2.087930	0.353705	0.000021
 758	7.5322e+01	7.5274	5.471018	0.000270	2.702027	0.457736	0.000027
 759	7.5421e+01	7.5359	5.487312	0.000164	1.637592	0.277416	0.000016
 760	7.5520e+01	7.5488	5.509308	0.000221	2.210749	0.374511	0.000022
 761	7.5620e+01	7.5582	5.529675	0.000205	2.046990	0.346769	0.000020
 762	7.5719e+01	7.5671	5.552486	0.000229	2.292629	0.388382	0.000023
 763	7.5819e+01	7.5767	5.575705	0.000233	2.333569	0.395317	0.000023
 764	7.5918e+01	7.5879	5.597294	0.000217	2.169809	0.367576	0.000022
 765	7.6018e+01	7.5964	5.616439	0.000192	1.924171	0.325963	0.000019
 766	7.6118e+01	7.6074	5.638436	0.000221	2.210749	0.374511	0.000022
 767	7.6217e+01	7.6174	5.657988	0.000197	1.965110	0.332899	0.000020
 768	7.6317e+01	7.6278	5.684058	0.000262	2.620147	0.443865	0.000026
 769	7.6416e+01	7.6343	5.703610	0.000197	1.965110	0.332899	0.000020
 770	7.6516e+01	7.6439	5.726829	0.000233	2.333569	0.395317	0.000023
 771	7.6615e+01	7.6580	5.751269	0.000246	2.456388	0.416123	0.000025
 772	7.6715e+01	7.6685	5.771637	0.000205	2.046990	0.346769	0.000020
 773	7.6814e+01	7.6749	5.792818	0.000213	2.128870	0.360640	0.000021
 774	7.6913e+01	7.6884	5.811556	0.000188	1.883231	0.319028	0.000019
 775	7.7013e+01	7.6947	5.829887	0.000184	1.842291	0.312093	0.000018
 776	7.7112e+01	7.7053	5.851476	0.000217	2.169809	0.367576	0.000022
 777	7.7212e+01	7.7161	5.878768	0.000274	2.742967	0.464671	0.000027
 778	7.7311e+01	7.7276	5.899950	0.000213	2.128870	0.360640	0.000021
 779	7.7411e+01	7.7382	5.919502	0.000197	1.965110	0.332899	0.000020
 780	7.7510e+01	7.7461	5.942720	0.000233	2.333569	0.395317	0.000023
 781	7.7610e+01	7.7580	5.961458	0.000188	1.883231	0.319028	0.000019
 782	7.7710e+01	7.7647	5.983862	0.000225	2.251689	0.381446	0.000023
 783	7.7809e+01	7.7776	6.005044	0.000213	2.128870	0.360640	0.000021
 784	7.7909e+01	7.7866	6.026633	0.000217	2.169809	0.367576	0.000022
 785	7.8008e+01	7.7958	6.047815	0.000213	2.128870	0.360640	0.000021
 786	7.8108e+01	7.8081	6.071033	0.000233	2.333569	0.395317	0.000023
 787	7.8207e+01	7.8174	6.090178	0.000192	1.924171	0.325963	0.000019
 788	7.8306e+01	7.8255	6.106472	0.000164	1.637592	0.277416	0.000016
 789	7.8406e+01	7.8345	6.132542	0.000262	2.620147	0.443865	0.000026
 790	7.8505e+01	7.8459	6.153724	0.000213	2.128870	0.360640	0.000021
 791	7.8605e+01	7.8587	6.176128	0.000225	2.251689	0.381446	0.000023
 792	7.8704e+01	7.8671	6.198532	0.000225	2.251689	0.381446	0.000023
 793	7.8804e+01	7.8765	6.218084	0.000197	1.965110	0.332899	0.000020
 794	7.8903e+01	7.8858	6.239266	0.000213	2.128870	0.360640	0.000021
 795	7.9003e+01	7.8967	6.257596	0.000184	1.842291	0.312093	0.000018
 796	7.9103e+01	7.9062	6.280407	0.000229	2.292629	0.388382	0.000023
 797	7.9202e+01	7.9135	6.298738	0.000184	1.842291	0.312093	0.000018
 798	7.9302e+01	7.9241	6.321142	0.000225	2.251689	0.381446	0.000023
 799	7.9401e+01	7.9339	6.341101	0.000201	2.006050	0.339834	0.000020
 800	7.9501e+01	7.9454	6.358210	0.000172	1.719472	0.291286	0.000017
 801	7.9600e+01	7.9543	6.376948	0.000188	1.883231	0.319028	0.000019
 802	7.9700e+01	7.9643	6.400166	0.000233	2.333569	0.395317	0.000023
 803	7.9799e+01	7.9747	6.418497	0.000184	1.842291	0.312093	0.000018
 804	7.9898e+01	7.9877	6.433568	0.000151	1.514773	0.256609	0.000015
 805	7.9998e+01	7.9956	6.453935	0.000205	2.046990	0.346769	0.000020
 806	8.0097e+01	8.0031	6.474710	0.000209	2.087930	0.353705	0.000021
 807	8.0197e+01	8.0148	6.489782	0.000151	1.514773	0.256609	0.000015
 808	8.0296e+01	8.0249	6.511778	0.000221	2.210749	0.374511	0.000022
 809	8.0396e+01	8.0354	6.530923	0.000192	1.924171	0.325963	0.000019
 810	8.0496e+01	8.0445	6.550883	0.000201	2.006050	0.339834	0.000020
 811	8.0595e+01	8.0541	6.567177	0.000164	1.637592	0.277416	0.000016
 812	8.0695e+01	8.0650	6.584692	0.000176	1.760411	0.298222	0.000018
 813	8.0794e+01	8.0760	6.602615	0.000180	1.801351	0.305157	0.000018
 814	8.0894e+01	8.0834	6.619316	0.000168	1.678532	0.284351	0.000017
 815	8.0993e+01	8.0936	6.640091	0.000209	2.087930	0.353705	0.000021
 816	8.1093e+01	8.1045	6.659643	0.000197	1.965110	0.332899	0.000020
 817	8.1192e+01	8.1161	6.676344	0.000168	1.678532	0.284351	0.000017
 818	8.1291e+01	8.1207	6.693860	0.000176	1.760411	0.298222	0.000018
 819	8.1391e+01	8.1350	6.714227	0.000205	2.046990	0.346769	0.000020
 820	8.1490e+01	8.1447	6.731336	0.000172	1.719472	0.291286	0.000017
 821	8.1590e+01	8.1530	6.751703	0.000205	2.046990	0.346769	0.000020
 822	8.1689e+01	8.1666	6.772477	0.000209	2.087930	0.353705	0.000021
 823	8.1789e+01	8.1741	6.790400	0.000180	1.801351	0.305157	0.000018
 824	8.1888e+01	8.1831	6.807101	0.000168	1.678532	0.284351	0.000017
 825	8.1988e+01	8.1950	6.823802	0.000168	1.678532	0.284351	0.000017
 826	8.2088e+01	8.2022	6.841725	0.000180	1.801351	0.305157	0.000018
 827	8.2187e+01	8.2123	6.862093	0.000205	2.046990	0.346769	0.000020
 828	8.2287e+01	8.2240	6.879608	0.000176	1.760411	0.298222	0.000018
 829	8.2386e+01	8.2346	6.896309	0.000168	1.678532	0.284351	0.000017
 830	8.2486e+01	8.2442	6.916269	0.000201	2.006050	0.339834	0.000020
 831	8.2585e+01	8.2536	6.933785	0.000176	1.760411	0.298222	0.000018
 832	8.2684e+01	8.2617	6.952523	0.000188	1.883231	0.319028	0.000019
 833	8.2784e+01	8.2745	6.970038	0.000176	1.760411	0.298222	0.000018
 834	8.2883e+01	8.2801	6.988776	0.000188	1.883231	0.319028	0.000019
 835	8.2983e+01	8.2899	7.004255	0.000156	1.555712	0.263545	0.000016
 836	8.3082e+01	8.3048	7.020549	0.000164	1.637592	0.277416	0.000016
 837	8.3182e+01	8.3125	7.043360	0.000229	2.292629	0.388382	0.000023
 838	8.3281e+01	8.3231	7.058432	0.000151	1.514773	0.256609	0.000015
 839	8.3381e+01	8.3338	7.076355	0.000180	1.801351	0.305157	0.000018
 840	8.3481e+01	8.3429	7.093056	0.000168	1.678532	0.284351	0.000017
 841	8.3580e+01	8.3521	7.110572	0.000176	1.760411	0.298222	0.000018
 842	8.3680e+01	8.3618	7.128087	0.000176	1.760411	0.298222	0.000018
 843	8.3779e+01	8.3729	7.143974	0.000160	1.596652	0.270480	0.000016
 844	8.3879e+01	8.3816	7.158638	0.000147	1.473833	0.249674	0.000015
 845	8.3978e+01	8.3939	7.176968	0.000184	1.842291	0.312093	0.000018
 846	8.4078e+01	8.4019	7.190411	0.000135	1.351013	0.228868	0.000014
 847	8.4177e+01	8.4131	7.209148	0.000188	1.883231	0.319028	0.000019
 848	8.4276e+01	8.4238	7.225442	0.000164	1.637592	0.277416	0.000016
 849	8.4376e+01	8.4314	7.244995	0.000197	1.965110	0.332899	0.000020
 850	8.4475e+01	8.4424	7.258844	0.000139	1.391953	0.235803	0.000014
 851	8.4575e+01	8.4543	7.276767	0.000180	1.801351	0.305157	0.000018
 852	8.4674e+01	8.4626	7.294283	0.000176	1.760411	0.298222	0.000018
 853	8.4774e+01	8.4701	7.310984	0.000168	1.678532	0.284351	0.000017
 854	8.4874e+01	8.4818	7.328093	0.000172	1.719472	0.291286	0.000017
 855	8.4973e+01	8.4918	7.339905	0.000119	1.187254	0.201126	0.000012
 856	8.5073e+01	8.5022	7.359458	0.000197	1.965110	0.332899	0.000020
 857	8.5172e+01	8.5145	7.376974	0.000176	1.760411	0.298222	0.000018
 858	8.5272e+01	8.5233	7.391638	0.000147	1.473833	0.249674	0.000015
 859	8.5371e+01	8.5303	7.407524	0.000160	1.596652	0.270480	0.000016
 860	8.5471e+01	8.5410	7.427077	0.000197	1.965110	0.332899	0.000020
 861	8.5570e+01	8.5536	7.440519	0.000135	1.351013	0.228868	0.000014
 862	8.5669e+01	8.5618	7.458849	0.000184	1.842291	0.312093	0.000018
 863	8.5769e+01	8.5720	7.477180	0.000184	1.842291	0.312093	0.000018
 864	8.5868e+01	8.5840	7.495918	0.000188	1.883231	0.319028	0.000019
 865	8.5968e+01	8.5923	7.512619	0.000168	1.678532	0.284351	0.000017
 866	8.6067e+01	8.6003	7.528098	0.000156	1.555712	0.263545	0.000016
 867	8.6167e+01	8.6115	7.544799	0.000168	1.678532	0.284351	0.000017
 868	8.6266e+01	8.6210	7.564759	0.000201	2.006050	0.339834	0.000020
 869	8.6366e+01	8.6329	7.576979	0.000123	1.228194	0.208062	0.000012
 870	8.6466e+01	8.6438	7.594087	0.000172	1.719472	0.291286	0.000017
 871	8.6565e+01	8.6528	7.613640	0.000197	1.965110	0.332899	0.000020
 872	8.6665e+01	8.6628	7.634414	0.000209	2.087930	0.353705	0.000021
 873	8.6764e+01	8.6701	7.652745	0.000184	1.842291	0.312093	0.000018
 874	8.6864e+01	8.6822	7.669853	0.000172	1.719472	0.291286	0.000017
 875	8.6963e+01	8.6915	7.683295	0.000135	1.351013	0.228868	0.000014
 876	8.7063e+01	8.7022	7.702440	0.000192	1.924171	0.325963	0.000019
 877	8.7162e+01	8.7135	7.716290	0.000139	1.391953	0.235803	0.000014
 878	8.7261e+01	8.7212	7.737064	0.000209	2.087930	0.353705	0.000021
 879	8.7361e+01	8.7331	7.754173	0.000172	1.719472	0.291286	0.000017
 880	8.7460e+01	8.7439	7.774540	0.000205	2.046990	0.346769	0.000020
 881	8.7560e+01	8.7515	7.790834	0.000164	1.637592	0.277416	0.000016
 882	8.7659e+01	8.7622	7.810386	0.000197	1.965110	0.332899	0.000020
 883	8.7759e+01	8.7717	7.827902	0.000176	1.760411	0.298222	0.000018
 884	8.7859e+01	8.7782	7.849084	0.000213	2.128870	0.360640	0.000021
 885	8.7958e+01	8.7903	7.865785	0.000168	1.678532	0.284351	0.000017
 886	8.8058e+01	8.8063	7.884522	0.000188	1.883231	0.319028	0.000019
 887	8.8157e+01	8.8116	7.903668	0.000192	1.924171	0.325963	0.000019
 888	8.8257e+01	8.8199	7.923627	0.000201	2.006050	0.339834	0.000020
 889	8.8356e+01	8.8299	7.944809	0.000213	2.128870	0.360640	0.000021
 890	8.8456e+01	8.8391	7.959881	0.000151	1.514773	0.256609	0.000015
 891	8.8555e+01	8.8484	7.981470	0.000217	2.169809	0.367576	0.000022
 892	8.8654e+01	8.8596	8.000615	0.000192	1.924171	0.325963	0.000019
 893	8.8754e+01	8.8708	8.017723	0.000172	1.719472	0.291286	0.000017
 894	8.8853e+01	8.8785	8.039313	0.000217	2.169809	0.367576	0.000022
 895	8.8953e+01	8.8907	8.060902	0.000217	2.169809	0.367576	0.000022
 896	8.9052e+01	8.9007	8.081269	0.000205	2.046990	0.346769	0.000020
 897	8.9152e+01	8.9120	8.099599	0.000184	1.842291	0.312093	0.000018
 898	8.9251e+01	8.9210	8.120374	0.000209	2.087930	0.353705	0.000021
 899	8.9351e+01	8.9294	8.140741	0.000205	2.046990	0.346769	0.000020
 900	8.9451e+01	8.9391	8.160701	0.000201	2.006050	0.339834	0.000020
 901	8.9550e+01	8.9502	8.181882	0.000213	2.128870	0.360640	0.000021
 902	8.9650e+01	8.9583	8.205508	0.000237	2.374508	0.402253	0.000024
 903	8.9749e+01	8.9697	8.224653	0.000192	1.924171	0.325963	0.000019
 904	8.9849e+01	8.9767	8.242169	0.000176	1.760411	0.298222	0.000018
 905	8.9948e+01	8.9885	8.259278	0.000172	1.719472	0.291286	0.000017
 906	9.0047e+01	9.0002	8.282903	0.000237	2.374508	0.402253	0.000024
 907	9.0147e+01	9.0091	8.305715	0.000229	2.292629	0.388382	0.000023
 908	9.0246e+01	9.0174	8.325267	0.000197	1.965110	0.332899	0.000020
 909	9.0346e+01	9.0302	8.346042	0.000209	2.087930	0.353705	0.000021
 910	9.0445e+01	9.0375	8.367631	0.000217	2.169809	0.367576	0.000022
 911	9.0545e+01	9.0479	8.383924	0.000164	1.637592	0.277416	0.000016
 912	9.0644e+01	9.0591	8.407143	0.000233	2.333569	0.395317	0.000023
 913	9.0744e+01	9.0689	8.426288	0.000192	1.924171	0.325963	0.000019
 914	9.0844e+01	9.0787	8.446655	0.000205	2.046990	0.346769	0.000020
 915	9.0943e+01	9.0903	8.469466	0.000229	2.292629	0.388382	0.000023
 916	9.1043e+01	9.1000	8.490241	0.000209	2.087930	0.353705	0.000021
 917	9.1142e+01	9.1086	8.512237	0.000221	2.210749	0.374511	0.000022
 918	9.1242e+01	9.1187	8.532197	0.000201	2.006050	0.339834	0.000020
 919	9.1341e+01	9.1279	8.550935	0.000188	1.883231	0.319028	0.000019
 920	9.1441e+01	9.1406	8.572524	0.000217	2.169809	0.367576	0.000022
 921	9.1540e+01	9.1485	8.594520	0.000221	2.210749	0.374511	0.000022
 922	9.1639e+01	9.1590	8.615295	0.000209	2.087930	0.353705	0.000021
 923	9.1739e+01	9.1708	8.638513	0.000233	2.333569	0.395317	0.000023
 924	9.1838e+01	9.1797	8.658473	0.000201	2.006050	0.339834	0.000020
 925	9.1938e+01	9.1895	8.679248	0.000209	2.087930	0.353705	0.000021
 926	9.2037e+01	9.1995	8.704503	0.000254	2.538268	0.429994	0.000025
 927	9.2137e+01	9.2085	8.727314	0.000229	2.292629	0.388382	0.000023
 928	9.2237e+01	9.2181	8.748903	0.000217	2.169809	0.367576	0.000022
 929	9.2336e+01	9.2273	8.770492	0.000217	2.169809	0.367576	0.000022
 930	9.2436e+01	9.2374	8.793304	0.000229	2.292629	0.388382	0.000023
 931	9.2535e+01	9.2486	8.816115	0.000229	2.292629	0.388382	0.000023
 932	9.2635e+01	9.2605	8.838111	0.000221	2.210749	0.374511	0.000022
 933	9.2734e+01	9.2700	8.855627	0.000176	1.760411	0.298222	0.000018
 934	9.2834e+01	9.2783	8.884141	0.000287	2.865786	0.485477	0.000029
 935	9.2933e+01	9.2859	8.903286	0.000192	1.924171	0.325963	0.000019
 936	9.3032e+01	9.2981	8.926097	0.000229	2.292629	0.388382	0.000023
 937	9.3132e+01	9.3059	8.948909	0.000229	2.292629	0.388382	0.000023
 938	9.3231e+01	9.3207	8.974164	0.000254	2.538268	0.429994	0.000025
 939	9.3331e+01	9.3293	8.997382	0.000233	2.333569	0.395317	0.000023
 940	9.3430e+01	9.3372	9.019786	0.000225	2.251689	0.381446	0.000023
 941	9.3530e+01	9.3501	9.040561	0.000209	2.087930	0.353705	0.000021
 942	9.3629e+01	9.3575	9.060928	0.000205	2.046990	0.346769	0.000020
 943	9.3729e+01	9.3665	9.081702	0.000209	2.087930	0.353705	0.000021
 944	9.3829e+01	9.3758	9.106550	0.000250	2.497328	0.423059	0.000025
 945	9.3928e+01	9.3878	9.127325	0.000209	2.087930	0.353705	0.000021
 946	9.4028e+01	9.3987	9.149321	0.000221	2.210749	0.374511	0.000022
 947	9.4127e+01	9.4094	9.170503	0.000213	2.128870	0.360640	0.000021
 948	9.4227e+01	9.4141	9.196980	0.000266	2.661087	0.450800	0.000027
 949	9.4326e+01	9.4269	9.219384	0.000225	2.251689	0.381446	0.000023
 950	9.4425e+01	9.4360	9.240973	0.000217	2.169809	0.367576	0.000022
 951	9.4525e+01	9.4461	9.265414	0.000246	2.456388	0.416123	0.000025
 952	9.4624e+01	9.4588	9.287410	0.000221	2.210749	0.374511	0.000022
 953	9.4724e+01	9.4639	9.311036	0.000237	2.374508	0.402253	0.000024
 954	9.4823e+01	9.4784	9.332218	0.000213	2.128870	0.360640	0.000021
 955	9.4923e+01	9.4849	9.353807	0.000217	2.169809	0.367576	0.000022
 956	9.5022e+01	9.4971	9.376211	0.000225	2.251689	0.381446	0.000023
 957	9.5122e+01	9.5056	9.399837	0.000237	2.374508	0.402253	0.000024
 958	9.5222e+01	9.5151	9.420611	0.000209	2.087930	0.353705	0.000021
 959	9.5321e+01	9.5283	9.444644	0.000242	2.415448	0.409188	0.000024
 960	9.5421e+01	9.5356	9.469085	0.000246	2.456388	0.416123	0.000025
 961	9.5520e+01	9.5464	9.489859	0.000209	2.087930	0.353705	0.000021
 962	9.5620e+01	9.5563	9.510634	0.000209	2.087930	0.353705	0.000021
 963	9.5719e+01	9.5672	9.532630	0.000221	2.210749	0.374511	0.000022
 964	9.5819e+01	9.5776	9.558700	0.000262	2.620147	0.443865	0.000026
 965	9.5918e+01	9.5868	9.577845	0.000192	1.924171	0.325963	0.000019
 966	9.6017e+01	9.5959	9.602693	0.000250	2.497328	0.423059	0.000025
 967	9.6117e+01	9.6094	9.619802	0.000172	1.719472	0.291286	0.000017
 968	9.6216e+01	9.6143	9.643835	0.000242	2.415448	0.409188	0.000024
 969	9.6316e+01	9.6272	9.662573	0.000188	1.883231	0.319028	0.000019
 970	9.6415e+01	9.6362	9.689865	0.000274	2.742967	0.464671	0.000027
 971	9.6515e+01	9.6460	9.707788	0.000180	1.801351	0.305157	0.000018
 972	9.6615e+01	9.6553	9.729377	0.000217	2.169809	0.367576	0.000022
 973	9.6714e+01	9.6639	9.747707	0.000184	1.842291	0.312093	0.000018
 974	9.6814e+01	9.6741	9.770111	0.000225	2.251689	0.381446	0.000023
 975	9.6913e+01	9.6838	9.789664	0.000197	1.965110	0.332899	0.000020
 976	9.7013e+01	9.6938	9.808809	0.000192	1.924171	0.325963	0.000019
 977	9.7112e+01	9.7056	9.827139	0.000184	1.842291	0.312093	0.000018
 978	9.7212e+01	9.7144	9.847099	0.000201	2.006050	0.339834	0.000020
 979	9.7311e+01	9.7257	9.871539	0.000246	2.456388	0.416123	0.000025
 980	9.7410e+01	9.7346	9.888648	0.000172	1.719472	0.291286	0.000017
 981	9.7510e+01	9.7453	9.907386	0.000188	1.883231	0.319028	0.000019
 982	9.7609e+01	9.7569	9.928567	0.000213	2.128870	0.360640	0.000021
 983	9.7709e+01	9.7649	9.948934	0.000205	2.046990	0.346769	0.000020
 984	9.7808e+01	9.7726	9.968080	0.000192	1.924171	0.325963	0.000019
 985	9.7908e+01	9.7830	9.990483	0.000225	2.251689	0.381446	0.000023
 986	9.8007e+01	9.7939	10.010036	0.000197	1.965110	0.332899	0.000020
 987	9.8107e+01	9.8062	10.032847	0.000229	2.292629	0.388382	0.000023
 988	9.8207e+01	9.8124	10.052807	0.000201	2.006050	0.339834	0.000020
 989	9.8306e+01	9.8242	10.074396	0.000217	2.169809	0.367576	0.000022
 990	9.8406e+01	9.8348	10.097207	0.000229	2.292629	0.388382	0.000023
 991	9.8505e+01	9.8438	10.117167	0.000201	2.006050	0.339834	0.000020
 992	9.8605e+01	9.8560	10.137941	0.000209	2.087930	0.353705	0.000021
 993	9.8704e+01	9.8654	10.158716	0.000209	2.087930	0.353705	0.000021
 994	9.8803e+01	9.8749	10.178268	0.000197	1.965110	0.332899	0.000020
 995	9.8903e+01	9.8811	10.199857	0.000217	2.169809	0.367576	0.000022
 996	9.9002e+01	9.8950	10.220225	0.000205	2.046990	0.346769	0.000020
 997	9.9102e+01	9.9040	10.238555	0.000184	1.842291	0.312093	0.000018
 998	9.9201e+01	9.9128	10.259737	0.000213	2.128870	0.360640	0.000021
 999	9.9301e+01	9.9243	10.284177	0.000246	2.456388	0.416123	0.000025
1000	9.9400e+01	9.9372	10.301693	0.000176	1.760411	0.298222	0.000018
1001	9.9500e+01	9.9445	10.324912	0.000233	2.333569	0.395317	0.000023
1002	9.9600e+01	9.9530	10.349352	0.000246	2.456388	0.416123	0.000025
1003	9.9699e+01	9.9638	10.365239	0.000160	1.596652	0.270480	0.000016
1004	9.9799e+01	9.9731	10.386420	0.000213	2.128870	0.360640	0.000021
1005	9.9898e+01	9.9839	10.406380	0.000201	2.006050	0.339834	0.000020
1006	9.9998e+01	9.9937	10.425933	0.000197	1.965110	0.332899	0.000020
1007	1.0010e+02	9.9854	10.416156	0.000098	0.982555	0.166449	-0.000010
1008	1.0020e+02	9.9735	10.403121	0.000131	1.310074	0.221932	-0.000013
1009	1.0030e+02	9.9646	10.388457	0.000147	1.473833	0.249674	-0.000015
1010	1.0040e+02	9.9525	10.378274	0.000102	1.023495	0.173385	-0.000010
1011	1.0050e+02	9.9454	10.365646	0.000127	1.269134	0.214997	-0.000013
1012	1.0059e+02	9.9344	10.351796	0.000139	1.391953	0.235803	-0.000014
1013	1.0069e+02	9.9244	10.341205	0.000106	1.064435	0.180320	-0.000011
1014	1.0079e+02	9.9135	10.326134	0.000151	1.514773	0.256609	-0.000015
1015	1.0089e+02	9.9036	10.313099	0.000131	1.310074	0.221932	-0.000013
1016	1.0099e+02	9.8941	10.299656	0.000135	1.351013	0.228868	-0.000014
1017	1.0109e+02	9.8847	10.284992	0.000147	1.473833	0.249674	-0.000015
1018	1.0119e+02	9.8756	10.273179	0.000119	1.187254	0.201126	-0.000012
1019	1.0129e+02	9.8605	10.260144	0.000131	1.310074	0.221932	-0.000013
1020	1.0139e+02	9.8566	10.249553	0.000106	1.064435	0.180320	-0.000011
1021	1.0149e+02	9.8449	10.235704	0.000139	1.391953	0.235803	-0.000014
1022	1.0159e+02	9.8368	10.217373	0.000184	1.842291	0.312093	-0.000018
1023	1.0169e+02	9.8254	10.205968	0.000115	1.146314	0.194191	-0.000011
1024	1.0179e+02	9.8145	10.195377	0.000106	1.064435	0.180320	-0.000011
1025	1.0189e+02	9.8051	10.181527	0.000139	1.391953	0.235803	-0.000014
1026	1.0199e+02	9.7941	10.165233	0.000164	1.637592	0.277416	-0.000016
1027	1.0209e+02	9.7885	10.154642	0.000106	1.064435	0.180320	-0.000011
1028	1.0219e+02	9.7760	10.143237	0.000115	1.146314	0.194191	-0.000011
1029	1.0229e+02	9.7644	10.125721	0.000176	1.760411	0.298222	-0.000018
1030	1.0239e+02	9.7534	10.114316	0.000115	1.146314	0.194191	-0.000011
1031	1.0248e+02	9.7471	10.098429	0.000160	1.596652	0.270480	-0.000016
1032	1.0258e+02	9.7355	10.087431	0.000111	1.105375	0.187256	-0.000011
1033	1.0268e+02	9.7237	10.073174	0.000143	1.432893	0.242739	-0.000014
1034	1.0278e+02	9.7150	10.058102	0.000151	1.514773	0.256609	-0.000015
1035	1.0288e+02	9.7054	10.043845	0.000143	1.432893	0.242739	-0.000014
1036	1.0298e+02	9.6949	10.026737	0.000172	1.719472	0.291286	-0.000017
1037	1.0308e+02	9.6844	10.013295	0.000135	1.351013	0.228868	-0.000014
1038	1.0318e+02	9.6742	10.002704	0.000106	1.064435	0.180320	-0.000011
1039	1.0328e+02	9.6659	9.987632	0.000151	1.514773	0.256609	-0.000015
1040	1.0338e+02	9.6554	9.975004	0.000127	1.269134	0.214997	-0.000013
1041	1.0348e+02	9.6436	9.966858	0.000082	0.818796	0.138708	-0.000008
1042	1.0358e+02	9.6375	9.951786	0.000151	1.514773	0.256609	-0.000015
1043	1.0368e+02	9.6252	9.935085	0.000168	1.678532	0.284351	-0.000017
1044	1.0378e+02	9.6152	9.920420	0.000147	1.473833	0.249674	-0.000015
1045	1.0388e+02	9.6042	9.902497	0.000180	1.801351	0.305157	-0.000018
1046	1.0398e+02	9.5932	9.889462	0.000131	1.310074	0.221932	-0.000013
1047	1.0408e+02	9.5872	9.883760	0.000057	0.573157	0.097095	-0.000006
1048	1.0418e+02	9.5760	9.865022	0.000188	1.883231	0.319028	-0.000019
1049	1.0428e+02	9.5667	9.847506	0.000176	1.760411	0.298222	-0.000018
1050	1.0438e+02	9.5547	9.843025	0.000045	0.450338	0.076289	-0.000005
1051	1.0447e+02	9.5449	9.827139	0.000160	1.596652	0.270480	-0.000016
1052	1.0457e+02	9.5368	9.815733	0.000115	1.146314	0.194191	-0.000011
1053	1.0467e+02	9.5277	9.804328	0.000115	1.146314	0.194191	-0.000011
1054	1.0477e+02	9.5183	9.789664	0.000147	1.473833	0.249674	-0.000015
1055	1.0487e+02	9.5044	9.777036	0.000127	1.269134	0.214997	-0.000013
1056	1.0497e+02	9.4977	9.763594	0.000135	1.351013	0.228868	-0.000014
1057	1.0507e+02	9.4888	9.751373	0.000123	1.228194	0.208062	-0.000012
1058	1.0517e+02	9.4744	9.739153	0.000123	1.228194	0.208062	-0.000012
1059	1.0527e+02	9.4647	9.724081	0.000151	1.514773	0.256609	-0.000015
1060	1.0537e+02	9.4570	9.713083	0.000111	1.105375	0.187256	-0.000011
1061	1.0547e+02	9.4456	9.702085	0.000111	1.105375	0.187256	-0.000011
1062	1.0557e+02	9.4367	9.685791	0.000164	1.637592	0.277416	-0.000016
1063	1.0567e+02	9.4245	9.678459	0.000074	0.736916	0.124837	-0.000007
1064	1.0577e+02	9.4156	9.665017	0.000135	1.351013	0.228868	-0.000014
1065	1.0587e+02	9.4067	9.650760	0.000143	1.432893	0.242739	-0.000014
1066	1.0597e+02	9.3981	9.636910	0.000139	1.391953	0.235803	-0.000014
1067	1.0607e+02	9.3855	9.623875	0.000131	1.310074	0.221932	-0.000013
1068	1.0617e+02	9.3775	9.612062	0.000119	1.187254	0.201126	-0.000012
1069	1.0627e+02	9.3693	9.600657	0.000115	1.146314	0.194191	-0.000011
1070	1.0637e+02	9.3613	9.590880	0.000098	0.982555	0.166449	-0.000010
1071	1.0647e+02	9.3488	9.574179	0.000168	1.678532	0.284351	-0.000017
1072	1.0656e+02	9.3367	9.563181	0.000111	1.105375	0.187256	-0.000011
1073	1.0666e+02	9.3262	9.546480	0.000168	1.678532	0.284351	-0.000017
1074	1.0676e+02	9.3176	9.534260	0.000123	1.228194	0.208062	-0.000012
1075	1.0686e+02	9.3092	9.520817	0.000135	1.351013	0.228868	-0.000014
1076	1.0696e+02	9.2947	9.510634	0.000102	1.023495	0.173385	-0.000010
1077	1.0706e+02	9.2877	9.497192	0.000135	1.351013	0.228868	-0.000014
1078	1.0716e+02	9.2798	9.482120	0.000151	1.514773	0.256609	-0.000015
1079	1.0726e+02	9.2707	9.471936	0.000102	1.023495	0.173385	-0.000010
1080	1.0736e+02	9.2537	9.458087	0.000139	1.391953	0.235803	-0.000014
1081	1.0746e+02	9.2487	9.446274	0.000119	1.187254	0.201126	-0.000012
1082	1.0756e+02	9.2383	9.433239	0.000131	1.310074	0.221932	-0.000013
1083	1.0766e+02	9.2266	9.416945	0.000164	1.637592	0.277416	-0.000016
1084	1.0776e+02	9.2172	9.401873	0.000151	1.514773	0.256609	-0.000015
1085	1.0786e+02	9.2080	9.393727	0.000082	0.818796	0.138708	-0.000008
1086	1.0796e+02	9.1999	9.380692	0.000131	1.310074	0.221932	-0.000013
1087	1.0806e+02	9.1899	9.366027	0.000147	1.473833	0.249674	-0.000015
1088	1.0816e+02	9.1800	9.354214	0.000119	1.187254	0.201126	-0.000012
1089	1.0826e+02	9.1687	9.338735	0.000156	1.555712	0.263545	-0.000016
1090	1.0836e+02	9.1592	9.325293	0.000135	1.351013	0.228868	-0.000014
1091	1.0845e+02	9.1487	9.313480	0.000119	1.187254	0.201126	-0.000012
1092	1.0855e+02	9.1418	9.302075	0.000115	1.146314	0.194191	-0.000011
1093	1.0865e+02	9.1312	9.290669	0.000115	1.146314	0.194191	-0.000011
1094	1.0875e+02	9.1165	9.278449	0.000123	1.228194	0.208062	-0.000012
1095	1.0885e+02	9.1075	9.267043	0.000115	1.146314	0.194191	-0.000011
1096	1.0895e+02	9.0976	9.254415	0.000127	1.269134	0.214997	-0.000013
1097	1.0905e+02	9.0903	9.245861	0.000086	0.859736	0.145643	-0.000009
1098	1.0915e+02	9.0776	9.232012	0.000139	1.391953	0.235803	-0.000014
1099	1.0925e+02	9.0698	9.216533	0.000156	1.555712	0.263545	-0.000016
1100	1.0935e+02	9.0601	9.206756	0.000098	0.982555	0.166449	-0.000010
1101	1.0945e+02	9.0504	9.190870	0.000160	1.596652	0.270480	-0.000016
1102	1.0955e+02	9.0393	9.181501	0.000094	0.941615	0.159514	-0.000009
1103	1.0965e+02	9.0276	9.168873	0.000127	1.269134	0.214997	-0.000013
1104	1.0975e+02	9.0189	9.155024	0.000139	1.391953	0.235803	-0.000014
1105	1.0985e+02	9.0108	9.143211	0.000119	1.187254	0.201126	-0.000012
1106	1.0995e+02	8.9991	9.132620	0.000106	1.064435	0.180320	-0.000011
1107	1.1005e+02	8.9894	9.120400	0.000123	1.228194	0.208062	-0.000012
1108	1.1015e+02	8.9785	9.103291	0.000172	1.719472	0.291286	-0.000017
1109	1.1025e+02	8.9677	9.091886	0.000115	1.146314	0.194191	-0.000011
1110	1.1035e+02	8.9619	9.078851	0.000131	1.310074	0.221932	-0.000013
1111	1.1044e+02	8.9494	9.070704	0.000082	0.818796	0.138708	-0.000008
1112	1.1054e+02	8.9389	9.054003	0.000168	1.678532	0.284351	-0.000017
1113	1.1064e+02	8.9298	9.043819	0.000102	1.023495	0.173385	-0.000010
1114	1.1074e+02	8.9210	9.025896	0.000180	1.801351	0.305157	-0.000018
1115	1.1084e+02	8.9117	9.018971	0.000070	0.695977	0.117902	-0.000007
1116	1.1094e+02	8.9008	9.006344	0.000127	1.269134	0.214997	-0.000013
1117	1.1104e+02	8.8895	8.991679	0.000147	1.473833	0.249674	-0.000015
1118	1.1114e+02	8.8783	8.977422	0.000143	1.432893	0.242739	-0.000014
1119	1.1124e+02	8.8705	8.964388	0.000131	1.310074	0.221932	-0.000013
1120	1.1134e+02	8.8594	8.953389	0.000111	1.105375	0.187256	-0.000011
1121	1.1144e+02	8.8515	8.937910	0.000156	1.555712	0.263545	-0.000016
1122	1.1154e+02	8.8385	8.926097	0.000119	1.187254	0.201126	-0.000012
1123	1.1164e+02	8.8294	8.911433	0.000147	1.473833	0.249674	-0.000015
1124	1.1174e+02	8.8203	8.897176	0.000143	1.432893	0.242739	-0.000014
1125	1.1184e+02	8.8137	8.884956	0.000123	1.228194	0.208062	-0.000012
1126	1.1194e+02	8.7988	8.874365	0.000106	1.064435	0.180320	-0.000011
1127	1.1204e+02	8.7881	8.859293	0.000151	1.514773	0.256609	-0.000015
1128	1.1214e+02	8.7804	8.844629	0.000147	1.473833	0.249674	-0.000015
1129	1.1224e+02	8.7718	8.833223	0.000115	1.146314	0.194191	-0.000011
1130	1.1234e+02	8.7637	8.818966	0.000143	1.432893	0.242739	-0.000014
1131	1.1244e+02	8.7489	8.807153	0.000119	1.187254	0.201126	-0.000012
1132	1.1253e+02	8.7439	8.791267	0.000160	1.596652	0.270480	-0.000016
1133	1.1263e+02	8.7329	8.777417	0.000139	1.391953	0.235803	-0.000014
1134	1.1273e+02	8.7224	8.760309	0.000172	1.719472	0.291286	-0.000017
1135	1.1283e+02	8.7112	8.746459	0.000139	1.391953	0.235803	-0.000014
1136	1.1293e+02	8.7003	8.730166	0.000164	1.637592	0.277416	-0.000016
1137	1.1303e+02	8.6919	8.714279	0.000160	1.596652	0.270480	-0.000016
1138	1.1313e+02	8.6825	8.702874	0.000115	1.146314	0.194191	-0.000011
1139	1.1323e+02	8.6719	8.686580	0.000164	1.637592	0.277416	-0.000016
1140	1.1333e+02	8.6610	8.669064	0.000176	1.760411	0.298222	-0.000018
1141	1.1343e+02	8.6526	8.655215	0.000139	1.391953	0.235803	-0.000014
1142	1.1353e+02	8.6439	8.638106	0.000172	1.719472	0.291286	-0.000017
1143	1.1363e+02	8.6310	8.623034	0.000151	1.514773	0.256609	-0.000015
1144	1.1373e+02	8.6211	8.606333	0.000168	1.678532	0.284351	-0.000017
1145	1.1383e+02	8.6133	8.592076	0.000143	1.432893	0.242739	-0.000014
1146	1.1393e+02	8.6008	8.576190	0.000160	1.596652	0.270480	-0.000016
1147	1.1403e+02	8.5907	8.557452	0.000188	1.883231	0.319028	-0.000019
1148	1.1413e+02	8.5822	8.544010	0.000135	1.351013	0.228868	-0.000014
1149	1.1423e+02	8.5703	8.526902	0.000172	1.719472	0.291286	-0.000017
1150	1.1433e+02	8.5621	8.509386	0.000176	1.760411	0.298222	-0.000018
1151	1.1442e+02	8.5533	8.494722	0.000147	1.473833	0.249674	-0.000015
1152	1.1452e+02	8.5406	8.475169	0.000197	1.965110	0.332899	-0.000020
1153	1.1462e+02	8.5341	8.456024	0.000192	1.924171	0.325963	-0.000019
1154	1.1472e+02	8.5217	8.444618	0.000115	1.146314	0.194191	-0.000011
1155	1.1482e+02	8.5140	8.427103	0.000176	1.760411	0.298222	-0.000018
1156	1.1492e+02	8.5012	8.408772	0.000184	1.842291	0.312093	-0.000018
1157	1.1502e+02	8.4938	8.394923	0.000139	1.391953	0.235803	-0.000014
1158	1.1512e+02	8.4835	8.378222	0.000168	1.678532	0.284351	-0.000017
1159	1.1522e+02	8.4727	8.360299	0.000180	1.801351	0.305157	-0.000018
1160	1.1532e+02	8.4612	8.343190	0.000172	1.719472	0.291286	-0.000017
1161	1.1542e+02	8.4502	8.329340	0.000139	1.391953	0.235803	-0.000014
1162	1.1552e+02	8.4445	8.311010	0.000184	1.842291	0.312093	-0.000018
1163	1.1562e+02	8.4328	8.291865	0.000192	1.924171	0.325963	-0.000019
1164	1.1572e+02	8.4253	8.278015	0.000139	1.391953	0.235803	-0.000014
1165	1.1582e+02	8.4131	8.262129	0.000160	1.596652	0.270480	-0.000016
1166	1.1592e+02	8.4021	8.242169	0.000201	2.006050	0.339834	-0.000020
1167	1.1602e+02	8.3962	8.226283	0.000160	1.596652	0.270480	-0.000016
1168	1.1612e+02	8.3838	8.208767	0.000176	1.760411	0.298222	-0.000018
1169	1.1622e+02	8.3725	8.190029	0.000188	1.883231	0.319028	-0.000019
1170	1.1632e+02	8.3631	8.171699	0.000184	1.842291	0.312093	-0.000018
1171	1.1642e+02	8.3527	8.156220	0.000156	1.555712	0.263545	-0.000016
1172	1.1651e+02	8.3382	8.137889	0.000184	1.842291	0.312093	-0.000018
1173	1.1661e+02	8.3334	8.125669	0.000123	1.228194	0.208062	-0.000012
1174	1.1671e+02	8.3237	8.102451	0.000233	2.333569	0.395317	-0.000023
1175	1.1681e+02	8.3135	8.086564	0.000160	1.596652	0.270480	-0.000016
1176	1.1691e+02	8.3029	8.067012	0.000197	1.965110	0.332899	-0.000020
1177	1.1701e+02	8.2959	8.047867	0.000192	1.924171	0.325963	-0.000019
1178	1.1711e+02	8.2840	8.031573	0.000164	1.637592	0.277416	-0.000016
1179	1.1721e+02	8.2720	8.010391	0.000213	2.128870	0.360640	-0.000021
1180	1.1731e+02	8.2638	7.995320	0.000151	1.514773	0.256609	-0.000015
1181	1.1741e+02	8.2525	7.972508	0.000229	2.292629	0.388382	-0.000023
1182	1.1751e+02	8.2437	7.954993	0.000176	1.760411	0.298222	-0.000018
1183	1.1761e+02	8.2363	7.934626	0.000205	2.046990	0.346769	-0.000020
1184	1.1771e+02	8.2239	7.917517	0.000172	1.719472	0.291286	-0.000017
1185	1.1781e+02	8.2121	7.898372	0.000192	1.924171	0.325963	-0.000019
1186	1.1791e+02	8.2037	7.884115	0.000143	1.432893	0.242739	-0.000014
1187	1.1801e+02	8.1924	7.860489	0.000237	2.374508	0.402253	-0.000024
1188	1.1811e+02	8.1846	7.840937	0.000197	1.965110	0.332899	-0.000020
1189	1.1821e+02	8.1732	7.819755	0.000213	2.128870	0.360640	-0.000021
1190	1.1831e+02	8.1645	7.802647	0.000172	1.719472	0.291286	-0.000017
1191	1.1841e+02	8.1547	7.787168	0.000156	1.555712	0.263545	-0.000016
1192	1.1850e+02	8.1437	7.766393	0.000209	2.087930	0.353705	-0.000021
1193	1.1860e+02	8.1365	7.746433	0.000201	2.006050	0.339834	-0.000020
1194	1.1870e+02	8.1247	7.727288	0.000192	1.924171	0.325963	-0.000019
1195	1.1880e+02	8.1166	7.711402	0.000160	1.596652	0.270480	-0.000016
1196	1.1890e+02	8.1064	7.689405	0.000221	2.210749	0.374511	-0.000022
1197	1.1900e+02	8.0933	7.675556	0.000139	1.391953	0.235803	-0.000014
1198	1.1910e+02	8.0851	7.655596	0.000201	2.006050	0.339834	-0.000020
1199	1.1920e+02	8.0788	7.634414	0.000213	2.128870	0.360640	-0.000021
1200	1.1930e+02	8.0635	7.614862	0.000197	1.965110	0.332899	-0.000020
1201	1.1940e+02	8.0567	7.597753	0.000172	1.719472	0.291286	-0.000017
1202	1.1950e+02	8.0444	7.576164	0.000217	2.169809	0.367576	-0.000022
1203	1.1960e+02	8.0335	7.561092	0.000151	1.514773	0.256609	-0.000015
1204	1.1970e+02	8.0299	7.541540	0.000197	1.965110	0.332899	-0.000020
1205	1.1980e+02	8.0170	7.521173	0.000205	2.046990	0.346769	-0.000020
1206	1.1990e+02	8.0032	7.505694	0.000156	1.555712	0.263545	-0.000016
1207	1.2000e+02	7.9937	7.485734	0.000201	2.006050	0.339834	-0.000020
1208	1.2010e+02	7.9851	7.467811	0.000180	1.801351	0.305157	-0.000018
1209	1.2020e+02	7.9741	7.449481	0.000184	1.842291	0.312093	-0.000018
1210	1.2030e+02	7.9647	7.425040	0.000246	2.456388	0.416123	-0.000025
1211	1.2039e+02	7.9562	7.410783	0.000143	1.432893	0.242739	-0.000014
1212	1.2049e+02	7.9455	7.388787	0.000221	2.210749	0.374511	-0.000022
1213	1.2059e+02	7.9341	7.372900	0.000160	1.596652	0.270480	-0.000016
1214	1.2069e+02	7.9266	7.354162	0.000188	1.883231	0.319028	-0.000019
1215	1.2079e+02	7.9154	7.336239	0.000180	1.801351	0.305157	-0.000018
1216	1.2089e+02	7.9020	7.320760	0.000156	1.555712	0.263545	-0.000016
1217	1.2099e+02	7.8931	7.300801	0.000201	2.006050	0.339834	-0.000020
1218	1.2109e+02	7.8854	7.283285	0.000176	1.760411	0.298222	-0.000018
1219	1.2119e+02	7.8760	7.267806	0.000156	1.555712	0.263545	-0.000016
1220	1.2129e+02	7.8645	7.248661	0.000192	1.924171	0.325963	-0.000019
1221	1.2139e+02	7.8546	7.232774	0.000160	1.596652	0.270480	-0.000016
1222	1.2149e+02	7.8460	7.216888	0.000160	1.596652	0.270480	-0.000016
1223	1.2159e+02	7.8355	7.201002	0.000160	1.596652	0.270480	-0.000016
1224	1.2169e+02	7.8251	7.181857	0.000192	1.924171	0.325963	-0.000019
1225	1.2179e+02	7.8152	7.165563	0.000164	1.637592	0.277416	-0.000016
1226	1.2189e+02	7.8053	7.148862	0.000168	1.678532	0.284351	-0.000017
1227	1.2199e+02	7.7966	7.134605	0.000143	1.432893	0.242739	-0.000014
1228	1.2209e+02	7.7856	7.115052	0.000197	1.965110	0.332899	-0.000020
1229	1.2219e+02	7.7772	7.098759	0.000164	1.637592	0.277416	-0.000016
1230	1.2229e+02	7.7673	7.082872	0.000160	1.596652	0.270480	-0.000016
1231	1.2239e+02	7.7599	7.066171	0.000168	1.678532	0.284351	-0.000017
1232	1.2248e+02	7.7442	7.051914	0.000143	1.432893	0.242739	-0.000014
1233	1.2258e+02	7.7335	7.033991	0.000180	1.801351	0.305157	-0.000018
1234	1.2268e+02	7.7266	7.018920	0.000151	1.514773	0.256609	-0.000015
1235	1.2278e+02	7.7164	7.002626	0.000164	1.637592	0.277416	-0.000016
1236	1.2288e+02	7.7055	6.983888	0.000188	1.883231	0.319028	-0.000019
1237	1.2298e+02	7.6991	6.966780	0.000172	1.719472	0.291286	-0.000017
1238	1.2308e+02	7.6849	6.950079	0.000168	1.678532	0.284351	-0.000017
1239	1.2318e+02	7.6766	6.935822	0.000143	1.432893	0.242739	-0.000014
1240	1.2328e+02	7.6669	6.921157	0.000147	1.473833	0.249674	-0.000015
1241	1.2338e+02	7.6559	6.903642	0.000176	1.760411	0.298222	-0.000018
1242	1.2348e+02	7.6469	6.887755	0.000160	1.596652	0.270480	-0.000016
1243	1.2358e+02	7.6364	6.869425	0.000184	1.842291	0.312093	-0.000018
1244	1.2368e+02	7.6294	6.856797	0.000127	1.269134	0.214997	-0.000013
1245	1.2378e+02	7.6169	6.839689	0.000172	1.719472	0.291286	-0.000017
1246	1.2388e+02	7.6078	6.825024	0.000147	1.473833	0.249674	-0.000015
1247	1.2398e+02	7.5977	6.807101	0.000180	1.801351	0.305157	-0.000018
1248	1.2408e+02	7.5871	6.788771	0.000184	1.842291	0.312093	-0.000018
1249	1.2418e+02	7.5781	6.770441	0.000184	1.842291	0.312093	-0.000018
1250	1.2428e+02	7.5668	6.759442	0.000111	1.105375	0.187256	-0.000011
1251	1.2438e+02	7.5577	6.743149	0.000164	1.637592	0.277416	-0.000016
1252	1.2447e+02	7.5468	6.725633	0.000176	1.760411	0.298222	-0.000018
1253	1.2457e+02	7.5367	6.710561	0.000151	1.514773	0.256609	-0.000015
1254	1.2467e+02	7.5257	6.696304	0.000143	1.432893	0.242739	-0.000014
1255	1.2477e+02	7.5187	6.678381	0.000180	1.801351	0.305157	-0.000018
1256	1.2487e+02	7.5077	6.661680	0.000168	1.678532	0.284351	-0.000017
1257	1.2497e+02	7.4960	6.647830	0.000139	1.391953	0.235803	-0.000014
1258	1.2507e+02	7.4876	6.630315	0.000176	1.760411	0.298222	-0.000018
1259	1.2517e+02	7.4798	6.617687	0.000127	1.269134	0.214997	-0.000013
1260	1.2527e+02	7.4663	6.601801	0.000160	1.596652	0.270480	-0.000016
1261	1.2537e+02	7.4619	6.586322	0.000156	1.555712	0.263545	-0.000016
1262	1.2547e+02	7.4474	6.572065	0.000143	1.432893	0.242739	-0.000014
1263	1.2557e+02	7.4398	6.555771	0.000164	1.637592	0.277416	-0.000016
1264	1.2567e+02	7.4299	6.541514	0.000143	1.432893	0.242739	-0.000014
1265	1.2577e+02	7.4162	6.525628	0.000160	1.596652	0.270480	-0.000016
1266	1.2587e+02	7.4063	6.512185	0.000135	1.351013	0.228868	-0.000014
1267	1.2597e+02	7.3956	6.499150	0.000131	1.310074	0.221932	-0.000013
1268	1.2607e+02	7.3888	6.484893	0.000143	1.432893	0.242739	-0.000014
1269	1.2617e+02	7.3751	6.466970	0.000180	1.801351	0.305157	-0.000018
1270	1.2627e+02	7.3684	6.451899	0.000151	1.514773	0.256609	-0.000015
1271	1.2636e+02	7.3553	6.439678	0.000123	1.228194	0.208062	-0.000012
1272	1.2646e+02	7.3499	6.424199	0.000156	1.555712	0.263545	-0.000016
1273	1.2656e+02	7.3398	6.408720	0.000156	1.555712	0.263545	-0.000016
1274	1.2666e+02	7.3304	6.394871	0.000139	1.391953	0.235803	-0.000014
1275	1.2676e+02	7.3200	6.377762	0.000172	1.719472	0.291286	-0.000017
1276	1.2686e+02	7.3125	6.360247	0.000176	1.760411	0.298222	-0.000018
1277	1.2696e+02	7.2985	6.348434	0.000119	1.187254	0.201126	-0.000012
1278	1.2706e+02	7.2915	6.332547	0.000160	1.596652	0.270480	-0.000016
1279	1.2716e+02	7.2764	6.316661	0.000160	1.596652	0.270480	-0.000016
1280	1.2726e+02	7.2670	6.299145	0.000176	1.760411	0.298222	-0.000018
1281	1.2736e+02	7.2569	6.283666	0.000156	1.555712	0.263545	-0.000016
1282	1.2746e+02	7.2471	6.269409	0.000143	1.432893	0.242739	-0.000014
1283	1.2756e+02	7.2389	6.255967	0.000135	1.351013	0.228868	-0.000014
1284	1.2766e+02	7.2272	6.243339	0.000127	1.269134	0.214997	-0.000013
1285	1.2776e+02	7.2210	6.227860	0.000156	1.555712	0.263545	-0.000016
1286	1.2786e+02	7.2094	6.209123	0.000188	1.883231	0.319028	-0.000019
1287	1.2796e+02	7.1996	6.196088	0.000131	1.310074	0.221932	-0.000013
1288	1.2806e+02	7.1903	6.181423	0.000147	1.473833	0.249674	-0.000015
1289	1.2816e+02	7.1800	6.165537	0.000160	1.596652	0.270480	-0.000016
1290	1.2826e+02	7.1684	6.148836	0.000168	1.678532	0.284351	-0.000017
1291	1.2835e+02	7.1583	6.130505	0.000184	1.842291	0.312093	-0.000018
1292	1.2845e+02	7.1490	6.117878	0.000127	1.269134	0.214997	-0.000013
1293	1.2855e+02	7.1398	6.104028	0.000139	1.391953	0.235803	-0.000014
1294	1.2865e+02	7.1289	6.087734	0.000164	1.637592	0.277416	-0.000016
1295	1.2875e+02	7.1201	6.072255	0.000156	1.555712	0.263545	-0.000016
1296	1.2885e+02	7.1078	6.057184	0.000151	1.514773	0.256609	-0.000015
1297	1.2895e+02	7.0962	6.040890	0.000164	1.637592	0.277416	-0.000016
1298	1.2905e+02	7.0895	6.025004	0.000160	1.596652	0.270480	-0.000016
1299	1.2915e+02	7.0808	6.006266	0.000188	1.883231	0.319028	-0.000019
1300	1.2925e+02	7.0696	5.993231	0.000131	1.310074	0.221932	-0.000013
1301	1.2935e+02	7.0595	5.975308	0.000180	1.801351	0.305157	-0.000018
1302	1.2945e+02	7.0508	5.958607	0.000168	1.678532	0.284351	-0.000017
1303	1.2955e+02	7.0386	5.941906	0.000168	1.678532	0.284351	-0.000017
1304	1.2965e+02	7.0290	5.925205	0.000168	1.678532	0.284351	-0.000017
1305	1.2975e+02	7.0182	5.906467	0.000188	1.883231	0.319028	-0.000019
1306	1.2985e+02	7.0083	5.885693	0.000209	2.087930	0.353705	-0.000021
1307	1.2995e+02	7.0006	5.868584	0.000172	1.719472	0.291286	-0.000017
1308	1.3005e+02	6.9926	5.852290	0.000164	1.637592	0.277416	-0.000016
1309	1.3015e+02	6.9813	5.836404	0.000160	1.596652	0.270480	-0.000016
1310	1.3025e+02	6.9696	5.818481	0.000180	1.801351	0.305157	-0.000018
1311	1.3034e+02	6.9607	5.794040	0.000246	2.456388	0.416123	-0.000025
1312	1.3044e+02	6.9497	5.779376	0.000147	1.473833	0.249674	-0.000015
1313	1.3054e+02	6.9405	5.762675	0.000168	1.678532	0.284351	-0.000017
1314	1.3064e+02	6.9289	5.744345	0.000184	1.842291	0.312093	-0.000018
1315	1.3074e+02	6.9218	5.723570	0.000209	2.087930	0.353705	-0.000021
1316	1.3084e+02	6.9139	5.708499	0.000151	1.514773	0.256609	-0.000015
1317	1.3094e+02	6.9012	5.687724	0.000209	2.087930	0.353705	-0.000021
1318	1.3104e+02	6.8892	5.666950	0.000209	2.087930	0.353705	-0.000021
1319	1.3114e+02	6.8780	5.650656	0.000164	1.637592	0.277416	-0.000016
1320	1.3124e+02	6.8703	5.630696	0.000201	2.006050	0.339834	-0.000020
1321	1.3134e+02	6.8606	5.612773	0.000180	1.801351	0.305157	-0.000018
1322	1.3144e+02	6.8517	5.593628	0.000192	1.924171	0.325963	-0.000019
1323	1.3154e+02	6.8409	5.578149	0.000156	1.555712	0.263545	-0.000016
1324	1.3164e+02	6.8322	5.558189	0.000201	2.006050	0.339834	-0.000020
1325	1.3174e+02	6.8237	5.536600	0.000217	2.169809	0.367576	-0.000022
1326	1.3184e+02	6.8087	5.519084	0.000176	1.760411	0.298222	-0.000018
1327	1.3194e+02	6.7995	5.500754	0.000184	1.842291	0.312093	-0.000018
1328	1.3204e+02	6.7941	5.479979	0.000209	2.087930	0.353705	-0.000021
1329	1.3214e+02	6.7799	5.462464	0.000176	1.760411	0.298222	-0.000018
1330	1.3224e+02	6.7709	5.446985	0.000156	1.555712	0.263545	-0.000016
1331	1.3234e+02	6.7608	5.424988	0.000221	2.210749	0.374511	-0.000022
1332	1.3243e+02	6.7533	5.403399	0.000217	2.169809	0.367576	-0.000022
1333	1.3253e+02	6.7421	5.387105	0.000164	1.637592	0.277416	-0.000016
1334	1.3263e+02	6.7303	5.368367	0.000188	1.883231	0.319028	-0.000019
1335	1.3273e+02	6.7228	5.350037	0.000184	1.842291	0.312093	-0.000018
1336	1.3283e+02	6.7127	5.326411	0.000237	2.374508	0.402253	-0.000024
1337	1.3293e+02	6.7027	5.313784	0.000127	1.269134	0.214997	-0.000013
1338	1.3303e+02	6.6911	5.288936	0.000250	2.497328	0.423059	-0.000025
1339	1.3313e+02	6.6829	5.271013	0.000180	1.801351	0.305157	-0.000018
1340	1.3323e+02	6.6689	5.252682	0.000184	1.842291	0.312093	-0.000018
1341	1.3333e+02	6.6613	5.231093	0.000217	2.169809	0.367576	-0.000022
1342	1.3343e+02	6.6523	5.212355	0.000188	1.883231	0.319028	-0.000019
1343	1.3353e+02	6.6421	5.191988	0.000205	2.046990	0.346769	-0.000020
1344	1.3363e+02	6.6340	5.173658	0.000184	1.842291	0.312093	-0.000018
1345	1.3373e+02	6.6207	5.154513	0.000192	1.924171	0.325963	-0.000019
1346	1.3383e+02	6.6117	5.131701	0.000229	2.292629	0.388382	-0.000023
1347	1.3393e+02	6.6030	5.108890	0.000229	2.292629	0.388382	-0.000023
1348	1.3403e+02	6.5914	5.091375	0.000176	1.760411	0.298222	-0.000018
1349	1.3413e+02	6.5829	5.071415	0.000201	2.006050	0.339834	-0.000020
1350	1.3423e+02	6.5716	5.048196	0.000233	2.333569	0.395317	-0.000023
1351	1.3432e+02	6.5623	5.029051	0.000192	1.924171	0.325963	-0.000019
1352	1.3442e+02	6.5536	5.006240	0.000229	2.292629	0.388382	-0.000023
1353	1.3452e+02	6.5412	4.987095	0.000192	1.924171	0.325963	-0.000019
1354	1.3462e+02	6.5350	4.969172	0.000180	1.801351	0.305157	-0.000018
1355	1.3472e+02	6.5225	4.945546	0.000237	2.374508	0.402253	-0.000024
1356	1.3482e+02	6.5127	4.928438	0.000172	1.719472	0.291286	-0.000017
1357	1.3492e+02	6.5058	4.906848	0.000217	2.169809	0.367576	-0.000022
1358	1.3502e+02	6.4947	4.886481	0.000205	2.046990	0.346769	-0.000020
1359	1.3512e+02	6.4808	4.861633	0.000250	2.497328	0.423059	-0.000025
1360	1.3522e+02	6.4712	4.842081	0.000197	1.965110	0.332899	-0.000020
1361	1.3532e+02	6.4626	4.822121	0.000201	2.006050	0.339834	-0.000020
1362	1.3542e+02	6.4539	4.803791	0.000184	1.842291	0.312093	-0.000018
1363	1.3552e+02	6.4428	4.781387	0.000225	2.251689	0.381446	-0.000023
1364	1.3562e+02	6.4332	4.760612	0.000209	2.087930	0.353705	-0.000021
1365	1.3572e+02	6.4227	4.741875	0.000188	1.883231	0.319028	-0.000019
1366	1.3582e+02	6.4126	4.717841	0.000242	2.415448	0.409188	-0.000024
1367	1.3592e+02	6.4016	4.697474	0.000205	2.046990	0.346769	-0.000020
1368	1.3602e+02	6.3931	4.677515	0.000201	2.006050	0.339834	-0.000020
1369	1.3612e+02	6.3825	4.656333	0.000213	2.128870	0.360640	-0.000021
1370	1.3622e+02	6.3735	4.634744	0.000217	2.169809	0.367576	-0.000022
1371	1.3631e+02	6.3675	4.617228	0.000176	1.760411	0.298222	-0.000018
1372	1.3641e+02	6.3538	4.595231	0.000221	2.210749	0.374511	-0.000022
1373	1.3651e+02	6.3430	4.578530	0.000168	1.678532	0.284351	-0.000017
1374	1.3661e+02	6.3343	4.559385	0.000192	1.924171	0.325963	-0.000019
1375	1.3671e+02	6.3235	4.535759	0.000237	2.374508	0.402253	-0.000024
1376	1.3681e+02	6.3143	4.516614	0.000192	1.924171	0.325963	-0.000019
1377	1.3691e+02	6.3029	4.495025	0.000217	2.169809	0.367576	-0.000022
1378	1.3701e+02	6.2943	4.472621	0.000225	2.251689	0.381446	-0.000023
1379	1.3711e+02	6.2846	4.453476	0.000192	1.924171	0.325963	-0.000019
1380	1.3721e+02	6.2728	4.433924	0.000197	1.965110	0.332899	-0.000020
1381	1.3731e+02	6.2649	4.410298	0.000237	2.374508	0.402253	-0.000024
1382	1.3741e+02	6.2579	4.395226	0.000151	1.514773	0.256609	-0.000015
1383	1.3751e+02	6.2444	4.376896	0.000184	1.842291	0.312093	-0.000018
1384	1.3761e+02	6.2328	4.353677	0.000233	2.333569	0.395317	-0.000023
1385	1.3771e+02	6.2246	4.339013	0.000147	1.473833	0.249674	-0.000015
1386	1.3781e+02	6.2113	4.317831	0.000213	2.128870	0.360640	-0.000021
1387	1.3791e+02	6.2045	4.298279	0.000197	1.965110	0.332899	-0.000020
1388	1.3801e+02	6.1947	4.281985	0.000164	1.637592	0.277416	-0.000016
1389	1.3811e+02	6.1865	4.264062	0.000180	1.801351	0.305157	-0.000018
1390	1.3821e+02	6.1743	4.241658	0.000225	2.251689	0.381446	-0.000023
1391	1.3831e+02	6.1645	4.225364	0.000164	1.637592	0.277416	-0.000016
1392	1.3840e+02	6.1575	4.205812	0.000197	1.965110	0.332899	-0.000020
1393	1.3850e+02	6.1469	4.186259	0.000197	1.965110	0.332899	-0.000020
1394	1.3860e+02	6.1352	4.167114	0.000192	1.924171	0.325963	-0.000019
1395	1.3870e+02	6.1223	4.150413	0.000168	1.678532	0.284351	-0.000017
1396	1.3880e+02	6.1158	4.130453	0.000201	2.006050	0.339834	-0.000020
1397	1.3890e+02	6.1055	4.112530	0.000180	1.801351	0.305157	-0.000018
1398	1.3900e+02	6.0955	4.093793	0.000188	1.883231	0.319028	-0.000019
1399	1.3910e+02	6.0830	4.075870	0.000180	1.801351	0.305157	-0.000018
1400	1.3920e+02	6.0767	4.060798	0.000151	1.514773	0.256609	-0.000015
1401	1.3930e+02	6.0662	4.041653	0.000192	1.924171	0.325963	-0.000019
1402	1.3940e+02	6.0537	4.025359	0.000164	1.637592	0.277416	-0.000016
1403	1.3950e+02	6.0464	4.007843	0.000176	1.760411	0.298222	-0.000018
1404	1.3960e+02	6.0345	3.993586	0.000143	1.432893	0.242739	-0.000014
1405	1.3970e+02	6.0267	3.971590	0.000221	2.210749	0.374511	-0.000022
1406	1.3980e+02	6.0168	3.954074	0.000176	1.760411	0.298222	-0.000018
1407	1.3990e+02	6.0036	3.933300	0.000209	2.087930	0.353705	-0.000021
1408	1.4000e+02	5.9957	3.916191	0.000172	1.719472	0.291286	-0.000017
1409	1.4010e+02	5.9853	3.900712	0.000156	1.555712	0.263545	-0.000016
1410	1.4020e+02	5.9739	3.883604	0.000172	1.719472	0.291286	-0.000017
1411	1.4029e+02	5.9638	3.864051	0.000197	1.965110	0.332899	-0.000020
1412	1.4039e+02	5.9553	3.848572	0.000156	1.555712	0.263545	-0.000016
1413	1.4049e+02	5.9460	3.830649	0.000180	1.801351	0.305157	-0.000018
1414	1.4059e+02	5.9359	3.813541	0.000172	1.719472	0.291286	-0.000017
1415	1.4069e+02	5.9260	3.795211	0.000184	1.842291	0.312093	-0.000018
1416	1.4079e+02	5.9160	3.775658	0.000197	1.965110	0.332899	-0.000020
1417	1.4089e+02	5.9077	3.754884	0.000209	2.087930	0.353705	-0.000021
1418	1.4099e+02	5.8958	3.740219	0.000147	1.473833	0.249674	-0.000015
1419	1.4109e+02	5.8868	3.723926	0.000164	1.637592	0.277416	-0.000016
1420	1.4119e+02	5.8765	3.705188	0.000188	1.883231	0.319028	-0.000019
1421	1.4129e+02	5.8648	3.689709	0.000156	1.555712	0.263545	-0.000016
1422	1.4139e+02	5.8567	3.675044	0.000147	1.473833	0.249674	-0.000015
1423	1.4149e+02	5.8497	3.655492	0.000197	1.965110	0.332899	-0.000020
1424	1.4159e+02	5.8369	3.637162	0.000184	1.842291	0.312093	-0.000018
1425	1.4169e+02	5.8266	3.620461	0.000168	1.678532	0.284351	-0.000017
1426	1.4179e+02	5.8163	3.603352	0.000172	1.719472	0.291286	-0.000017
1427	1.4189e+02	5.8099	3.581356	0.000221	2.210749	0.374511	-0.000022
1428	1.4199e+02	5.7970	3.565877	0.000156	1.555712	0.263545	-0.000016
1429	1.4209e+02	5.7850	3.553249	0.000127	1.269134	0.214997	-0.000013
1430	1.4219e+02	5.7780	3.536141	0.000172	1.719472	0.291286	-0.000017
1431	1.4228e+02	5.7675	3.522291	0.000139	1.391953	0.235803	-0.000014
1432	1.4238e+02	5.7540	3.502739	0.000197	1.965110	0.332899	-0.000020
1433	1.4248e+02	5.7467	3.492148	0.000106	1.064435	0.180320	-0.000011
1434	1.4258e+02	5.7365	3.473817	0.000184	1.842291	0.312093	-0.000018
1435	1.4268e+02	5.7281	3.451821	0.000221	2.210749	0.374511	-0.000022
1436	1.4278e+02	5.7175	3.440415	0.000115	1.146314	0.194191	-0.000011
1437	1.4288e+02	5.7041	3.422492	0.000180	1.801351	0.305157	-0.000018
1438	1.4298e+02	5.6954	3.407013	0.000156	1.555712	0.263545	-0.000016
1439	1.4308e+02	5.6853	3.388683	0.000184	1.842291	0.312093	-0.000018
1440	1.4318e+02	5.6782	3.371982	0.000168	1.678532	0.284351	-0.000017
1441	1.4328e+02	5.6652	3.355281	0.000168	1.678532	0.284351	-0.000017
1442	1.4338e+02	5.6570	3.338172	0.000172	1.719472	0.291286	-0.000017
1443	1.4348e+02	5.6470	3.324730	0.000135	1.351013	0.228868	-0.000014
1444	1.4358e+02	5.6342	3.307214	0.000176	1.760411	0.298222	-0.000018
1445	1.4368e+02	5.6261	3.288476	0.000188	1.883231	0.319028	-0.000019
1446	1.4378e+02	5.6185	3.273812	0.000147	1.473833	0.249674	-0.000015
1447	1.4388e+02	5.6055	3.255889	0.000180	1.801351	0.305157	-0.000018
1448	1.4398e+02	5.5975	3.242039	0.000139	1.391953	0.235803	-0.000014
1449	1.4408e+02	5.5880	3.222080	0.000201	2.006050	0.339834	-0.000020
1450	1.4418e+02	5.5743	3.207823	0.000143	1.432893	0.242739	-0.000014
1451	1.4428e+02	5.5686	3.191529	0.000164	1.637592	0.277416	-0.000016
1452	1.4437e+02	5.5567	3.172791	0.000188	1.883231	0.319028	-0.000019
1453	1.4447e+02	5.5470	3.158941	0.000139	1.391953	0.235803	-0.000014
1454	1.4457e+02	5.5364	3.141833	0.000172	1.719472	0.291286	-0.000017
1455	1.4467e+02	5.5299	3.122281	0.000197	1.965110	0.332899	-0.000020
1456	1.4477e+02	5.5198	3.106394	0.000160	1.596652	0.270480	-0.000016
1457	1.4487e+02	5.5099	3.086842	0.000197	1.965110	0.332899	-0.000020
1458	1.4497e+02	5.4971	3.072585	0.000143	1.432893	0.242739	-0.000014
1459	1.4507e+02	5.4890	3.054662	0.000180	1.801351	0.305157	-0.000018
1460	1.4517e+02	5.4803	3.035517	0.000192	1.924171	0.325963	-0.000019
1461	1.4527e+02	5.4668	3.024518	0.000111	1.105375	0.187256	-0.000011
1462	1.4537e+02	5.4607	3.003744	0.000209	2.087930	0.353705	-0.000021
1463	1.4547e+02	5.4469	2.986228	0.000176	1.760411	0.298222	-0.000018
1464	1.4557e+02	5.4389	2.966268	0.000201	2.006050	0.339834	-0.000020
1465	1.4567e+02	5.4301	2.948753	0.000176	1.760411	0.298222	-0.000018
1466	1.4577e+02	5.4186	2.932459	0.000164	1.637592	0.277416	-0.000016
1467	1.4587e+02	5.4076	2.915758	0.000168	1.678532	0.284351	-0.000017
1468	1.4597e+02	5.3973	2.898242	0.000176	1.760411	0.298222	-0.000018
1469	1.4607e+02	5.3880	2.878690	0.000197	1.965110	0.332899	-0.000020
1470	1.4617e+02	5.3773	2.859545	0.000192	1.924171	0.325963	-0.000019
1471	1.4626e+02	5.3669	2.842436	0.000172	1.719472	0.291286	-0.000017
1472	1.4636e+02	5.3599	2.820847	0.000217	2.169809	0.367576	-0.000022
1473	1.4646e+02	5.3484	2.804146	0.000168	1.678532	0.284351	-0.000017
1474	1.4656e+02	5.3378	2.785816	0.000184	1.842291	0.312093	-0.000018
1475	1.4666e+02	5.3292	2.765041	0.000209	2.087930	0.353705	-0.000021
1476	1.4676e+02	5.3202	2.745489	0.000197	1.965110	0.332899	-0.000020
1477	1.4686e+02	5.3078	2.726344	0.000192	1.924171	0.325963	-0.000019
1478	1.4696e+02	5.2989	2.706791	0.000197	1.965110	0.332899	-0.000020
1479	1.4706e+02	5.2886	2.685202	0.000217	2.169809	0.367576	-0.000022
1480	1.4716e+02	5.2797	2.669316	0.000160	1.596652	0.270480	-0.000016
1481	1.4726e+02	5.2674	2.650171	0.000192	1.924171	0.325963	-0.000019
1482	1.4736e+02	5.2589	2.627767	0.000225	2.251689	0.381446	-0.000023
1483	1.4746e+02	5.2473	2.608622	0.000192	1.924171	0.325963	-0.000019
1484	1.4756e+02	5.2396	2.587440	0.000213	2.128870	0.360640	-0.000021
1485	1.4766e+02	5.2285	2.566665	0.000209	2.087930	0.353705	-0.000021
1486	1.4776e+02	5.2178	2.549964	0.000168	1.678532	0.284351	-0.000017
1487	1.4786e+02	5.2113	2.526746	0.000233	2.333569	0.395317	-0.000023
1488	1.4796e+02	5.1984	2.506379	0.000205	2.046990	0.346769	-0.000020
1489	1.4806e+02	5.1907	2.484790	0.000217	2.169809	0.367576	-0.000022
1490	1.4816e+02	5.1766	2.472162	0.000127	1.269134	0.214997	-0.000013
1491	1.4825e+02	5.1689	2.445277	0.000270	2.702027	0.457736	-0.000027
1492	1.4835e+02	5.1589	2.426540	0.000188	1.883231	0.319028	-0.000019
1493	1.4845e+02	5.1494	2.405358	0.000213	2.128870	0.360640	-0.000021
1494	1.4855e+02	5.1395	2.386213	0.000192	1.924171	0.325963	-0.000019
1495	1.4865e+02	5.1313	2.365438	0.000209	2.087930	0.353705	-0.000021
1496	1.4875e+02	5.1217	2.345478	0.000201	2.006050	0.339834	-0.000020
1497	1.4885e+02	5.1112	2.323075	0.000225	2.251689	0.381446	-0.000023
1498	1.4895e+02	5.1004	2.305559	0.000176	1.760411	0.298222	-0.000018
1499	1.4905e+02	5.0900	2.283562	0.000221	2.210749	0.374511	-0.000022
1500	1.4915e+02	5.0774	2.263195	0.000205	2.046990	0.346769	-0.000020
1501	1.4925e+02	5.0732	2.244865	0.000184	1.842291	0.312093	-0.000018
1502	1.4935e+02	5.0583	2.222868	0.000221	2.210749	0.374511	-0.000022
1503	1.4945e+02	5.0515	2.200057	0.000229	2.292629	0.388382	-0.000023
1504	1.4955e+02	5.0414	2.181319	0.000188	1.883231	0.319028	-0.000019
1505	1.4965e+02	5.0295	2.160545	0.000209	2.087930	0.353705	-0.000021
1506	1.4975e+02	5.0210	2.138956	0.000217	2.169809	0.367576	-0.000022
1507	1.4985e+02	5.0091	2.121033	0.000180	1.801351	0.305157	-0.000018
1508	1.4995e+02	5.0005	2.099444	0.000217	2.169809	0.367576	-0.000022
1509	1.5005e+02	4.9909	2.076225	0.000233	2.333569	0.395317	-0.000023
1510	1.5015e+02	4.9822	2.057487	0.000188	1.883231	0.319028	-0.000019
1511	1.5025e+02	4.9718	2.033454	0.000242	2.415448	0.409188	-0.000024
1512	1.5034e+02	4.9604	2.015531	0.000180	1.801351	0.305157	-0.000018
1513	1.5044e+02	4.9502	1.989461	0.000262	2.620147	0.443865	-0.000026
1514	1.5054e+02	4.9400	1.969501	0.000201	2.006050	0.339834	-0.000020
1515	1.5064e+02	4.9316	1.945468	0.000242	2.415448	0.409188	-0.000024
1516	1.5074e+02	4.9210	1.924286	0.000213	2.128870	0.360640	-0.000021
1517	1.5084e+02	4.9125	1.900660	0.000237	2.374508	0.402253	-0.000024
1518	1.5094e+02	4.9017	1.877442	0.000233	2.333569	0.395317	-0.000023
1519	1.5104e+02	4.8889	1.859519	0.000180	1.801351	0.305157	-0.000018
1520	1.5114e+02	4.8818	1.836708	0.000229	2.292629	0.388382	-0.000023
1521	1.5124e+02	4.8698	1.815118	0.000217	2.169809	0.367576	-0.000022
1522	1.5134e+02	4.8602	1.788641	0.000266	2.661087	0.450800	-0.000027
1523	1.5144e+02	4.8502	1.769496	0.000192	1.924171	0.325963	-0.000019
1524	1.5154e+02	4.8395	1.744648	0.000250	2.497328	0.423059	-0.000025
1525	1.5164e+02	4.8326	1.723466	0.000213	2.128870	0.360640	-0.000021
1526	1.5174e+02	4.8201	1.702285	0.000213	2.128870	0.360640	-0.000021
1527	1.5184e+02	4.8104	1.677029	0.000254	2.538268	0.429994	-0.000025
1528	1.5194e+02	4.8040	1.657477	0.000197	1.965110	0.332899	-0.000020
1529	1.5204e+02	4.7918	1.637924	0.000197	1.965110	0.332899	-0.000020
1530	1.5214e+02	4.7816	1.615113	0.000229	2.292629	0.388382	-0.000023
1531	1.5224e+02	4.7698	1.590673	0.000246	2.456388	0.416123	-0.000025
1532	1.5233e+02	4.7623	1.570306	0.000205	2.046990	0.346769	-0.000020
1533	1.5243e+02	4.7535	1.549531	0.000209	2.087930	0.353705	-0.000021
1534	1.5253e+02	4.7398	1.524276	0.000254	2.538268	0.429994	-0.000025
1535	1.5263e+02	4.7301	1.499835	0.000246	2.456388	0.416123	-0.000025
1536	1.5273e+02	4.7257	1.480283	0.000197	1.965110	0.332899	-0.000020
1537	1.5283e+02	4.7172	1.459508	0.000209	2.087930	0.353705	-0.000021
1538	1.5293e+02	4.7041	1.435882	0.000237	2.374508	0.402253	-0.000024
1539	1.5303e+02	4.6911	1.413886	0.000221	2.210749	0.374511	-0.000022
1540	1.5313e+02	4.6819	1.395556	0.000184	1.842291	0.312093	-0.000018
1541	1.5323e+02	4.6706	1.372337	0.000233	2.333569	0.395317	-0.000023
1542	1.5333e+02	4.6662	1.346674	0.000258	2.579207	0.436930	-0.000026
1543	1.5343e+02	4.6535	1.329159	0.000176	1.760411	0.298222	-0.000018
1544	1.5353e+02	4.6429	1.306755	0.000225	2.251689	0.381446	-0.000023
1545	1.5363e+02	4.6346	1.285166	0.000217	2.169809	0.367576	-0.000022
1546	1.5373e+02	4.6230	1.263169	0.000221	2.210749	0.374511	-0.000022
1547	1.5383e+02	4.6154	1.237507	0.000258	2.579207	0.436930	-0.000026
1548	1.5393e+02	4.6064	1.217140	0.000205	2.046990	0.346769	-0.000020
1549	1.5403e+02	4.5961	1.196772	0.000205	2.046990	0.346769	-0.000020
1550	1.5413e+02	4.5835	1.179257	0.000176	1.760411	0.298222	-0.000018
1551	1.5422e+02	4.5744	1.155223	0.000242	2.415448	0.409188	-0.000024
1552	1.5432e+02	4.5636	1.131598	0.000237	2.374508	0.402253	-0.000024
1553	1.5442e+02	4.5518	1.115304	0.000164	1.637592	0.277416	-0.000016
1554	1.5452e+02	4.5433	1.096566	0.000188	1.883231	0.319028	-0.000019
1555	1.5462e+02	4.5344	1.072533	0.000242	2.415448	0.409188	-0.000024
1556	1.5472e+02	4.5213	1.049722	0.000229	2.292629	0.388382	-0.000023
1557	1.5482e+02	4.5103	1.030984	0.000188	1.883231	0.319028	-0.000019
1558	1.5492e+02	4.5029	1.010617	0.000205	2.046990	0.346769	-0.000020
1559	1.5502e+02	4.4939	0.991064	0.000197	1.965110	0.332899	-0.000020
1560	1.5512e+02	4.4821	0.972327	0.000188	1.883231	0.319028	-0.000019
1561	1.5522e+02	4.4720	0.951552	0.000209	2.087930	0.353705	-0.000021
1562	1.5532e+02	4.4650	0.932407	0.000192	1.924171	0.325963	-0.000019
1563	1.5542e+02	4.4521	0.916113	0.000164	1.637592	0.277416	-0.000016
1564	1.5552e+02	4.4426	0.893710	0.000225	2.251689	0.381446	-0.000023
1565	1.5562e+02	4.4338	0.871713	0.000221	2.210749	0.374511	-0.000022
1566	1.5572e+02	4.4247	0.855012	0.000168	1.678532	0.284351	-0.000017
1567	1.5582e+02	4.4106	0.838718	0.000164	1.637592	0.277416	-0.000016
1568	1.5592e+02	4.4039	0.813870	0.000250	2.497328	0.423059	-0.000025
1569	1.5602e+02	4.3939	0.797169	0.000168	1.678532	0.284351	-0.000017
1570	1.5612e+02	4.3835	0.775580	0.000217	2.169809	0.367576	-0.000022
1571	1.5622e+02	4.3745	0.758879	0.000168	1.678532	0.284351	-0.000017
1572	1.5631e+02	4.3621	0.739734	0.000192	1.924171	0.325963	-0.000019
1573	1.5641e+02	4.3532	0.721404	0.000184	1.842291	0.312093	-0.000018
1574	1.5651e+02	4.3438	0.700222	0.000213	2.128870	0.360640	-0.000021
1575	1.5661e+02	4.3372	0.679855	0.000205	2.046990	0.346769	-0.000020
1576	1.5671e+02	4.3219	0.663561	0.000164	1.637592	0.277416	-0.000016
1577	1.5681e+02	4.3142	0.642787	0.000209	2.087930	0.353705	-0.000021
1578	1.5691e+02	4.3047	0.620790	0.000221	2.210749	0.374511	-0.000022
1579	1.5701e+02	4.2936	0.605311	0.000156	1.555712	0.263545	-0.000016
1580	1.5711e+02	4.2837	0.584944	0.000205	2.046990	0.346769	-0.000020
1581	1.5721e+02	4.2742	0.564577	0.000205	2.046990	0.346769	-0.000020
1582	1.5731e+02	4.2623	0.548690	0.000160	1.596652	0.270480	-0.000016
1583	1.5741e+02	4.2570	0.524657	0.000242	2.415448	0.409188	-0.000024
1584	1.5751e+02	4.2425	0.505105	0.000197	1.965110	0.332899	-0.000020
1585	1.5761e+02	4.2352	0.485960	0.000192	1.924171	0.325963	-0.000019
1586	1.5771e+02	4.2245	0.469259	0.000168	1.678532	0.284351	-0.000017
1587	1.5781e+02	4.2126	0.447669	0.000217	2.169809	0.367576	-0.000022
1588	1.5791e+02	4.2030	0.431783	0.000160	1.596652	0.270480	-0.000016
1589	1.5801e+02	4.1952	0.411416	0.000205	2.046990	0.346769	-0.000020
1590	1.5811e+02	4.1846	0.395530	0.000160	1.596652	0.270480	-0.000016
1591	1.5821e+02	4.1743	0.371496	0.000242	2.415448	0.409188	-0.000024
1592	1.5830e+02	4.1662	0.355203	0.000164	1.637592	0.277416	-0.000016
1593	1.5840e+02	4.1550	0.332392	0.000229	2.292629	0.388382	-0.000023
1594	1.5850e+02	4.1431	0.317320	0.000151	1.514773	0.256609	-0.000015
1595	1.5860e+02	4.1369	0.298175	0.000192	1.924171	0.325963	-0.000019
1596	1.5870e+02	4.1232	0.283510	0.000147	1.473833	0.249674	-0.000015
1597	1.5880e+02	4.1144	0.263143	0.000205	2.046990	0.346769	-0.000020
1598	1.5890e+02	4.1010	0.246442	0.000168	1.678532	0.284351	-0.000017
1599	1.5900e+02	4.0948	0.228519	0.000180	1.801351	0.305157	-0.000018
1600	1.5910e+02	4.0842	0.211003	0.000176	1.760411	0.298222	-0.000018
1601	1.5920e+02	4.0742	0.191451	0.000197	1.965110	0.332899	-0.000020
1602	1.5930e+02	4.0644	0.178009	0.000135	1.351013	0.228868	-0.000014
1603	1.5940e+02	4.0585	0.158456	0.000197	1.965110	0.332899	-0.000020
1604	1.5950e+02	4.0444	0.137274	0.000213	2.128870	0.360640	-0.000021
1605	1.5960e+02	4.0356	0.121388	0.000160	1.596652	0.270480	-0.000016
1606	1.5970e+02	4.0247	0.102650	0.000188	1.883231	0.319028	-0.000019
1607	1.5980e+02	4.0157	0.085135	0.000176	1.760411	0.298222	-0.000018
1608	1.5990e+02	4.0082	0.068841	0.000164	1.637592	0.277416	-0.000016
1609	1.6000e+02	3.9960	0.050918	0.000180	1.801351	0.305157	-0.000018
1610	1.6010e+02	3.9834	0.033402	0.000176	1.760411	0.298222	-0.000018
1611	1.6019e+02	3.9761	0.014257	0.000192	1.924171	0.325963	-0.000019
1612	1.6029e+02	3.9623	-0.002851	0.000172	1.719472	0.291286	-0.000017
1613	1.6039e+02	3.9568	-0.021996	0.000192	1.924171	0.325963	-0.000019
1614	1.6049e+02	3.9446	-0.040327	0.000184	1.842291	0.312093	-0.000018
1615	1.6059e+02	3.9377	-0.058657	0.000184	1.842291	0.312093	-0.000018
1616	1.6069e+02	3.9262	-0.079432	0.000209	2.087930	0.353705	-0.000021
1617	1.6079e+02	3.9141	-0.098984	0.000197	1.965110	0.332899	-0.000020
1618	1.6089e+02	3.9051	-0.117315	0.000184	1.842291	0.312093	-0.000018
1619	1.6099e+02	3.8956	-0.134016	0.000168	1.678532	0.284351	-0.000017
1620	1.6109e+02	3.8873	-0.153161	0.000192	1.924171	0.325963	-0.000019
1621	1.6119e+02	3.8801	-0.167010	0.000139	1.391953	0.235803	-0.000014
1622	1.6129e+02	3.8690	-0.184526	0.000176	1.760411	0.298222	-0.000018
1623	1.6139e+02	3.8558	-0.207745	0.000233	2.333569	0.395317	-0.000023
1624	1.6149e+02	3.8440	-0.223631	0.000160	1.596652	0.270480	-0.000016
1625	1.6159e+02	3.8374	-0.242369	0.000188	1.883231	0.319028	-0.000019
1626	1.6169e+02	3.8293	-0.260699	0.000184	1.842291	0.312093	-0.000018
1627	1.6179e+02	3.8160	-0.281474	0.000209	2.087930	0.353705	-0.000021
1628	1.6189e+02	3.8050	-0.298582	0.000172	1.719472	0.291286	-0.000017
1629	1.6199e+02	3.7955	-0.315690	0.000172	1.719472	0.291286	-0.000017
1630	1.6209e+02	3.7851	-0.336465	0.000209	2.087930	0.353705	-0.000021
1631	1.6219e+02	3.7808	-0.353166	0.000168	1.678532	0.284351	-0.000017
1632	1.6228e+02	3.7638	-0.376385	0.000233	2.333569	0.395317	-0.000023
1633	1.6238e+02	3.7598	-0.389012	0.000127	1.269134	0.214997	-0.000013
1634	1.6248e+02	3.7458	-0.408972	0.000201	2.006050	0.339834	-0.000020
1635	1.6258e+02	3.7396	-0.430968	0.000221	2.210749	0.374511	-0.000022
1636	1.6268e+02	3.7307	-0.448077	0.000172	1.719472	0.291286	-0.000017
1637	1.6278e+02	3.7192	-0.468444	0.000205	2.046990	0.346769	-0.000020
1638	1.6288e+02	3.7071	-0.493292	0.000250	2.497328	0.423059	-0.000025
1639	1.6298e+02	3.6998	-0.511215	0.000180	1.801351	0.305157	-0.000018
1640	1.6308e+02	3.6862	-0.529138	0.000180	1.801351	0.305157	-0.000018
1641	1.6318e+02	3.6741	-0.554801	0.000258	2.579207	0.436930	-0.000026
1642	1.6328e+02	3.6677	-0.571909	0.000172	1.719472	0.291286	-0.000017
1643	1.6338e+02	3.6611	-0.594720	0.000229	2.292629	0.388382	-0.000023
1644	1.6348e+02	3.6489	-0.616717	0.000221	2.210749	0.374511	-0.000022
1645	1.6358e+02	3.6370	-0.637084	0.000205	2.046990	0.346769	-0.000020
1646	1.6368e+02	3.6295	-0.657858	0.000209	2.087930	0.353705	-0.000021
1647	1.6378e+02	3.6144	-0.673745	0.000160	1.596652	0.270480	-0.000016
1648	1.6388e+02	3.6080	-0.698592	0.000250	2.497328	0.423059	-0.000025
1649	1.6398e+02	3.6000	-0.721404	0.000229	2.292629	0.388382	-0.000023
1650	1.6408e+02	3.5873	-0.745030	0.000237	2.374508	0.402253	-0.000024
1651	1.6418e+02	3.5775	-0.764582	0.000197	1.965110	0.332899	-0.000020
1652	1.6427e+02	3.5685	-0.788615	0.000242	2.415448	0.409188	-0.000024
1653	1.6437e+02	3.5587	-0.807760	0.000192	1.924171	0.325963	-0.000019
1654	1.6447e+02	3.5516	-0.828942	0.000213	2.128870	0.360640	-0.000021
1655	1.6457e+02	3.5366	-0.851346	0.000225	2.251689	0.381446	-0.000023
1656	1.6467e+02	3.5275	-0.872935	0.000217	2.169809	0.367576	-0.000022
1657	1.6477e+02	3.5199	-0.892488	0.000197	1.965110	0.332899	-0.000020
1658	1.6487e+02	3.5079	-0.917743	0.000254	2.538268	0.429994	-0.000025
1659	1.6497e+02	3.4965	-0.940554	0.000229	2.292629	0.388382	-0.000023
1660	1.6507e+02	3.4888	-0.960106	0.000197	1.965110	0.332899	-0.000020
1661	1.6517e+02	3.4791	-0.979659	0.000197	1.965110	0.332899	-0.000020
1662	1.6527e+02	3.4695	-1.003285	0.000237	2.374508	0.402253	-0.000024
1663	1.6537e+02	3.4573	-1.026503	0.000233	2.333569	0.395317	-0.000023
1664	1.6547e+02	3.4499	-1.046056	0.000197	1.965110	0.332899	-0.000020
1665	1.6557e+02	3.4406	-1.067645	0.000217	2.169809	0.367576	-0.000022
1666	1.6567e+02	3.4277	-1.091678	0.000242	2.415448	0.409188	-0.000024
1667	1.6577e+02	3.4184	-1.115304	0.000237	2.374508	0.402253	-0.000024
1668	1.6587e+02	3.4074	-1.133634	0.000184	1.842291	0.312093	-0.000018
1669	1.6597e+02	3.4008	-1.155223	0.000217	2.169809	0.367576	-0.000022
1670	1.6607e+02	3.3878	-1.180886	0.000258	2.579207	0.436930	-0.000026
1671	1.6616e+02	3.3790	-1.199216	0.000184	1.842291	0.312093	-0.000018
1672	1.6626e+02	3.3678	-1.221620	0.000225	2.251689	0.381446	-0.000023
1673	1.6636e+02	3.3587	-1.246468	0.000250	2.497328	0.423059	-0.000025
1674	1.6646e+02	3.3503	-1.264391	0.000180	1.801351	0.305157	-0.000018
1675	1.6656e+02	3.3378	-1.290054	0.000258	2.579207	0.436930	-0.000026
1676	1.6666e+02	3.3277	-1.311643	0.000217	2.169809	0.367576	-0.000022
1677	1.6676e+02	3.3179	-1.332417	0.000209	2.087930	0.353705	-0.000021
1678	1.6686e+02	3.3108	-1.357673	0.000254	2.538268	0.429994	-0.000025
1679	1.6696e+02	3.3001	-1.382521	0.000250	2.497328	0.423059	-0.000025
1680	1.6706e+02	3.2877	-1.405332	0.000229	2.292629	0.388382	-0.000023
1681	1.6716e+02	3.2806	-1.426514	0.000213	2.128870	0.360640	-0.000021
1682	1.6726e+02	3.2682	-1.452991	0.000266	2.661087	0.450800	-0.000027
1683	1.6736e+02	3.2578	-1.475395	0.000225	2.251689	0.381446	-0.000023
1684	1.6746e+02	3.2510	-1.502687	0.000274	2.742967	0.464671	-0.000027
1685	1.6756e+02	3.2369	-1.522646	0.000201	2.006050	0.339834	-0.000020
1686	1.6766e+02	3.2272	-1.549124	0.000266	2.661087	0.450800	-0.000027
1687	1.6776e+02	3.2201	-1.572342	0.000233	2.333569	0.395317	-0.000023
1688	1.6786e+02	3.2073	-1.595561	0.000233	2.333569	0.395317	-0.000023
1689	1.6796e+02	3.1974	-1.620001	0.000246	2.456388	0.416123	-0.000025
1690	1.6806e+02	3.1889	-1.645257	0.000254	2.538268	0.429994	-0.000025
1691	1.6816e+02	3.1802	-1.664809	0.000197	1.965110	0.332899	-0.000020
1692	1.6825e+02	3.1705	-1.690472	0.000258	2.579207	0.436930	-0.000026
1693	1.6835e+02	3.1603	-1.714505	0.000242	2.415448	0.409188	-0.000024
1694	1.6845e+02	3.1482	-1.740167	0.000258	2.579207	0.436930	-0.000026
1695	1.6855e+02	3.1409	-1.759312	0.000192	1.924171	0.325963	-0.000019
1696	1.6865e+02	3.1310	-1.784160	0.000250	2.497328	0.423059	-0.000025
1697	1.6875e+02	3.1243	-1.810638	0.000266	2.661087	0.450800	-0.000027
1698	1.6885e+02	3.1119	-1.833856	0.000233	2.333569	0.395317	-0.000023
1699	1.6895e+02	3.0990	-1.857482	0.000237	2.374508	0.402253	-0.000024
1700	1.6905e+02	3.0895	-1.880701	0.000233	2.333569	0.395317	-0.000023
1701	1.6915e+02	3.0826	-1.905956	0.000254	2.538268	0.429994	-0.000025
1702	1.6925e+02	3.0725	-1.927952	0.000221	2.210749	0.374511	-0.000022
1703	1.6935e+02	3.0608	-1.954022	0.000262	2.620147	0.443865	-0.000026
1704	1.6945e+02	3.0495	-1.976833	0.000229	2.292629	0.388382	-0.000023
1705	1.6955e+02	3.0397	-1.999645	0.000229	2.292629	0.388382	-0.000023
1706	1.6965e+02	3.0304	-2.024085	0.000246	2.456388	0.416123	-0.000025
1707	1.6975e+02	3.0193	-2.047304	0.000233	2.333569	0.395317	-0.000023
1708	1.6985e+02	3.0118	-2.066856	0.000197	1.965110	0.332899	-0.000020
1709	1.6995e+02	2.9984	-2.090075	0.000233	2.333569	0.395317	-0.000023
1710	1.7005e+02	2.9909	-2.116552	0.000266	2.661087	0.450800	-0.000027
1711	1.7015e+02	2.9818	-2.140585	0.000242	2.415448	0.409188	-0.000024
1712	1.7024e+02	2.9713	-2.161767	0.000213	2.128870	0.360640	-0.000021
1713	1.7034e+02	2.9603	-2.183356	0.000217	2.169809	0.367576	-0.000022
1714	1.7044e+02	2.9494	-2.206982	0.000237	2.374508	0.402253	-0.000024
1715	1.7054e+02	2.9448	-2.231830	0.000250	2.497328	0.423059	-0.000025
1716	1.7064e+02	2.9302	-2.255048	0.000233	2.333569	0.395317	-0.000023
1717	1.7074e+02	2.9205	-2.276230	0.000213	2.128870	0.360640	-0.000021
1718	1.7084e+02	2.9115	-2.303115	0.000270	2.702027	0.457736	-0.000027
1719	1.7094e+02	2.9006	-2.325111	0.000221	2.210749	0.374511	-0.000022
1720	1.7104e+02	2.8902	-2.343034	0.000180	1.801351	0.305157	-0.000018
1721	1.7114e+02	2.8826	-2.371141	0.000282	2.824846	0.478542	-0.000028
1722	1.7124e+02	2.8706	-2.388657	0.000176	1.760411	0.298222	-0.000018
1723	1.7134e+02	2.8605	-2.412283	0.000237	2.374508	0.402253	-0.000024
1724	1.7144e+02	2.8504	-2.433057	0.000209	2.087930	0.353705	-0.000021
1725	1.7154e+02	2.8393	-2.457905	0.000250	2.497328	0.423059	-0.000025
1726	1.7164e+02	2.8329	-2.475013	0.000172	1.719472	0.291286	-0.000017
1727	1.7174e+02	2.8199	-2.499454	0.000246	2.456388	0.416123	-0.000025
1728	1.7184e+02	2.8111	-2.515748	0.000164	1.637592	0.277416	-0.000016
1729	1.7194e+02	2.7999	-2.543040	0.000274	2.742967	0.464671	-0.000027
1730	1.7204e+02	2.7930	-2.561370	0.000184	1.842291	0.312093	-0.000018
1731	1.7213e+02	2.7829	-2.584996	0.000237	2.374508	0.402253	-0.000024
1732	1.7223e+02	2.7717	-2.607400	0.000225	2.251689	0.381446	-0.000023
1733	1.7233e+02	2.7657	-2.623693	0.000164	1.637592	0.277416	-0.000016
1734	1.7243e+02	2.7538	-2.649356	0.000258	2.579207	0.436930	-0.000026
1735	1.7253e+02	2.7387	-2.670130	0.000209	2.087930	0.353705	-0.000021
1736	1.7263e+02	2.7310	-2.686017	0.000160	1.596652	0.270480	-0.000016
1737	1.7273e+02	2.7217	-2.712901	0.000270	2.702027	0.457736	-0.000027
1738	1.7283e+02	2.7132	-2.736527	0.000237	2.374508	0.402253	-0.000024
1739	1.7293e+02	2.7029	-2.749562	0.000131	1.310074	0.221932	-0.000013
1740	1.7303e+02	2.6913	-2.769929	0.000205	2.046990	0.346769	-0.000020
1741	1.7313e+02	2.6807	-2.791111	0.000213	2.128870	0.360640	-0.000021
1742	1.7323e+02	2.6742	-2.816366	0.000254	2.538268	0.429994	-0.000025
1743	1.7333e+02	2.6623	-2.836734	0.000205	2.046990	0.346769	-0.000020
1744	1.7343e+02	2.6501	-2.859545	0.000229	2.292629	0.388382	-0.000023
1745	1.7353e+02	2.6451	-2.879912	0.000205	2.046990	0.346769	-0.000020
1746	1.7363e+02	2.6319	-2.902316	0.000225	2.251689	0.381446	-0.000023
1747	1.7373e+02	2.6218	-2.916573	0.000143	1.432893	0.242739	-0.000014
1748	1.7383e+02	2.6086	-2.942235	0.000258	2.579207	0.436930	-0.000026
1749	1.7393e+02	2.6006	-2.963010	0.000209	2.087930	0.353705	-0.000021
1750	1.7403e+02	2.5934	-2.982970	0.000201	2.006050	0.339834	-0.000020
1751	1.7413e+02	2.5823	-3.004559	0.000217	2.169809	0.367576	-0.000022
1752	1.7422e+02	2.5753	-3.026148	0.000217	2.169809	0.367576	-0.000022
1753	1.7432e+02	2.5623	-3.043664	0.000176	1.760411	0.298222	-0.000018
1754	1.7442e+02	2.5546	-3.064031	0.000205	2.046990	0.346769	-0.000020
1755	1.7452e+02	2.5427	-3.087657	0.000237	2.374508	0.402253	-0.000024
1756	1.7462e+02	2.5330	-3.106394	0.000188	1.883231	0.319028	-0.000019
1757	1.7472e+02	2.5223	-3.127576	0.000213	2.128870	0.360640	-0.000021
1758	1.7482e+02	2.5134	-3.148351	0.000209	2.087930	0.353705	-0.000021
1759	1.7492e+02	2.5027	-3.168718	0.000205	2.046990	0.346769	-0.000020
1760	1.7502e+02	2.4946	-3.189492	0.000209	2.087930	0.353705	-0.000021
1761	1.7512e+02	2.4842	-3.209045	0.000197	1.965110	0.332899	-0.000020
1762	1.7522e+02	2.4725	-3.224116	0.000151	1.514773	0.256609	-0.000015
1763	1.7532e+02	2.4629	-3.252223	0.000282	2.824846	0.478542	-0.000028
1764	1.7542e+02	2.4552	-3.267295	0.000151	1.514773	0.256609	-0.000015
1765	1.7552e+02	2.4418	-3.282774	0.000156	1.555712	0.263545	-0.000016
1766	1.7562e+02	2.4316	-3.304770	0.000221	2.210749	0.374511	-0.000022
1767	1.7572e+02	2.4230	-3.324730	0.000201	2.006050	0.339834	-0.000020
1768	1.7582e+02	2.4140	-3.347134	0.000225	2.251689	0.381446	-0.000023
1769	1.7592e+02	2.4034	-3.366686	0.000197	1.965110	0.332899	-0.000020
1770	1.7602e+02	2.3958	-3.385424	0.000188	1.883231	0.319028	-0.000019
1771	1.7612e+02	2.3842	-3.404569	0.000192	1.924171	0.325963	-0.000019
1772	1.7621e+02	2.3709	-3.423714	0.000192	1.924171	0.325963	-0.000019
1773	1.7631e+02	2.3644	-3.446118	0.000225	2.251689	0.381446	-0.000023
1774	1.7641e+02	2.3537	-3.459560	0.000135	1.351013	0.228868	-0.000014
1775	1.7651e+02	2.3429	-3.484001	0.000246	2.456388	0.416123	-0.000025
1776	1.7661e+02	2.3363	-3.500702	0.000168	1.678532	0.284351	-0.000017
1777	1.7671e+02	2.3265	-3.521069	0.000205	2.046990	0.346769	-0.000020
1778	1.7681e+02	2.3142	-3.537363	0.000164	1.637592	0.277416	-0.000016
1779	1.7691e+02	2.3020	-3.561803	0.000246	2.456388	0.416123	-0.000025
1780	1.7701e+02	2.2897	-3.581356	0.000197	1.965110	0.332899	-0.000020
1781	1.7711e+02	2.2827	-3.597649	0.000164	1.637592	0.277416	-0.000016
1782	1.7721e+02	2.2745	-3.620053	0.000225	2.251689	0.381446	-0.000023
1783	1.7731e+02	2.2646	-3.640420	0.000205	2.046990	0.346769	-0.000020
1784	1.7741e+02	2.2553	-3.661195	0.000209	2.087930	0.353705	-0.000021
1785	1.7751e+02	2.2445	-3.681155	0.000201	2.006050	0.339834	-0.000020
1786	1.7761e+02	2.2357	-3.699078	0.000180	1.801351	0.305157	-0.000018
1787	1.7771e+02	2.2247	-3.718630	0.000197	1.965110	0.332899	-0.000020
1788	1.7781e+02	2.2158	-3.736961	0.000184	1.842291	0.312093	-0.000018
1789	1.7791e+02	2.2058	-3.758550	0.000217	2.169809	0.367576	-0.000022
1790	1.7801e+02	2.1926	-3.777695	0.000192	1.924171	0.325963	-0.000019
1791	1.7810e+02	2.1864	-3.797655	0.000201	2.006050	0.339834	-0.000020
1792	1.7820e+02	2.1751	-3.820873	0.000233	2.333569	0.395317	-0.000023
1793	1.7830e+02	2.1656	-3.840018	0.000192	1.924171	0.325963	-0.000019
1794	1.7840e+02	2.1560	-3.859978	0.000201	2.006050	0.339834	-0.000020
1795	1.7850e+02	2.1443	-3.882382	0.000225	2.251689	0.381446	-0.000023
1796	1.7860e+02	2.1362	-3.899898	0.000176	1.760411	0.298222	-0.000018
1797	1.7870e+02	2.1256	-3.922301	0.000225	2.251689	0.381446	-0.000023
1798	1.7880e+02	2.1156	-3.940225	0.000180	1.801351	0.305157	-0.000018
1799	1.7890e+02	2.1062	-3.962221	0.000221	2.210749	0.374511	-0.000022
1800	1.7900e+02	2.0951	-3.985032	0.000229	2.292629	0.388382	-0.000023
1801	1.7910e+02	2.0818	-4.001326	0.000164	1.637592	0.277416	-0.000016
1802	1.7920e+02	2.0742	-4.026581	0.000254	2.538268	0.429994	-0.000025
1803	1.7930e+02	2.0635	-4.045726	0.000192	1.924171	0.325963	-0.000019
1804	1.7940e+02	2.0570	-4.066908	0.000213	2.128870	0.360640	-0.000021
1805	1.7950e+02	2.0447	-4.090534	0.000237	2.374508	0.402253	-0.000024
1806	1.7960e+02	2.0337	-4.109272	0.000188	1.883231	0.319028	-0.000019
1807	1.7970e+02	2.0235	-4.134120	0.000250	2.497328	0.423059	-0.000025
1808	1.7980e+02	2.0156	-4.160189	0.000262	2.620147	0.443865	-0.000026
1809	1.7990e+02	2.0046	-4.181371	0.000213	2.128870	0.360640	-0.000021
1810	1.8000e+02	1.9971	-4.199702	0.000184	1.842291	0.312093	-0.000018
1811	1.8009e+02	1.9875	-4.222920	0.000233	2.333569	0.395317	-0.000023
1812	1.8019e+02	1.9755	-4.246546	0.000237	2.374508	0.402253	-0.000024
1813	1.8029e+02	1.9669	-4.270172	0.000237	2.374508	0.402253	-0.000024
1814	1.8039e+02	1.9587	-4.290539	0.000205	2.046990	0.346769	-0.000020
1815	1.8049e+02	1.9469	-4.313758	0.000233	2.333569	0.395317	-0.000023
1816	1.8059e+02	1.9356	-4.334532	0.000209	2.087930	0.353705	-0.000021
1817	1.8069e+02	1.9250	-4.360195	0.000258	2.579207	0.436930	-0.000026
1818	1.8079e+02	1.9147	-4.381784	0.000217	2.169809	0.367576	-0.000022
1819	1.8089e+02	1.9065	-4.408261	0.000266	2.661087	0.450800	-0.000027
1820	1.8099e+02	1.8945	-4.431480	0.000233	2.333569	0.395317	-0.000023
1821	1.8109e+02	1.8853	-4.454698	0.000233	2.333569	0.395317	-0.000023
1822	1.8119e+02	1.8749	-4.476695	0.000221	2.210749	0.374511	-0.000022
1823	1.8129e+02	1.8652	-4.501135	0.000246	2.456388	0.416123	-0.000025
1824	1.8139e+02	1.8616	-4.527205	0.000262	2.620147	0.443865	-0.000026
1825	1.8149e+02	1.8468	-4.548794	0.000217	2.169809	0.367576	-0.000022
1826	1.8159e+02	1.8344	-4.569569	0.000209	2.087930	0.353705	-0.000021
1827	1.8169e+02	1.8299	-4.594417	0.000250	2.497328	0.423059	-0.000025
1828	1.8179e+02	1.8170	-4.617228	0.000229	2.292629	0.388382	-0.000023
1829	1.8189e+02	1.8079	-4.638002	0.000209	2.087930	0.353705	-0.000021
1830	1.8199e+02	1.7976	-4.664072	0.000262	2.620147	0.443865	-0.000026
1831	1.8209e+02	1.7853	-4.688513	0.000246	2.456388	0.416123	-0.000025
1832	1.8218e+02	1.7773	-4.707251	0.000188	1.883231	0.319028	-0.000019
1833	1.8228e+02	1.7657	-4.732913	0.000258	2.579207	0.436930	-0.000026
1834	1.8238e+02	1.7554	-4.760205	0.000274	2.742967	0.464671	-0.000027
1835	1.8248e+02	1.7475	-4.785053	0.000250	2.497328	0.423059	-0.000025
1836	1.8258e+02	1.7373	-4.802161	0.000172	1.719472	0.291286	-0.000017
1837	1.8268e+02	1.7298	-4.830268	0.000282	2.824846	0.478542	-0.000028
1838	1.8278e+02	1.7162	-4.855523	0.000254	2.538268	0.429994	-0.000025
1839	1.8288e+02	1.7071	-4.875076	0.000197	1.965110	0.332899	-0.000020
1840	1.8298e+02	1.6981	-4.899924	0.000250	2.497328	0.423059	-0.000025
1841	1.8308e+02	1.6877	-4.923957	0.000242	2.415448	0.409188	-0.000024
1842	1.8318e+02	1.6767	-4.947990	0.000242	2.415448	0.409188	-0.000024
1843	1.8328e+02	1.6676	-4.973653	0.000258	2.579207	0.436930	-0.000026
1844	1.8338e+02	1.6543	-4.999722	0.000262	2.620147	0.443865	-0.000026
1845	1.8348e+02	1.6451	-5.025792	0.000262	2.620147	0.443865	-0.000026
1846	1.8358e+02	1.6364	-5.051048	0.000254	2.538268	0.429994	-0.000025
1847	1.8368e+02	1.6318	-5.066934	0.000160	1.596652	0.270480	-0.000016
1848	1.8378e+02	1.6189	-5.095041	0.000282	2.824846	0.478542	-0.000028
1849	1.8388e+02	1.6087	-5.124369	0.000295	2.947666	0.499348	-0.000029
1850	1.8398e+02	1.5994	-5.150032	0.000258	2.579207	0.436930	-0.000026
1851	1.8407e+02	1.5896	-5.174065	0.000242	2.415448	0.409188	-0.000024
1852	1.8417e+02	1.5783	-5.201764	0.000278	2.783906	0.471607	-0.000028
1853	1.8427e+02	1.5678	-5.222946	0.000213	2.128870	0.360640	-0.000021
1854	1.8437e+02	1.5591	-5.251460	0.000287	2.865786	0.485477	-0.000029
1855	1.8447e+02	1.5462	-5.274679	0.000233	2.333569	0.395317	-0.000023
1856	1.8457e+02	1.5391	-5.302785	0.000282	2.824846	0.478542	-0.000028
1857	1.8467e+02	1.5268	-5.324374	0.000217	2.169809	0.367576	-0.000022
1858	1.8477e+02	1.5172	-5.351259	0.000270	2.702027	0.457736	-0.000027
1859	1.8487e+02	1.5079	-5.374885	0.000237	2.374508	0.402253	-0.000024
1860	1.8497e+02	1.4992	-5.403806	0.000291	2.906726	0.492413	-0.000029
1861	1.8507e+02	1.4893	-5.427025	0.000233	2.333569	0.395317	-0.000023
1862	1.8517e+02	1.4806	-5.453502	0.000266	2.661087	0.450800	-0.000027
1863	1.8527e+02	1.4719	-5.477128	0.000237	2.374508	0.402253	-0.000024
1864	1.8537e+02	1.4575	-5.501569	0.000246	2.456388	0.416123	-0.000025
1865	1.8547e+02	1.4474	-5.530897	0.000295	2.947666	0.499348	-0.000029
1866	1.8557e+02	1.4379	-5.555745	0.000250	2.497328	0.423059	-0.000025
1867	1.8567e+02	1.4288	-5.577334	0.000217	2.169809	0.367576	-0.000022
1868	1.8577e+02	1.4162	-5.602997	0.000258	2.579207	0.436930	-0.000026
1869	1.8587e+02	1.4095	-5.630696	0.000278	2.783906	0.471607	-0.000028
1870	1.8597e+02	1.3963	-5.655951	0.000254	2.538268	0.429994	-0.000025
1871	1.8606e+02	1.3869	-5.682429	0.000266	2.661087	0.450800	-0.000027
1872	1.8616e+02	1.3775	-5.706869	0.000246	2.456388	0.416123	-0.000025
1873	1.8626e+02	1.3683	-5.732532	0.000258	2.579207	0.436930	-0.000026
1874	1.8636e+02	1.3583	-5.755750	0.000233	2.333569	0.395317	-0.000023
1875	1.8646e+02	1.3490	-5.781820	0.000262	2.620147	0.443865	-0.000026
1876	1.8656e+02	1.3373	-5.808297	0.000266	2.661087	0.450800	-0.000027
1877	1.8666e+02	1.3295	-5.829072	0.000209	2.087930	0.353705	-0.000021
1878	1.8676e+02	1.3172	-5.856364	0.000274	2.742967	0.464671	-0.000027
1879	1.8686e+02	1.3123	-5.882841	0.000266	2.661087	0.450800	-0.000027
1880	1.8696e+02	1.2962	-5.907689	0.000250	2.497328	0.423059	-0.000025
1881	1.8706e+02	1.2910	-5.929686	0.000221	2.210749	0.374511	-0.000022
1882	1.8716e+02	1.2792	-5.956163	0.000266	2.661087	0.450800	-0.000027
1883	1.8726e+02	1.2669	-5.979381	0.000233	2.333569	0.395317	-0.000023
1884	1.8736e+02	1.2567	-6.006673	0.000274	2.742967	0.464671	-0.000027
1885	1.8746e+02	1.2482	-6.029077	0.000225	2.251689	0.381446	-0.000023
1886	1.8756e+02	1.2392	-6.053518	0.000246	2.456388	0.416123	-0.000025
1887	1.8766e+02	1.2301	-6.077144	0.000237	2.374508	0.402253	-0.000024
1888	1.8776e+02	1.2177	-6.101177	0.000242	2.415448	0.409188	-0.000024
1889	1.8786e+02	1.2093	-6.124803	0.000237	2.374508	0.402253	-0.000024
1890	1.8796e+02	1.1977	-6.152095	0.000274	2.742967	0.464671	-0.000027
1891	1.8806e+02	1.1884	-6.174906	0.000229	2.292629	0.388382	-0.000023
1892	1.8815e+02	1.1800	-6.199754	0.000250	2.497328	0.423059	-0.000025
1893	1.8825e+02	1.1707	-6.219713	0.000201	2.006050	0.339834	-0.000020
1894	1.8835e+02	1.1622	-6.240895	0.000213	2.128870	0.360640	-0.000021
1895	1.8845e+02	1.1500	-6.269002	0.000282	2.824846	0.478542	-0.000028
1896	1.8855e+02	1.1400	-6.291813	0.000229	2.292629	0.388382	-0.000023
1897	1.8865e+02	1.1316	-6.312588	0.000209	2.087930	0.353705	-0.000021
1898	1.8875e+02	1.1189	-6.337435	0.000250	2.497328	0.423059	-0.000025
1899	1.8885e+02	1.1096	-6.357395	0.000201	2.006050	0.339834	-0.000020
1900	1.8895e+02	1.0994	-6.385502	0.000282	2.824846	0.478542	-0.000028
1901	1.8905e+02	1.0900	-6.406276	0.000209	2.087930	0.353705	-0.000021
1902	1.8915e+02	1.0819	-6.427865	0.000217	2.169809	0.367576	-0.000022
1903	1.8925e+02	1.0699	-6.451084	0.000233	2.333569	0.395317	-0.000023
1904	1.8935e+02	1.0584	-6.475525	0.000246	2.456388	0.416123	-0.000025
1905	1.8945e+02	1.0509	-6.495892	0.000205	2.046990	0.346769	-0.000020
1906	1.8955e+02	1.0439	-6.518703	0.000229	2.292629	0.388382	-0.000023
1907	1.8965e+02	1.0300	-6.542329	0.000237	2.374508	0.402253	-0.000024
1908	1.8975e+02	1.0201	-6.564733	0.000225	2.251689	0.381446	-0.000023
1909	1.8985e+02	1.0122	-6.584692	0.000201	2.006050	0.339834	-0.000020
1910	1.8995e+02	1.0028	-6.610762	0.000262	2.620147	0.443865	-0.000026
1911	1.9004e+02	0.9906	-6.631537	0.000209	2.087930	0.353705	-0.000021
1912	1.9014e+02	0.9830	-6.657199	0.000258	2.579207	0.436930	-0.000026
1913	1.9024e+02	0.9734	-6.675530	0.000184	1.842291	0.312093	-0.000018
1914	1.9034e+02	0.9589	-6.700785	0.000254	2.538268	0.429994	-0.000025
1915	1.9044e+02	0.9534	-6.723189	0.000225	2.251689	0.381446	-0.000023
1916	1.9054e+02	0.9413	-6.740705	0.000176	1.760411	0.298222	-0.000018
1917	1.9064e+02	0.9315	-6.767589	0.000270	2.702027	0.457736	-0.000027
1918	1.9074e+02	0.9201	-6.789586	0.000221	2.210749	0.374511	-0.000022
1919	1.9084e+02	0.9126	-6.815656	0.000262	2.620147	0.443865	-0.000026
1920	1.9094e+02	0.9026	-6.833171	0.000176	1.760411	0.298222	-0.000018
1921	1.9104e+02	0.8929	-6.856390	0.000233	2.333569	0.395317	-0.000023
1922	1.9114e+02	0.8783	-6.879201	0.000229	2.292629	0.388382	-0.000023
1923	1.9124e+02	0.8717	-6.901198	0.000221	2.210749	0.374511	-0.000022
1924	1.9134e+02	0.8606	-6.923194	0.000221	2.210749	0.374511	-0.000022
1925	1.9144e+02	0.8521	-6.945191	0.000221	2.210749	0.374511	-0.000022
1926	1.9154e+02	0.8423	-6.968816	0.000237	2.374508	0.402253	-0.000024
1927	1.9164e+02	0.8290	-6.989591	0.000209	2.087930	0.353705	-0.000021
1928	1.9174e+02	0.8213	-7.012402	0.000229	2.292629	0.388382	-0.000023
1929	1.9184e+02	0.8098	-7.034399	0.000221	2.210749	0.374511	-0.000022
1930	1.9194e+02	0.8029	-7.052729	0.000184	1.842291	0.312093	-0.000018
1931	1.9203e+02	0.7930	-7.077984	0.000254	2.538268	0.429994	-0.000025
1932	1.9213e+02	0.7809	-7.097129	0.000192	1.924171	0.325963	-0.000019
1933	1.9223e+02	0.7734	-7.117089	0.000201	2.006050	0.339834	-0.000020
1934	1.9233e+02	0.7626	-7.139900	0.000229	2.292629	0.388382	-0.000023
1935	1.9243e+02	0.7503	-7.164748	0.000250	2.497328	0.423059	-0.000025
1936	1.9253e+02	0.7423	-7.183893	0.000192	1.924171	0.325963	-0.000019
1937	1.9263e+02	0.7313	-7.205075	0.000213	2.128870	0.360640	-0.000021
1938	1.9273e+02	0.7226	-7.226257	0.000213	2.128870	0.360640	-0.000021
1939	1.9283e+02	0.7129	-7.247031	0.000209	2.087930	0.353705	-0.000021
1940	1.9293e+02	0.7016	-7.267806	0.000209	2.087930	0.353705	-0.000021
1941	1.9303e+02	0.6926	-7.286951	0.000192	1.924171	0.325963	-0.000019
1942	1.9313e+02	0.6813	-7.312206	0.000254	2.538268	0.429994	-0.000025
1943	1.9323e+02	0.6720	-7.331351	0.000192	1.924171	0.325963	-0.000019
1944	1.9333e+02	0.6609	-7.352126	0.000209	2.087930	0.353705	-0.000021
1945	1.9343e+02	0.6535	-7.376566	0.000246	2.456388	0.416123	-0.000025
1946	1.9353e+02	0.6439	-7.393675	0.000172	1.719472	0.291286	-0.000017
1947	1.9363e+02	0.6324	-7.417708	0.000242	2.415448	0.409188	-0.000024
1948	1.9373e+02	0.6258	-7.433594	0.000160	1.596652	0.270480	-0.000016
1949	1.9383e+02	0.6103	-7.459257	0.000258	2.579207	0.436930	-0.000026
1950	1.9393e+02	0.6038	-7.481253	0.000221	2.210749	0.374511	-0.000022
1951	1.9403e+02	0.5923	-7.504064	0.000229	2.292629	0.388382	-0.000023
1952	1.9412e+02	0.5814	-7.526468	0.000225	2.251689	0.381446	-0.000023
1953	1.9422e+02	0.5727	-7.548465	0.000221	2.210749	0.374511	-0.000022
1954	1.9432e+02	0.5620	-7.565981	0.000176	1.760411	0.298222	-0.000018
1955	1.9442e+02	0.5536	-7.593273	0.000274	2.742967	0.464671	-0.000027
1956	1.9452e+02	0.5418	-7.611603	0.000184	1.842291	0.312093	-0.000018
1957	1.9462e+02	0.5327	-7.632785	0.000213	2.128870	0.360640	-0.000021
1958	1.9472e+02	0.5203	-7.656411	0.000237	2.374508	0.402253	-0.000024
1959	1.9482e+02	0.5158	-7.672704	0.000164	1.637592	0.277416	-0.000016
1960	1.9492e+02	0.5044	-7.699996	0.000274	2.742967	0.464671	-0.000027
1961	1.9502e+02	0.4951	-7.719549	0.000197	1.965110	0.332899	-0.000020
1962	1.9512e+02	0.4832	-7.743175	0.000237	2.374508	0.402253	-0.000024
1963	1.9522e+02	0.4731	-7.765171	0.000221	2.210749	0.374511	-0.000022
1964	1.9532e+02	0.4624	-7.785538	0.000205	2.046990	0.346769	-0.000020
1965	1.9542e+02	0.4561	-7.809164	0.000237	2.374508	0.402253	-0.000024
1966	1.9552e+02	0.4433	-7.828716	0.000197	1.965110	0.332899	-0.000020
1967	1.9562e+02	0.4359	-7.849084	0.000205	2.046990	0.346769	-0.000020
1968	1.9572e+02	0.4250	-7.876376	0.000274	2.742967	0.464671	-0.000027
1969	1.9582e+02	0.4129	-7.895521	0.000192	1.924171	0.325963	-0.000019
1970	1.9592e+02	0.4033	-7.917925	0.000225	2.251689	0.381446	-0.000023
1971	1.9601e+02	0.3960	-7.943587	0.000258	2.579207	0.436930	-0.000026
1972	1.9611e+02	0.3865	-7.966806	0.000233	2.333569	0.395317	-0.000023
1973	1.9621e+02	0.3740	-7.994912	0.000282	2.824846	0.478542	-0.000028
1974	1.9631e+02	0.3608	-8.014057	0.000192	1.924171	0.325963	-0.000019
1975	1.9641e+02	0.3539	-8.034832	0.000209	2.087930	0.353705	-0.000021
1976	1.9651e+02	0.3430	-8.061716	0.000270	2.702027	0.457736	-0.000027
1977	1.9661e+02	0.3327	-8.086972	0.000254	2.538268	0.429994	-0.000025
1978	1.9671e+02	0.3257	-8.110598	0.000237	2.374508	0.402253	-0.000024
1979	1.9681e+02	0.3150	-8.135445	0.000250	2.497328	0.423059	-0.000025
1980	1.9691e+02	0.3045	-8.160293	0.000250	2.497328	0.423059	-0.000025
1981	1.9701e+02	0.2934	-8.187585	0.000274	2.742967	0.464671	-0.000027
1982	1.9711e+02	0.2863	-8.208767	0.000213	2.128870	0.360640	-0.000021
1983	1.9721e+02	0.2723	-8.235652	0.000270	2.702027	0.457736	-0.000027
1984	1.9731e+02	0.2637	-8.253575	0.000180	1.801351	0.305157	-0.000018
1985	1.9741e+02	0.2535	-8.283718	0.000303	3.029545	0.513219	-0.000030
1986	1.9751e+02	0.2440	-8.305307	0.000217	2.169809	0.367576	-0.000022
1987	1.9761e+02	0.2334	-8.332192	0.000270	2.702027	0.457736	-0.000027
1988	1.9771e+02	0.2276	-8.359484	0.000274	2.742967	0.464671	-0.000027
1989	1.9781e+02	0.2176	-8.383110	0.000237	2.374508	0.402253	-0.000024
1990	1.9791e+02	0.2040	-8.409180	0.000262	2.620147	0.443865	-0.000026
1991	1.9800e+02	0.1974	-8.430769	0.000217	2.169809	0.367576	-0.000022
1992	1.9810e+02	0.1857	-8.458061	0.000274	2.742967	0.464671	-0.000027
1993	1.9820e+02	0.1745	-8.484131	0.000262	2.620147	0.443865	-0.000026
1994	1.9830e+02	0.1629	-8.507757	0.000237	2.374508	0.402253	-0.000024
1995	1.9840e+02	0.1532	-8.533826	0.000262	2.620147	0.443865	-0.000026
1996	1.9850e+02	0.1461	-8.559082	0.000254	2.538268	0.429994	-0.000025
1997	1.9860e+02	0.1322	-8.586374	0.000274	2.742967	0.464671	-0.000027
1998	1.9870e+02	0.1250	-8.611222	0.000250	2.497328	0.423059	-0.000025
1999	1.9880e+02	0.1156	-8.634847	0.000237	2.374508	0.402253	-0.000024
2000	1.9890e+02	0.1038	-8.660510	0.000258	2.579207	0.436930	-0.000026
2001	1.9900e+02	0.0938	-8.684136	0.000237	2.374508	0.402253	-0.000024
2002	1.9910e+02	0.0848	-8.711428	0.000274	2.742967	0.464671	-0.000027
2003	1.9920e+02	0.0764	-8.736683	0.000254	2.538268	0.429994	-0.000025
2004	1.9930e+02	0.0632	-8.764382	0.000278	2.783906	0.471607	-0.000028
2005	1.9940e+02	0.0545	-8.787601	0.000233	2.333569	0.395317	-0.000023
2006	1.9950e+02	0.0434	-8.815300	0.000278	2.783906	0.471607	-0.000028
2007	1.9960e+02	0.0360	-8.838111	0.000229	2.292629	0.388382	-0.000023
2008	1.9970e+02	0.0256	-8.865811	0.000278	2.783906	0.471607	-0.000028
2009	1.9980e+02	0.0137	-8.891066	0.000254	2.538268	0.429994	-0.000025
2010	1.9990e+02	0.0027	-8.919173	0.000282	2.824846	0.478542	-0.000028
2011	2.0000e+02	-0.0055	-8.942391	0.000282	2.824846	0.478542	-0.000023

PMax (uC/cm2):	2.08e+01
Pr (uC/cm2):	1.47e+00
-Pr (uC/cm2):	0.00e+00
PLoss (uC/cm2):	0.00e+00
C (Max-Eff) (nF):	2.09e-01
K (Eff):	3.53e+02
Vert. (+/-Pr) Shift (uC/cm2):	7.37e-01
Offset (uC/cm2):	1.04e+01

A (Loop Area - uC/cm2·Volts):	-1.47e-02



Hysteresis Version: 5.48.1 - Radiant Technologies, Inc., 1999 - 9/12/24

