»»»»»»»»»»»»»»»»»»»»»»»»»»»»»»»»»»»» Hysteresis ««««««««««««««««««««««««««««««««««««
»»»  Executed Version:	5.48.1
»»»  Vision Version:	5.48.4 (R)
»»»  Vision Compiled:	9/18/24
»»»  Driver Version:	5.47.0
»»»  Windows Version:	Windows 8 or 8.1
»»»  Processor Information:	x86 (AMD or Intel) - 32 Processors
»»»  Tester Name:	PMF21124-494 (100V)
»»»  Tester S/N:	PMF21124-494
»»»  Internal Amp Type:	100V RevK 270k
»»»  Internal Amp S/N:	iAB2-596/K     
»»»  Execution Count:	1
»»»»»»»»»»»»»»»»»»»»»»»»»»»»»»»»»»»»»»»»»»««««««««««««««««««««««««««««««««««««««««««

Stored:	6/26/2025 - 16:31:34
Configured:	06/26/25 10:24:47 AM
Executed:	06/26/25 04:30:51 PM

»»»»»»»»»»»»»»»»»»»»»»»»»»»»»»»»»»» Sample Info ««««««««««««««««««««««««««««««««««««
Sample Name:	
Lot Name:	
Wafer Name:	
Die Row/Column:	0/0
Capacitor Number:	0
Sample Area (cm2):	1.00e-04
Sample Thickness (microns):	1.50e-01

Amplifier:	Internal

»»»»»»»»»»»»»»»»»»»»»»»»»»»»»»»»»»» Tester Info «««««««««««««««««««««««««««««««««««
Tester Name:	PMF21124-494 (100V)
Tester Serial Number:	PMF21124-494
Return Signal Amp. Level:	1.9 [Index: 2]

»»»»»»»»»»»»»»»»»»»»»»»»»»»»»»»» Hysteresis Info ««««««««««««««««««««««««««««««««««
Task Name:	Hyst-562
Volts:	10.00
Field:	666.67 (kV/cm)
DCBias:	0.00
DCField:	0.00 (kV/cm)
Hysteresis Period (ms):	2.00e+02
Preset:	Enabled
Preset Delay (ms):	1.00e+03
Profile:	Standard Monopolar

»»»»»»»»»»»»»»»»»»»»»»»»»»»»»»»»»»»»»» Data «««««««««««««««««««««««««««««««««««««««
Points:	2011

Valid Data

Point	Time (ms)	Drive Voltage	Measured Polarization (uC/cm2)	Capacitance (uF)	Normalized Capacitance (uF/cm2)	Dielectric Constant	Instantaneous Current (mA)
   1	0.0000e+00	-0.0075	-9.677848	0.000229	2.291833	0.388247	0.000023
   2	9.9500e-02	0.0056	-9.655037	0.000229	2.291833	0.388247	0.000023
   3	1.9900e-01	0.0165	-9.633040	0.000221	2.209982	0.374381	0.000022
   4	2.9850e-01	0.0242	-9.612673	0.000205	2.046280	0.346649	0.000020
   5	3.9800e-01	0.0349	-9.591084	0.000217	2.169056	0.367448	0.000022
   6	4.9750e-01	0.0445	-9.569495	0.000217	2.169056	0.367448	0.000022
   7	5.9700e-01	0.0555	-9.550350	0.000192	1.923503	0.325850	0.000019
   8	6.9650e-01	0.0654	-9.525909	0.000246	2.455536	0.415979	0.000025
   9	7.9600e-01	0.0760	-9.505542	0.000205	2.046280	0.346649	0.000020
  10	8.9550e-01	0.0861	-9.480694	0.000250	2.496461	0.422912	0.000025
  11	9.9500e-01	0.0948	-9.461142	0.000196	1.964428	0.332783	0.000020
  12	1.0945e+00	0.1043	-9.438738	0.000225	2.250908	0.381314	0.000023
  13	1.1940e+00	0.1164	-9.420000	0.000188	1.882577	0.318917	0.000019
  14	1.2935e+00	0.1231	-9.394338	0.000258	2.578312	0.436778	0.000026
  15	1.3930e+00	0.1363	-9.375600	0.000188	1.882577	0.318917	0.000019
  16	1.4925e+00	0.1434	-9.356455	0.000192	1.923503	0.325850	0.000019
  17	1.5920e+00	0.1550	-9.332422	0.000241	2.414610	0.409046	0.000024
  18	1.6915e+00	0.1649	-9.312462	0.000201	2.005354	0.339716	0.000020
  19	1.7910e+00	0.1746	-9.286392	0.000262	2.619238	0.443711	0.000026
  20	1.8905e+00	0.1844	-9.263581	0.000229	2.291833	0.388247	0.000023
  21	1.9900e+00	0.1952	-9.241177	0.000225	2.250908	0.381314	0.000023
  22	2.0895e+00	0.2065	-9.219180	0.000221	2.209982	0.374381	0.000022
  23	2.1890e+00	0.2126	-9.196369	0.000229	2.291833	0.388247	0.000023
  24	2.2885e+00	0.2242	-9.173558	0.000229	2.291833	0.388247	0.000023
  25	2.3880e+00	0.2331	-9.150747	0.000229	2.291833	0.388247	0.000023
  26	2.4875e+00	0.2473	-9.134453	0.000164	1.637024	0.277319	0.000016
  27	2.5870e+00	0.2533	-9.108790	0.000258	2.578312	0.436778	0.000026
  28	2.6865e+00	0.2657	-9.090867	0.000180	1.800726	0.305051	0.000018
  29	2.7860e+00	0.2738	-9.070908	0.000201	2.005354	0.339716	0.000020
  30	2.8855e+00	0.2840	-9.046874	0.000241	2.414610	0.409046	0.000024
  31	2.9850e+00	0.2923	-9.020397	0.000266	2.660164	0.450644	0.000027
  32	3.0845e+00	0.3046	-8.997586	0.000229	2.291833	0.388247	0.000023
  33	3.1840e+00	0.3164	-8.975589	0.000221	2.209982	0.374381	0.000022
  34	3.2835e+00	0.3226	-8.952778	0.000229	2.291833	0.388247	0.000023
  35	3.3830e+00	0.3332	-8.928745	0.000241	2.414610	0.409046	0.000024
  36	3.4825e+00	0.3439	-8.910007	0.000188	1.882577	0.318917	0.000019
  37	3.5820e+00	0.3516	-8.885974	0.000241	2.414610	0.409046	0.000024
  38	3.6815e+00	0.3613	-8.864792	0.000213	2.128131	0.360515	0.000021
  39	3.7810e+00	0.3698	-8.844832	0.000201	2.005354	0.339716	0.000020
  40	3.8805e+00	0.3816	-8.829761	0.000151	1.514247	0.256520	0.000015
  41	3.9800e+00	0.3913	-8.805320	0.000246	2.455536	0.415979	0.000025
  42	4.0795e+00	0.4020	-8.784138	0.000213	2.128131	0.360515	0.000021
  43	4.1790e+00	0.4147	-8.769067	0.000151	1.514247	0.256520	0.000015
  44	4.2785e+00	0.4217	-8.740145	0.000291	2.905717	0.492242	0.000029
  45	4.3780e+00	0.4343	-8.722222	0.000180	1.800726	0.305051	0.000018
  46	4.4775e+00	0.4430	-8.701448	0.000209	2.087205	0.353582	0.000021
  47	4.5770e+00	0.4543	-8.679859	0.000217	2.169056	0.367448	0.000022
  48	4.6765e+00	0.4620	-8.659492	0.000205	2.046280	0.346649	0.000020
  49	4.7760e+00	0.4731	-8.637495	0.000221	2.209982	0.374381	0.000022
  50	4.8755e+00	0.4831	-8.615906	0.000217	2.169056	0.367448	0.000022
  51	4.9750e+00	0.4961	-8.593909	0.000221	2.209982	0.374381	0.000022
  52	5.0745e+00	0.5028	-8.567432	0.000266	2.660164	0.450644	0.000027
  53	5.1740e+00	0.5131	-8.549102	0.000184	1.841652	0.311984	0.000018
  54	5.2735e+00	0.5220	-8.524254	0.000250	2.496461	0.422912	0.000025
  55	5.3730e+00	0.5331	-8.501850	0.000225	2.250908	0.381314	0.000023
  56	5.4725e+00	0.5443	-8.480261	0.000217	2.169056	0.367448	0.000022
  57	5.5720e+00	0.5510	-8.464782	0.000156	1.555173	0.263453	0.000016
  58	5.6715e+00	0.5633	-8.433417	0.000315	3.151271	0.533840	0.000032
  59	5.7710e+00	0.5735	-8.415086	0.000184	1.841652	0.311984	0.000018
  60	5.8705e+00	0.5832	-8.389424	0.000258	2.578312	0.436778	0.000026
  61	5.9700e+00	0.5931	-8.363354	0.000262	2.619238	0.443711	0.000026
  62	6.0695e+00	0.6036	-8.338506	0.000250	2.496461	0.422912	0.000025
  63	6.1690e+00	0.6125	-8.315695	0.000229	2.291833	0.388247	0.000023
  64	6.2685e+00	0.6240	-8.293291	0.000225	2.250908	0.381314	0.000023
  65	6.3680e+00	0.6313	-8.265999	0.000274	2.742015	0.464510	0.000027
  66	6.4675e+00	0.6413	-8.244410	0.000217	2.169056	0.367448	0.000022
  67	6.5670e+00	0.6533	-8.219969	0.000246	2.455536	0.415979	0.000025
  68	6.6665e+00	0.6616	-8.195121	0.000250	2.496461	0.422912	0.000025
  69	6.7660e+00	0.6746	-8.174347	0.000209	2.087205	0.353582	0.000021
  70	6.8655e+00	0.6826	-8.149499	0.000250	2.496461	0.422912	0.000025
  71	6.9650e+00	0.6918	-8.129132	0.000205	2.046280	0.346649	0.000020
  72	7.0645e+00	0.7017	-8.110394	0.000188	1.882577	0.318917	0.000019
  73	7.1640e+00	0.7144	-8.084324	0.000262	2.619238	0.443711	0.000026
  74	7.2635e+00	0.7199	-8.066401	0.000180	1.800726	0.305051	0.000018
  75	7.3630e+00	0.7328	-8.044812	0.000217	2.169056	0.367448	0.000022
  76	7.4625e+00	0.7426	-8.015076	0.000299	2.987568	0.506108	0.000030
  77	7.5620e+00	0.7506	-8.000004	0.000151	1.514247	0.256520	0.000015
  78	7.6615e+00	0.7644	-7.977600	0.000225	2.250908	0.381314	0.000023
  79	7.7610e+00	0.7722	-7.951530	0.000262	2.619238	0.443711	0.000026
  80	7.8605e+00	0.7824	-7.933200	0.000184	1.841652	0.311984	0.000018
  81	7.9600e+00	0.7908	-7.907537	0.000258	2.578312	0.436778	0.000026
  82	8.0595e+00	0.8011	-7.888800	0.000188	1.882577	0.318917	0.000019
  83	8.1590e+00	0.8157	-7.866803	0.000221	2.209982	0.374381	0.000022
  84	8.2585e+00	0.8207	-7.844399	0.000225	2.250908	0.381314	0.000023
  85	8.3580e+00	0.8299	-7.825661	0.000188	1.882577	0.318917	0.000019
  86	8.4575e+00	0.8404	-7.799999	0.000258	2.578312	0.436778	0.000026
  87	8.5570e+00	0.8530	-7.777188	0.000229	2.291833	0.388247	0.000023
  88	8.6565e+00	0.8576	-7.753969	0.000233	2.332759	0.395180	0.000023
  89	8.7560e+00	0.8708	-7.731158	0.000229	2.291833	0.388247	0.000023
  90	8.8555e+00	0.8842	-7.708347	0.000229	2.291833	0.388247	0.000023
  91	8.9550e+00	0.8929	-7.690831	0.000176	1.759801	0.298118	0.000018
  92	9.0545e+00	0.9016	-7.662317	0.000286	2.864792	0.485309	0.000029
  93	9.1540e+00	0.9109	-7.644394	0.000180	1.800726	0.305051	0.000018
  94	9.2535e+00	0.9216	-7.622397	0.000221	2.209982	0.374381	0.000022
  95	9.3530e+00	0.9322	-7.599586	0.000229	2.291833	0.388247	0.000023
  96	9.4525e+00	0.9410	-7.572294	0.000274	2.742015	0.464510	0.000027
  97	9.5520e+00	0.9494	-7.556815	0.000156	1.555173	0.263453	0.000016
  98	9.6515e+00	0.9592	-7.532782	0.000241	2.414610	0.409046	0.000024
  99	9.7510e+00	0.9716	-7.510786	0.000221	2.209982	0.374381	0.000022
 100	9.8505e+00	0.9789	-7.486752	0.000241	2.414610	0.409046	0.000024
 101	9.9500e+00	0.9923	-7.466385	0.000205	2.046280	0.346649	0.000020
 102	1.0050e+01	0.9988	-7.442352	0.000241	2.414610	0.409046	0.000024
 103	1.0149e+01	1.0109	-7.420763	0.000217	2.169056	0.367448	0.000022
 104	1.0248e+01	1.0207	-7.402025	0.000188	1.882577	0.318917	0.000019
 105	1.0348e+01	1.0294	-7.380029	0.000221	2.209982	0.374381	0.000022
 106	1.0447e+01	1.0394	-7.357217	0.000229	2.291833	0.388247	0.000023
 107	1.0547e+01	1.0523	-7.336443	0.000209	2.087205	0.353582	0.000021
 108	1.0646e+01	1.0606	-7.314854	0.000217	2.169056	0.367448	0.000022
 109	1.0746e+01	1.0696	-7.288784	0.000262	2.619238	0.443711	0.000026
 110	1.0845e+01	1.0814	-7.272490	0.000164	1.637024	0.277319	0.000016
 111	1.0945e+01	1.0896	-7.250901	0.000217	2.169056	0.367448	0.000022
 112	1.1044e+01	1.1014	-7.227275	0.000237	2.373684	0.402113	0.000024
 113	1.1144e+01	1.1117	-7.204464	0.000229	2.291833	0.388247	0.000023
 114	1.1243e+01	1.1217	-7.179616	0.000250	2.496461	0.422912	0.000025
 115	1.1343e+01	1.1349	-7.165359	0.000143	1.432396	0.242654	0.000014
 116	1.1443e+01	1.1397	-7.138067	0.000274	2.742015	0.464510	0.000027
 117	1.1542e+01	1.1504	-7.118107	0.000201	2.005354	0.339716	0.000020
 118	1.1642e+01	1.1596	-7.093260	0.000250	2.496461	0.422912	0.000025
 119	1.1741e+01	1.1697	-7.074522	0.000188	1.882577	0.318917	0.000019
 120	1.1841e+01	1.1788	-7.052933	0.000217	2.169056	0.367448	0.000022
 121	1.1940e+01	1.1904	-7.028899	0.000241	2.414610	0.409046	0.000024
 122	1.2040e+01	1.1985	-7.006088	0.000229	2.291833	0.388247	0.000023
 123	1.2139e+01	1.2103	-6.981648	0.000246	2.455536	0.415979	0.000025
 124	1.2239e+01	1.2199	-6.960059	0.000217	2.169056	0.367448	0.000022
 125	1.2338e+01	1.2310	-6.939691	0.000205	2.046280	0.346649	0.000020
 126	1.2438e+01	1.2402	-6.914029	0.000258	2.578312	0.436778	0.000026
 127	1.2537e+01	1.2514	-6.891625	0.000225	2.250908	0.381314	0.000023
 128	1.2636e+01	1.2589	-6.870036	0.000217	2.169056	0.367448	0.000022
 129	1.2736e+01	1.2696	-6.849261	0.000209	2.087205	0.353582	0.000021
 130	1.2835e+01	1.2782	-6.819525	0.000299	2.987568	0.506108	0.000030
 131	1.2935e+01	1.2873	-6.800380	0.000192	1.923503	0.325850	0.000019
 132	1.3034e+01	1.2997	-6.780420	0.000201	2.005354	0.339716	0.000020
 133	1.3134e+01	1.3079	-6.760461	0.000201	2.005354	0.339716	0.000020
 134	1.3233e+01	1.3190	-6.738057	0.000225	2.250908	0.381314	0.000023
 135	1.3333e+01	1.3271	-6.718504	0.000196	1.964428	0.332783	0.000020
 136	1.3432e+01	1.3390	-6.692842	0.000258	2.578312	0.436778	0.000026
 137	1.3532e+01	1.3476	-6.671660	0.000213	2.128131	0.360515	0.000021
 138	1.3632e+01	1.3582	-6.651293	0.000205	2.046280	0.346649	0.000020
 139	1.3731e+01	1.3686	-6.627667	0.000237	2.373684	0.402113	0.000024
 140	1.3831e+01	1.3778	-6.608115	0.000196	1.964428	0.332783	0.000020
 141	1.3930e+01	1.3892	-6.588155	0.000201	2.005354	0.339716	0.000020
 142	1.4030e+01	1.3993	-6.567380	0.000209	2.087205	0.353582	0.000021
 143	1.4129e+01	1.4081	-6.545384	0.000221	2.209982	0.374381	0.000022
 144	1.4229e+01	1.4168	-6.525424	0.000201	2.005354	0.339716	0.000020
 145	1.4328e+01	1.4278	-6.508316	0.000172	1.718875	0.291185	0.000017
 146	1.4428e+01	1.4360	-6.487134	0.000213	2.128131	0.360515	0.000021
 147	1.4527e+01	1.4481	-6.468803	0.000184	1.841652	0.311984	0.000018
 148	1.4627e+01	1.4570	-6.445992	0.000229	2.291833	0.388247	0.000023
 149	1.4726e+01	1.4676	-6.429699	0.000164	1.637024	0.277319	0.000016
 150	1.4825e+01	1.4773	-6.408517	0.000213	2.128131	0.360515	0.000021
 151	1.4925e+01	1.4867	-6.383669	0.000250	2.496461	0.422912	0.000025
 152	1.5024e+01	1.4983	-6.366968	0.000168	1.677949	0.284252	0.000017
 153	1.5124e+01	1.5077	-6.342935	0.000241	2.414610	0.409046	0.000024
 154	1.5223e+01	1.5185	-6.321753	0.000213	2.128131	0.360515	0.000021
 155	1.5323e+01	1.5280	-6.301386	0.000205	2.046280	0.346649	0.000020
 156	1.5422e+01	1.5388	-6.280204	0.000213	2.128131	0.360515	0.000021
 157	1.5522e+01	1.5479	-6.259022	0.000213	2.128131	0.360515	0.000021
 158	1.5621e+01	1.5566	-6.239470	0.000196	1.964428	0.332783	0.000020
 159	1.5721e+01	1.5638	-6.218288	0.000213	2.128131	0.360515	0.000021
 160	1.5820e+01	1.5753	-6.195069	0.000233	2.332759	0.395180	0.000023
 161	1.5920e+01	1.5881	-6.172258	0.000229	2.291833	0.388247	0.000023
 162	1.6020e+01	1.5949	-6.157594	0.000147	1.473321	0.249587	0.000015
 163	1.6119e+01	1.6055	-6.133560	0.000241	2.414610	0.409046	0.000024
 164	1.6218e+01	1.6183	-6.111157	0.000225	2.250908	0.381314	0.000023
 165	1.6318e+01	1.6273	-6.090382	0.000209	2.087205	0.353582	0.000021
 166	1.6418e+01	1.6383	-6.067978	0.000225	2.250908	0.381314	0.000023
 167	1.6517e+01	1.6500	-6.048426	0.000196	1.964428	0.332783	0.000020
 168	1.6616e+01	1.6572	-6.026429	0.000221	2.209982	0.374381	0.000022
 169	1.6716e+01	1.6675	-6.007692	0.000188	1.882577	0.318917	0.000019
 170	1.6816e+01	1.6753	-5.986917	0.000209	2.087205	0.353582	0.000021
 171	1.6915e+01	1.6871	-5.962069	0.000250	2.496461	0.422912	0.000025
 172	1.7015e+01	1.6983	-5.944554	0.000176	1.759801	0.298118	0.000018
 173	1.7114e+01	1.7058	-5.922150	0.000225	2.250908	0.381314	0.000023
 174	1.7213e+01	1.7155	-5.900968	0.000213	2.128131	0.360515	0.000021
 175	1.7313e+01	1.7253	-5.879379	0.000217	2.169056	0.367448	0.000022
 176	1.7413e+01	1.7377	-5.858197	0.000213	2.128131	0.360515	0.000021
 177	1.7512e+01	1.7458	-5.837015	0.000213	2.128131	0.360515	0.000021
 178	1.7611e+01	1.7550	-5.819092	0.000180	1.800726	0.305051	0.000018
 179	1.7711e+01	1.7661	-5.797503	0.000217	2.169056	0.367448	0.000022
 180	1.7811e+01	1.7796	-5.778358	0.000192	1.923503	0.325850	0.000019
 181	1.7910e+01	1.7879	-5.753917	0.000246	2.455536	0.415979	0.000025
 182	1.8009e+01	1.7968	-5.736401	0.000176	1.759801	0.298118	0.000018
 183	1.8109e+01	1.8069	-5.714405	0.000221	2.209982	0.374381	0.000022
 184	1.8209e+01	1.8146	-5.693223	0.000213	2.128131	0.360515	0.000021
 185	1.8308e+01	1.8285	-5.667968	0.000254	2.537387	0.429845	0.000025
 186	1.8407e+01	1.8340	-5.649230	0.000188	1.882577	0.318917	0.000019
 187	1.8507e+01	1.8433	-5.627641	0.000217	2.169056	0.367448	0.000022
 188	1.8607e+01	1.8559	-5.606867	0.000209	2.087205	0.353582	0.000021
 189	1.8706e+01	1.8643	-5.581204	0.000258	2.578312	0.436778	0.000026
 190	1.8805e+01	1.8769	-5.562059	0.000192	1.923503	0.325850	0.000019
 191	1.8905e+01	1.8847	-5.543321	0.000188	1.882577	0.318917	0.000019
 192	1.9005e+01	1.8974	-5.519695	0.000237	2.373684	0.402113	0.000024
 193	1.9104e+01	1.9056	-5.502587	0.000172	1.718875	0.291185	0.000017
 194	1.9203e+01	1.9170	-5.483034	0.000196	1.964428	0.332783	0.000020
 195	1.9303e+01	1.9245	-5.461038	0.000221	2.209982	0.374381	0.000022
 196	1.9402e+01	1.9373	-5.439041	0.000221	2.209982	0.374381	0.000022
 197	1.9502e+01	1.9467	-5.417860	0.000213	2.128131	0.360515	0.000021
 198	1.9602e+01	1.9579	-5.395048	0.000229	2.291833	0.388247	0.000023
 199	1.9701e+01	1.9644	-5.374274	0.000209	2.087205	0.353582	0.000021
 200	1.9800e+01	1.9786	-5.353092	0.000213	2.128131	0.360515	0.000021
 201	1.9900e+01	1.9891	-5.326615	0.000266	2.660164	0.450644	0.000027
 202	2.0000e+01	1.9964	-5.306248	0.000205	2.046280	0.346649	0.000020
 203	2.0099e+01	2.0086	-5.285473	0.000209	2.087205	0.353582	0.000021
 204	2.0198e+01	2.0159	-5.265106	0.000205	2.046280	0.346649	0.000020
 205	2.0298e+01	2.0267	-5.245554	0.000196	1.964428	0.332783	0.000020
 206	2.0398e+01	2.0329	-5.226816	0.000188	1.882577	0.318917	0.000019
 207	2.0497e+01	2.0452	-5.208078	0.000188	1.882577	0.318917	0.000019
 208	2.0596e+01	2.0567	-5.185674	0.000225	2.250908	0.381314	0.000023
 209	2.0696e+01	2.0658	-5.167344	0.000184	1.841652	0.311984	0.000018
 210	2.0796e+01	2.0747	-5.148606	0.000188	1.882577	0.318917	0.000019
 211	2.0895e+01	2.0875	-5.128239	0.000205	2.046280	0.346649	0.000020
 212	2.0994e+01	2.0925	-5.109094	0.000192	1.923503	0.325850	0.000019
 213	2.1094e+01	2.1072	-5.090764	0.000184	1.841652	0.311984	0.000018
 214	2.1194e+01	2.1145	-5.068767	0.000221	2.209982	0.374381	0.000022
 215	2.1293e+01	2.1250	-5.049622	0.000192	1.923503	0.325850	0.000019
 216	2.1392e+01	2.1340	-5.029662	0.000201	2.005354	0.339716	0.000020
 217	2.1492e+01	2.1440	-5.007258	0.000225	2.250908	0.381314	0.000023
 218	2.1591e+01	2.1528	-4.988928	0.000184	1.841652	0.311984	0.000018
 219	2.1691e+01	2.1647	-4.967746	0.000213	2.128131	0.360515	0.000021
 220	2.1791e+01	2.1755	-4.945342	0.000225	2.250908	0.381314	0.000023
 221	2.1890e+01	2.1847	-4.920902	0.000246	2.455536	0.415979	0.000025
 222	2.1989e+01	2.1936	-4.901349	0.000196	1.964428	0.332783	0.000020
 223	2.2089e+01	2.2044	-4.877723	0.000237	2.373684	0.402113	0.000024
 224	2.2189e+01	2.2160	-4.862244	0.000156	1.555173	0.263453	0.000016
 225	2.2288e+01	2.2241	-4.839433	0.000229	2.291833	0.388247	0.000023
 226	2.2387e+01	2.2361	-4.816622	0.000229	2.291833	0.388247	0.000023
 227	2.2487e+01	2.2436	-4.795033	0.000217	2.169056	0.367448	0.000022
 228	2.2587e+01	2.2537	-4.771814	0.000233	2.332759	0.395180	0.000023
 229	2.2686e+01	2.2649	-4.743708	0.000282	2.823866	0.478376	0.000028
 230	2.2785e+01	2.2752	-4.719267	0.000246	2.455536	0.415979	0.000025
 231	2.2885e+01	2.2823	-4.696863	0.000225	2.250908	0.381314	0.000023
 232	2.2985e+01	2.2933	-4.676904	0.000201	2.005354	0.339716	0.000020
 233	2.3084e+01	2.3035	-4.653278	0.000237	2.373684	0.402113	0.000024
 234	2.3183e+01	2.3137	-4.628837	0.000246	2.455536	0.415979	0.000025
 235	2.3283e+01	2.3251	-4.611321	0.000176	1.759801	0.298118	0.000018
 236	2.3383e+01	2.3328	-4.588103	0.000233	2.332759	0.395180	0.000023
 237	2.3482e+01	2.3429	-4.563662	0.000246	2.455536	0.415979	0.000025
 238	2.3581e+01	2.3545	-4.544517	0.000192	1.923503	0.325850	0.000019
 239	2.3681e+01	2.3656	-4.525372	0.000192	1.923503	0.325850	0.000019
 240	2.3780e+01	2.3742	-4.505820	0.000196	1.964428	0.332783	0.000020
 241	2.3880e+01	2.3821	-4.481786	0.000241	2.414610	0.409046	0.000024
 242	2.3980e+01	2.3956	-4.461827	0.000201	2.005354	0.339716	0.000020
 243	2.4079e+01	2.4049	-4.444311	0.000176	1.759801	0.298118	0.000018
 244	2.4178e+01	2.4142	-4.423129	0.000213	2.128131	0.360515	0.000021
 245	2.4278e+01	2.4236	-4.396652	0.000266	2.660164	0.450644	0.000027
 246	2.4378e+01	2.4325	-4.373841	0.000229	2.291833	0.388247	0.000023
 247	2.4477e+01	2.4435	-4.358769	0.000151	1.514247	0.256520	0.000015
 248	2.4576e+01	2.4526	-4.334736	0.000241	2.414610	0.409046	0.000024
 249	2.4676e+01	2.4638	-4.315998	0.000188	1.882577	0.318917	0.000019
 250	2.4776e+01	2.4766	-4.294409	0.000217	2.169056	0.367448	0.000022
 251	2.4875e+01	2.4837	-4.269561	0.000250	2.496461	0.422912	0.000025
 252	2.4974e+01	2.4940	-4.252453	0.000172	1.718875	0.291185	0.000017
 253	2.5074e+01	2.5018	-4.229234	0.000233	2.332759	0.395180	0.000023
 254	2.5174e+01	2.5120	-4.209274	0.000201	2.005354	0.339716	0.000020
 255	2.5273e+01	2.5241	-4.188907	0.000205	2.046280	0.346649	0.000020
 256	2.5372e+01	2.5320	-4.164059	0.000250	2.496461	0.422912	0.000025
 257	2.5472e+01	2.5408	-4.147358	0.000168	1.677949	0.284252	0.000017
 258	2.5572e+01	2.5520	-4.128620	0.000188	1.882577	0.318917	0.000019
 259	2.5671e+01	2.5648	-4.107439	0.000213	2.128131	0.360515	0.000021
 260	2.5770e+01	2.5742	-4.085442	0.000221	2.209982	0.374381	0.000022
 261	2.5870e+01	2.5822	-4.065075	0.000205	2.046280	0.346649	0.000020
 262	2.5970e+01	2.5890	-4.040634	0.000246	2.455536	0.415979	0.000025
 263	2.6069e+01	2.6034	-4.017416	0.000233	2.332759	0.395180	0.000023
 264	2.6169e+01	2.6113	-4.000715	0.000168	1.677949	0.284252	0.000017
 265	2.6268e+01	2.6205	-3.976274	0.000246	2.455536	0.415979	0.000025
 266	2.6367e+01	2.6301	-3.957129	0.000192	1.923503	0.325850	0.000019
 267	2.6467e+01	2.6434	-3.935947	0.000213	2.128131	0.360515	0.000021
 268	2.6567e+01	2.6518	-3.915988	0.000201	2.005354	0.339716	0.000020
 269	2.6666e+01	2.6622	-3.892362	0.000237	2.373684	0.402113	0.000024
 270	2.6765e+01	2.6717	-3.872402	0.000201	2.005354	0.339716	0.000020
 271	2.6865e+01	2.6827	-3.851220	0.000213	2.128131	0.360515	0.000021
 272	2.6965e+01	2.6922	-3.830446	0.000209	2.087205	0.353582	0.000021
 273	2.7064e+01	2.7042	-3.814967	0.000156	1.555173	0.263453	0.000016
 274	2.7163e+01	2.7105	-3.789711	0.000254	2.537387	0.429845	0.000025
 275	2.7263e+01	2.7213	-3.772196	0.000176	1.759801	0.298118	0.000018
 276	2.7363e+01	2.7309	-3.753051	0.000192	1.923503	0.325850	0.000019
 277	2.7462e+01	2.7427	-3.730239	0.000229	2.291833	0.388247	0.000023
 278	2.7561e+01	2.7533	-3.706614	0.000237	2.373684	0.402113	0.000024
 279	2.7661e+01	2.7648	-3.688690	0.000180	1.800726	0.305051	0.000018
 280	2.7761e+01	2.7714	-3.668323	0.000205	2.046280	0.346649	0.000020
 281	2.7860e+01	2.7811	-3.648364	0.000201	2.005354	0.339716	0.000020
 282	2.7959e+01	2.7937	-3.624330	0.000241	2.414610	0.409046	0.000024
 283	2.8059e+01	2.8030	-3.607629	0.000168	1.677949	0.284252	0.000017
 284	2.8159e+01	2.8136	-3.583596	0.000241	2.414610	0.409046	0.000024
 285	2.8258e+01	2.8194	-3.564451	0.000192	1.923503	0.325850	0.000019
 286	2.8358e+01	2.8320	-3.543677	0.000209	2.087205	0.353582	0.000021
 287	2.8457e+01	2.8428	-3.520458	0.000233	2.332759	0.395180	0.000023
 288	2.8556e+01	2.8514	-3.501720	0.000188	1.882577	0.318917	0.000019
 289	2.8656e+01	2.8613	-3.478094	0.000237	2.373684	0.402113	0.000024
 290	2.8756e+01	2.8704	-3.458949	0.000192	1.923503	0.325850	0.000019
 291	2.8855e+01	2.8811	-3.440212	0.000188	1.882577	0.318917	0.000019
 292	2.8954e+01	2.8893	-3.412512	0.000278	2.782940	0.471443	0.000028
 293	2.9054e+01	2.8979	-3.392552	0.000201	2.005354	0.339716	0.000020
 294	2.9154e+01	2.9127	-3.368519	0.000241	2.414610	0.409046	0.000024
 295	2.9253e+01	2.9202	-3.347337	0.000213	2.128131	0.360515	0.000021
 296	2.9352e+01	2.9308	-3.327378	0.000201	2.005354	0.339716	0.000020
 297	2.9452e+01	2.9397	-3.302937	0.000246	2.455536	0.415979	0.000025
 298	2.9552e+01	2.9527	-3.285014	0.000180	1.800726	0.305051	0.000018
 299	2.9651e+01	2.9613	-3.263425	0.000217	2.169056	0.367448	0.000022
 300	2.9750e+01	2.9697	-3.243872	0.000196	1.964428	0.332783	0.000020
 301	2.9850e+01	2.9823	-3.220247	0.000237	2.373684	0.402113	0.000024
 302	2.9950e+01	2.9919	-3.202323	0.000180	1.800726	0.305051	0.000018
 303	3.0049e+01	3.0010	-3.181549	0.000209	2.087205	0.353582	0.000021
 304	3.0148e+01	3.0114	-3.159960	0.000217	2.169056	0.367448	0.000022
 305	3.0248e+01	3.0199	-3.137149	0.000229	2.291833	0.388247	0.000023
 306	3.0348e+01	3.0305	-3.119226	0.000180	1.800726	0.305051	0.000018
 307	3.0447e+01	3.0394	-3.096007	0.000233	2.332759	0.395180	0.000023
 308	3.0547e+01	3.0490	-3.080121	0.000160	1.596098	0.270386	0.000016
 309	3.0646e+01	3.0631	-3.056902	0.000233	2.332759	0.395180	0.000023
 310	3.0745e+01	3.0709	-3.038572	0.000184	1.841652	0.311984	0.000018
 311	3.0845e+01	3.0814	-3.022685	0.000160	1.596098	0.270386	0.000016
 312	3.0945e+01	3.0922	-3.003133	0.000196	1.964428	0.332783	0.000020
 313	3.1044e+01	3.1011	-2.981951	0.000213	2.128131	0.360515	0.000021
 314	3.1143e+01	3.1095	-2.964028	0.000180	1.800726	0.305051	0.000018
 315	3.1243e+01	3.1200	-2.948549	0.000156	1.555173	0.263453	0.000016
 316	3.1343e+01	3.1288	-2.927775	0.000209	2.087205	0.353582	0.000021
 317	3.1442e+01	3.1385	-2.911074	0.000168	1.677949	0.284252	0.000017
 318	3.1541e+01	3.1496	-2.890299	0.000209	2.087205	0.353582	0.000021
 319	3.1641e+01	3.1608	-2.867081	0.000233	2.332759	0.395180	0.000023
 320	3.1741e+01	3.1672	-2.852009	0.000151	1.514247	0.256520	0.000015
 321	3.1840e+01	3.1794	-2.829605	0.000225	2.250908	0.381314	0.000023
 322	3.1939e+01	3.1902	-2.811275	0.000184	1.841652	0.311984	0.000018
 323	3.2039e+01	3.2008	-2.791722	0.000196	1.964428	0.332783	0.000020
 324	3.2139e+01	3.2101	-2.767282	0.000246	2.455536	0.415979	0.000025
 325	3.2238e+01	3.2201	-2.752617	0.000147	1.473321	0.249587	0.000015
 326	3.2337e+01	3.2302	-2.727362	0.000254	2.537387	0.429845	0.000025
 327	3.2437e+01	3.2389	-2.707402	0.000201	2.005354	0.339716	0.000020
 328	3.2536e+01	3.2494	-2.687035	0.000205	2.046280	0.346649	0.000020
 329	3.2636e+01	3.2577	-2.672371	0.000147	1.473321	0.249587	0.000015
 330	3.2736e+01	3.2707	-2.651189	0.000213	2.128131	0.360515	0.000021
 331	3.2835e+01	3.2798	-2.632044	0.000192	1.923503	0.325850	0.000019
 332	3.2934e+01	3.2908	-2.613306	0.000188	1.882577	0.318917	0.000019
 333	3.3034e+01	3.2994	-2.595383	0.000180	1.800726	0.305051	0.000018
 334	3.3133e+01	3.3103	-2.574201	0.000213	2.128131	0.360515	0.000021
 335	3.3233e+01	3.3192	-2.554241	0.000201	2.005354	0.339716	0.000020
 336	3.3333e+01	3.3285	-2.535504	0.000188	1.882577	0.318917	0.000019
 337	3.3432e+01	3.3379	-2.509841	0.000258	2.578312	0.436778	0.000026
 338	3.3532e+01	3.3498	-2.492325	0.000176	1.759801	0.298118	0.000018
 339	3.3631e+01	3.3592	-2.471144	0.000213	2.128131	0.360515	0.000021
 340	3.3730e+01	3.3687	-2.447518	0.000237	2.373684	0.402113	0.000024
 341	3.3830e+01	3.3794	-2.432446	0.000151	1.514247	0.256520	0.000015
 342	3.3929e+01	3.3854	-2.413301	0.000192	1.923503	0.325850	0.000019
 343	3.4029e+01	3.4005	-2.392934	0.000205	2.046280	0.346649	0.000020
 344	3.4129e+01	3.4068	-2.372567	0.000205	2.046280	0.346649	0.000020
 345	3.4228e+01	3.4184	-2.350163	0.000225	2.250908	0.381314	0.000023
 346	3.4328e+01	3.4283	-2.333054	0.000172	1.718875	0.291185	0.000017
 347	3.4427e+01	3.4383	-2.315131	0.000180	1.800726	0.305051	0.000018
 348	3.4526e+01	3.4479	-2.295579	0.000196	1.964428	0.332783	0.000020
 349	3.4626e+01	3.4611	-2.273175	0.000225	2.250908	0.381314	0.000023
 350	3.4725e+01	3.4667	-2.253215	0.000201	2.005354	0.339716	0.000020
 351	3.4825e+01	3.4795	-2.235700	0.000176	1.759801	0.298118	0.000018
 352	3.4925e+01	3.4850	-2.212481	0.000233	2.332759	0.395180	0.000023
 353	3.5024e+01	3.4995	-2.194965	0.000176	1.759801	0.298118	0.000018
 354	3.5123e+01	3.5114	-2.175006	0.000201	2.005354	0.339716	0.000020
 355	3.5223e+01	3.5178	-2.153416	0.000217	2.169056	0.367448	0.000022
 356	3.5322e+01	3.5274	-2.132235	0.000213	2.128131	0.360515	0.000021
 357	3.5422e+01	3.5384	-2.112682	0.000196	1.964428	0.332783	0.000020
 358	3.5522e+01	3.5503	-2.093944	0.000188	1.882577	0.318917	0.000019
 359	3.5621e+01	3.5586	-2.070319	0.000237	2.373684	0.402113	0.000024
 360	3.5721e+01	3.5683	-2.052395	0.000180	1.800726	0.305051	0.000018
 361	3.5820e+01	3.5780	-2.032028	0.000205	2.046280	0.346649	0.000020
 362	3.5919e+01	3.5880	-2.014513	0.000176	1.759801	0.298118	0.000018
 363	3.6019e+01	3.5998	-1.994145	0.000205	2.046280	0.346649	0.000020
 364	3.6118e+01	3.6085	-1.971334	0.000229	2.291833	0.388247	0.000023
 365	3.6218e+01	3.6175	-1.956263	0.000151	1.514247	0.256520	0.000015
 366	3.6318e+01	3.6272	-1.933044	0.000233	2.332759	0.395180	0.000023
 367	3.6417e+01	3.6370	-1.914714	0.000184	1.841652	0.311984	0.000018
 368	3.6517e+01	3.6476	-1.894754	0.000201	2.005354	0.339716	0.000020
 369	3.6616e+01	3.6587	-1.871128	0.000237	2.373684	0.402113	0.000024
 370	3.6715e+01	3.6660	-1.854427	0.000168	1.677949	0.284252	0.000017
 371	3.6815e+01	3.6781	-1.829986	0.000246	2.455536	0.415979	0.000025
 372	3.6914e+01	3.6889	-1.815322	0.000147	1.473321	0.249587	0.000015
 373	3.7014e+01	3.6965	-1.794955	0.000205	2.046280	0.346649	0.000020
 374	3.7114e+01	3.7083	-1.772551	0.000225	2.250908	0.381314	0.000023
 375	3.7213e+01	3.7182	-1.759923	0.000127	1.268693	0.214922	0.000013
 376	3.7313e+01	3.7334	-1.740371	0.000196	1.964428	0.332783	0.000020
 377	3.7412e+01	3.7348	-1.721633	0.000188	1.882577	0.318917	0.000019
 378	3.7511e+01	3.7489	-1.704525	0.000172	1.718875	0.291185	0.000017
 379	3.7611e+01	3.7556	-1.684158	0.000205	2.046280	0.346649	0.000020
 380	3.7711e+01	3.7644	-1.667457	0.000168	1.677949	0.284252	0.000017
 381	3.7810e+01	3.7746	-1.646682	0.000209	2.087205	0.353582	0.000021
 382	3.7910e+01	3.7856	-1.631611	0.000151	1.514247	0.256520	0.000015
 383	3.8009e+01	3.7982	-1.611651	0.000201	2.005354	0.339716	0.000020
 384	3.8108e+01	3.8052	-1.588432	0.000233	2.332759	0.395180	0.000023
 385	3.8208e+01	3.8145	-1.571324	0.000172	1.718875	0.291185	0.000017
 386	3.8307e+01	3.8236	-1.550142	0.000213	2.128131	0.360515	0.000021
 387	3.8407e+01	3.8377	-1.528553	0.000217	2.169056	0.367448	0.000022
 388	3.8507e+01	3.8433	-1.506964	0.000217	2.169056	0.367448	0.000022
 389	3.8606e+01	3.8565	-1.487004	0.000201	2.005354	0.339716	0.000020
 390	3.8706e+01	3.8689	-1.469488	0.000176	1.759801	0.298118	0.000018
 391	3.8805e+01	3.8770	-1.451973	0.000176	1.759801	0.298118	0.000018
 392	3.8904e+01	3.8860	-1.431198	0.000209	2.087205	0.353582	0.000021
 393	3.9004e+01	3.8953	-1.407165	0.000241	2.414610	0.409046	0.000024
 394	3.9103e+01	3.9059	-1.388020	0.000192	1.923503	0.325850	0.000019
 395	3.9203e+01	3.9169	-1.364801	0.000233	2.332759	0.395180	0.000023
 396	3.9303e+01	3.9288	-1.342397	0.000225	2.250908	0.381314	0.000023
 397	3.9402e+01	3.9355	-1.319994	0.000225	2.250908	0.381314	0.000023
 398	3.9502e+01	3.9454	-1.299219	0.000209	2.087205	0.353582	0.000021
 399	3.9601e+01	3.9554	-1.278037	0.000213	2.128131	0.360515	0.000021
 400	3.9700e+01	3.9651	-1.255633	0.000225	2.250908	0.381314	0.000023
 401	3.9800e+01	3.9756	-1.233230	0.000225	2.250908	0.381314	0.000023
 402	3.9900e+01	3.9845	-1.212455	0.000209	2.087205	0.353582	0.000021
 403	3.9999e+01	3.9968	-1.190051	0.000225	2.250908	0.381314	0.000023
 404	4.0099e+01	4.0060	-1.173350	0.000168	1.677949	0.284252	0.000017
 405	4.0198e+01	4.0160	-1.152983	0.000205	2.046280	0.346649	0.000020
 406	4.0297e+01	4.0271	-1.133023	0.000201	2.005354	0.339716	0.000020
 407	4.0397e+01	4.0362	-1.112656	0.000205	2.046280	0.346649	0.000020
 408	4.0496e+01	4.0459	-1.094326	0.000184	1.841652	0.311984	0.000018
 409	4.0596e+01	4.0582	-1.073959	0.000205	2.046280	0.346649	0.000020
 410	4.0696e+01	4.0667	-1.053999	0.000201	2.005354	0.339716	0.000020
 411	4.0795e+01	4.0759	-1.032410	0.000217	2.169056	0.367448	0.000022
 412	4.0895e+01	4.0859	-1.018153	0.000143	1.432396	0.242654	0.000014
 413	4.0994e+01	4.0952	-0.994934	0.000233	2.332759	0.395180	0.000023
 414	4.1093e+01	4.1036	-0.977418	0.000176	1.759801	0.298118	0.000018
 415	4.1193e+01	4.1160	-0.955829	0.000217	2.169056	0.367448	0.000022
 416	4.1292e+01	4.1239	-0.935055	0.000209	2.087205	0.353582	0.000021
 417	4.1392e+01	4.1335	-0.911429	0.000237	2.373684	0.402113	0.000024
 418	4.1492e+01	4.1448	-0.895950	0.000156	1.555173	0.263453	0.000016
 419	4.1591e+01	4.1521	-0.873546	0.000225	2.250908	0.381314	0.000023
 420	4.1691e+01	4.1660	-0.857252	0.000164	1.637024	0.277319	0.000016
 421	4.1790e+01	4.1769	-0.834034	0.000233	2.332759	0.395180	0.000023
 422	4.1889e+01	4.1848	-0.816111	0.000180	1.800726	0.305051	0.000018
 423	4.1989e+01	4.1955	-0.794522	0.000217	2.169056	0.367448	0.000022
 424	4.2089e+01	4.2034	-0.774562	0.000201	2.005354	0.339716	0.000020
 425	4.2188e+01	4.2150	-0.755824	0.000188	1.882577	0.318917	0.000019
 426	4.2288e+01	4.2266	-0.737494	0.000184	1.841652	0.311984	0.000018
 427	4.2387e+01	4.2361	-0.715905	0.000217	2.169056	0.367448	0.000022
 428	4.2486e+01	4.2445	-0.698389	0.000176	1.759801	0.298118	0.000018
 429	4.2586e+01	4.2553	-0.672319	0.000262	2.619238	0.443711	0.000026
 430	4.2685e+01	4.2644	-0.654803	0.000176	1.759801	0.298118	0.000018
 431	4.2785e+01	4.2745	-0.635251	0.000196	1.964428	0.332783	0.000020
 432	4.2885e+01	4.2838	-0.616513	0.000188	1.882577	0.318917	0.000019
 433	4.2984e+01	4.2932	-0.594516	0.000221	2.209982	0.374381	0.000022
 434	4.3084e+01	4.3040	-0.575371	0.000192	1.923503	0.325850	0.000019
 435	4.3183e+01	4.3130	-0.557856	0.000176	1.759801	0.298118	0.000018
 436	4.3282e+01	4.3226	-0.535859	0.000221	2.209982	0.374381	0.000022
 437	4.3382e+01	4.3362	-0.517529	0.000184	1.841652	0.311984	0.000018
 438	4.3481e+01	4.3467	-0.497976	0.000196	1.964428	0.332783	0.000020
 439	4.3581e+01	4.3546	-0.480053	0.000180	1.800726	0.305051	0.000018
 440	4.3681e+01	4.3659	-0.457242	0.000229	2.291833	0.388247	0.000023
 441	4.3780e+01	4.3732	-0.440134	0.000172	1.718875	0.291185	0.000017
 442	4.3880e+01	4.3834	-0.419766	0.000205	2.046280	0.346649	0.000020
 443	4.3979e+01	4.3943	-0.402251	0.000176	1.759801	0.298118	0.000018
 444	4.4078e+01	4.4054	-0.379032	0.000233	2.332759	0.395180	0.000023
 445	4.4178e+01	4.4105	-0.362331	0.000168	1.677949	0.284252	0.000017
 446	4.4278e+01	4.4237	-0.343186	0.000192	1.923503	0.325850	0.000019
 447	4.4377e+01	4.4378	-0.320375	0.000229	2.291833	0.388247	0.000023
 448	4.4477e+01	4.4430	-0.300822	0.000196	1.964428	0.332783	0.000020
 449	4.4576e+01	4.4508	-0.282085	0.000188	1.882577	0.318917	0.000019
 450	4.4675e+01	4.4630	-0.264162	0.000180	1.800726	0.305051	0.000018
 451	4.4775e+01	4.4730	-0.245831	0.000184	1.841652	0.311984	0.000018
 452	4.4874e+01	4.4802	-0.225871	0.000201	2.005354	0.339716	0.000020
 453	4.4974e+01	4.4894	-0.205912	0.000201	2.005354	0.339716	0.000020
 454	4.5074e+01	4.5042	-0.188803	0.000172	1.718875	0.291185	0.000017
 455	4.5173e+01	4.5124	-0.164770	0.000241	2.414610	0.409046	0.000024
 456	4.5273e+01	4.5242	-0.145625	0.000192	1.923503	0.325850	0.000019
 457	4.5372e+01	4.5345	-0.130553	0.000151	1.514247	0.256520	0.000015
 458	4.5471e+01	4.5435	-0.105705	0.000250	2.496461	0.422912	0.000025
 459	4.5571e+01	4.5528	-0.086968	0.000188	1.882577	0.318917	0.000019
 460	4.5670e+01	4.5638	-0.064971	0.000221	2.209982	0.374381	0.000022
 461	4.5770e+01	4.5731	-0.041753	0.000233	2.332759	0.395180	0.000023
 462	4.5870e+01	4.5837	-0.021385	0.000205	2.046280	0.346649	0.000020
 463	4.5969e+01	4.5931	-0.005092	0.000164	1.637024	0.277319	0.000016
 464	4.6069e+01	4.6033	0.017312	0.000225	2.250908	0.381314	0.000023
 465	4.6168e+01	4.6111	0.038494	0.000213	2.128131	0.360515	0.000021
 466	4.6267e+01	4.6217	0.060490	0.000221	2.209982	0.374381	0.000022
 467	4.6367e+01	4.6319	0.078821	0.000184	1.841652	0.311984	0.000018
 468	4.6467e+01	4.6404	0.097559	0.000188	1.882577	0.318917	0.000019
 469	4.6566e+01	4.6513	0.118740	0.000213	2.128131	0.360515	0.000021
 470	4.6666e+01	4.6627	0.134627	0.000160	1.596098	0.270386	0.000016
 471	4.6765e+01	4.6712	0.158253	0.000237	2.373684	0.402113	0.000024
 472	4.6864e+01	4.6825	0.173732	0.000156	1.555173	0.263453	0.000016
 473	4.6964e+01	4.6900	0.192877	0.000192	1.923503	0.325850	0.000019
 474	4.7063e+01	4.7004	0.212429	0.000196	1.964428	0.332783	0.000020
 475	4.7163e+01	4.7137	0.233204	0.000209	2.087205	0.353582	0.000021
 476	4.7263e+01	4.7217	0.249497	0.000164	1.637024	0.277319	0.000016
 477	4.7362e+01	4.7307	0.270272	0.000209	2.087205	0.353582	0.000021
 478	4.7462e+01	4.7403	0.291046	0.000209	2.087205	0.353582	0.000021
 479	4.7561e+01	4.7498	0.307340	0.000164	1.637024	0.277319	0.000016
 480	4.7660e+01	4.7619	0.320782	0.000135	1.350545	0.228788	0.000014
 481	4.7760e+01	4.7704	0.339927	0.000192	1.923503	0.325850	0.000019
 482	4.7859e+01	4.7832	0.359480	0.000196	1.964428	0.332783	0.000020
 483	4.7959e+01	4.7924	0.373737	0.000143	1.432396	0.242654	0.000014
 484	4.8059e+01	4.8026	0.390438	0.000168	1.677949	0.284252	0.000017
 485	4.8158e+01	4.8122	0.406732	0.000164	1.637024	0.277319	0.000016
 486	4.8258e+01	4.8223	0.425062	0.000184	1.841652	0.311984	0.000018
 487	4.8357e+01	4.8333	0.444207	0.000192	1.923503	0.325850	0.000019
 488	4.8456e+01	4.8428	0.467833	0.000237	2.373684	0.402113	0.000024
 489	4.8556e+01	4.8528	0.486978	0.000192	1.923503	0.325850	0.000019
 490	4.8656e+01	4.8611	0.504086	0.000172	1.718875	0.291185	0.000017
 491	4.8755e+01	4.8708	0.522009	0.000180	1.800726	0.305051	0.000018
 492	4.8855e+01	4.8821	0.543599	0.000217	2.169056	0.367448	0.000022
 493	4.8954e+01	4.8922	0.557448	0.000139	1.391470	0.235721	0.000014
 494	4.9053e+01	4.9012	0.579852	0.000225	2.250908	0.381314	0.000023
 495	4.9153e+01	4.9120	0.596961	0.000172	1.718875	0.291185	0.000017
 496	4.9252e+01	4.9213	0.615291	0.000184	1.841652	0.311984	0.000018
 497	4.9352e+01	4.9300	0.631585	0.000164	1.637024	0.277319	0.000016
 498	4.9452e+01	4.9406	0.650322	0.000188	1.882577	0.318917	0.000019
 499	4.9551e+01	4.9525	0.669875	0.000196	1.964428	0.332783	0.000020
 500	4.9651e+01	4.9574	0.690242	0.000205	2.046280	0.346649	0.000020
 501	4.9750e+01	4.9712	0.707350	0.000172	1.718875	0.291185	0.000017
 502	4.9849e+01	4.9805	0.727310	0.000201	2.005354	0.339716	0.000020
 503	4.9949e+01	4.9908	0.743604	0.000164	1.637024	0.277319	0.000016
 504	5.0048e+01	4.9995	0.763971	0.000205	2.046280	0.346649	0.000020
 505	5.0148e+01	5.0096	0.785560	0.000217	2.169056	0.367448	0.000022
 506	5.0248e+01	5.0135	0.801854	0.000164	1.637024	0.277319	0.000016
 507	5.0347e+01	5.0306	0.821406	0.000196	1.964428	0.332783	0.000020
 508	5.0447e+01	5.0410	0.841773	0.000205	2.046280	0.346649	0.000020
 509	5.0546e+01	5.0513	0.858882	0.000172	1.718875	0.291185	0.000017
 510	5.0645e+01	5.0602	0.879249	0.000205	2.046280	0.346649	0.000020
 511	5.0745e+01	5.0749	0.897172	0.000180	1.800726	0.305051	0.000018
 512	5.0844e+01	5.0782	0.911429	0.000143	1.432396	0.242654	0.000014
 513	5.0944e+01	5.0915	0.933425	0.000221	2.209982	0.374381	0.000022
 514	5.1044e+01	5.1014	0.951756	0.000184	1.841652	0.311984	0.000018
 515	5.1143e+01	5.1070	0.969679	0.000180	1.800726	0.305051	0.000018
 516	5.1242e+01	5.1176	0.989231	0.000196	1.964428	0.332783	0.000020
 517	5.1342e+01	5.1313	1.008784	0.000196	1.964428	0.332783	0.000020
 518	5.1441e+01	5.1385	1.023448	0.000147	1.473321	0.249587	0.000015
 519	5.1541e+01	5.1491	1.045852	0.000225	2.250908	0.381314	0.000023
 520	5.1641e+01	5.1583	1.064182	0.000184	1.841652	0.311984	0.000018
 521	5.1740e+01	5.1712	1.084142	0.000201	2.005354	0.339716	0.000020
 522	5.1840e+01	5.1814	1.103287	0.000192	1.923503	0.325850	0.000019
 523	5.1939e+01	5.1910	1.122025	0.000188	1.882577	0.318917	0.000019
 524	5.2038e+01	5.2003	1.143207	0.000213	2.128131	0.360515	0.000021
 525	5.2138e+01	5.2102	1.159908	0.000168	1.677949	0.284252	0.000017
 526	5.2237e+01	5.2221	1.183126	0.000233	2.332759	0.395180	0.000023
 527	5.2337e+01	5.2328	1.200235	0.000172	1.718875	0.291185	0.000017
 528	5.2437e+01	5.2389	1.215714	0.000156	1.555173	0.263453	0.000016
 529	5.2536e+01	5.2497	1.233637	0.000180	1.800726	0.305051	0.000018
 530	5.2636e+01	5.2570	1.252375	0.000188	1.882577	0.318917	0.000019
 531	5.2735e+01	5.2690	1.270705	0.000184	1.841652	0.311984	0.000018
 532	5.2834e+01	5.2791	1.290665	0.000201	2.005354	0.339716	0.000020
 533	5.2934e+01	5.2906	1.307773	0.000172	1.718875	0.291185	0.000017
 534	5.3033e+01	5.2987	1.328955	0.000213	2.128131	0.360515	0.000021
 535	5.3133e+01	5.3091	1.347693	0.000188	1.882577	0.318917	0.000019
 536	5.3233e+01	5.3172	1.367653	0.000201	2.005354	0.339716	0.000020
 537	5.3332e+01	5.3283	1.386798	0.000192	1.923503	0.325850	0.000019
 538	5.3431e+01	5.3385	1.406350	0.000196	1.964428	0.332783	0.000020
 539	5.3531e+01	5.3516	1.423459	0.000172	1.718875	0.291185	0.000017
 540	5.3630e+01	5.3593	1.441789	0.000184	1.841652	0.311984	0.000018
 541	5.3730e+01	5.3687	1.463378	0.000217	2.169056	0.367448	0.000022
 542	5.3830e+01	5.3802	1.475598	0.000123	1.227768	0.207989	0.000012
 543	5.3929e+01	5.3888	1.492707	0.000172	1.718875	0.291185	0.000017
 544	5.4029e+01	5.3986	1.509000	0.000164	1.637024	0.277319	0.000016
 545	5.4128e+01	5.4084	1.525294	0.000164	1.637024	0.277319	0.000016
 546	5.4227e+01	5.4176	1.543625	0.000184	1.841652	0.311984	0.000018
 547	5.4327e+01	5.4281	1.563177	0.000196	1.964428	0.332783	0.000020
 548	5.4426e+01	5.4388	1.579878	0.000168	1.677949	0.284252	0.000017
 549	5.4526e+01	5.4465	1.598209	0.000184	1.841652	0.311984	0.000018
 550	5.4626e+01	5.4590	1.611651	0.000135	1.350545	0.228788	0.000014
 551	5.4725e+01	5.4688	1.632018	0.000205	2.046280	0.346649	0.000020
 552	5.4825e+01	5.4813	1.650348	0.000184	1.841652	0.311984	0.000018
 553	5.4924e+01	5.4893	1.671530	0.000213	2.128131	0.360515	0.000021
 554	5.5023e+01	5.5004	1.688639	0.000172	1.718875	0.291185	0.000017
 555	5.5123e+01	5.5099	1.708598	0.000201	2.005354	0.339716	0.000020
 556	5.5222e+01	5.5186	1.728965	0.000205	2.046280	0.346649	0.000020
 557	5.5322e+01	5.5273	1.746074	0.000172	1.718875	0.291185	0.000017
 558	5.5422e+01	5.5379	1.766441	0.000205	2.046280	0.346649	0.000020
 559	5.5521e+01	5.5473	1.782327	0.000160	1.596098	0.270386	0.000016
 560	5.5620e+01	5.5544	1.807175	0.000250	2.496461	0.422912	0.000025
 561	5.5720e+01	5.5679	1.824284	0.000172	1.718875	0.291185	0.000017
 562	5.5819e+01	5.5775	1.843836	0.000196	1.964428	0.332783	0.000020
 563	5.5919e+01	5.5877	1.865833	0.000221	2.209982	0.374381	0.000022
 564	5.6019e+01	5.5985	1.885792	0.000201	2.005354	0.339716	0.000020
 565	5.6118e+01	5.6069	1.906974	0.000213	2.128131	0.360515	0.000021
 566	5.6218e+01	5.6204	1.929785	0.000229	2.291833	0.388247	0.000023
 567	5.6317e+01	5.6255	1.946894	0.000172	1.718875	0.291185	0.000017
 568	5.6416e+01	5.6384	1.970520	0.000237	2.373684	0.402113	0.000024
 569	5.6516e+01	5.6498	1.992923	0.000225	2.250908	0.381314	0.000023
 570	5.6615e+01	5.6564	2.005144	0.000123	1.227768	0.207989	0.000012
 571	5.6715e+01	5.6713	2.029992	0.000250	2.496461	0.422912	0.000025
 572	5.6815e+01	5.6786	2.047507	0.000176	1.759801	0.298118	0.000018
 573	5.6914e+01	5.6873	2.063801	0.000164	1.637024	0.277319	0.000016
 574	5.7014e+01	5.6988	2.086205	0.000225	2.250908	0.381314	0.000023
 575	5.7113e+01	5.7080	2.100869	0.000147	1.473321	0.249587	0.000015
 576	5.7212e+01	5.7168	2.120422	0.000196	1.964428	0.332783	0.000020
 577	5.7312e+01	5.7250	2.140381	0.000201	2.005354	0.339716	0.000020
 578	5.7411e+01	5.7378	2.157082	0.000168	1.677949	0.284252	0.000017
 579	5.7511e+01	5.7485	2.178264	0.000213	2.128131	0.360515	0.000021
 580	5.7611e+01	5.7561	2.194151	0.000160	1.596098	0.270386	0.000016
 581	5.7710e+01	5.7658	2.215332	0.000213	2.128131	0.360515	0.000021
 582	5.7809e+01	5.7757	2.232441	0.000172	1.718875	0.291185	0.000017
 583	5.7909e+01	5.7880	2.252808	0.000205	2.046280	0.346649	0.000020
 584	5.8008e+01	5.7960	2.271546	0.000188	1.882577	0.318917	0.000019
 585	5.8108e+01	5.8068	2.288247	0.000168	1.677949	0.284252	0.000017
 586	5.8208e+01	5.8162	2.306985	0.000188	1.882577	0.318917	0.000019
 587	5.8307e+01	5.8254	2.322464	0.000156	1.555173	0.263453	0.000016
 588	5.8407e+01	5.8376	2.343645	0.000213	2.128131	0.360515	0.000021
 589	5.8506e+01	5.8450	2.363198	0.000196	1.964428	0.332783	0.000020
 590	5.8605e+01	5.8578	2.385194	0.000221	2.209982	0.374381	0.000022
 591	5.8705e+01	5.8685	2.402303	0.000172	1.718875	0.291185	0.000017
 592	5.8804e+01	5.8744	2.419411	0.000172	1.718875	0.291185	0.000017
 593	5.8904e+01	5.8855	2.437741	0.000184	1.841652	0.311984	0.000018
 594	5.9004e+01	5.8958	2.454035	0.000164	1.637024	0.277319	0.000016
 595	5.9103e+01	5.9080	2.472366	0.000184	1.841652	0.311984	0.000018
 596	5.9203e+01	5.9173	2.498436	0.000262	2.619238	0.443711	0.000026
 597	5.9302e+01	5.9264	2.512693	0.000143	1.432396	0.242654	0.000014
 598	5.9401e+01	5.9351	2.533467	0.000209	2.087205	0.353582	0.000021
 599	5.9501e+01	5.9464	2.553427	0.000201	2.005354	0.339716	0.000020
 600	5.9600e+01	5.9571	2.574201	0.000209	2.087205	0.353582	0.000021
 601	5.9700e+01	5.9650	2.591310	0.000172	1.718875	0.291185	0.000017
 602	5.9800e+01	5.9766	2.607603	0.000164	1.637024	0.277319	0.000016
 603	5.9899e+01	5.9864	2.628785	0.000213	2.128131	0.360515	0.000021
 604	5.9998e+01	5.9946	2.643042	0.000143	1.432396	0.242654	0.000014
 605	6.0098e+01	6.0030	2.660965	0.000180	1.800726	0.305051	0.000018
 606	6.0197e+01	6.0143	2.677666	0.000168	1.677949	0.284252	0.000017
 607	6.0297e+01	6.0246	2.698033	0.000205	2.046280	0.346649	0.000020
 608	6.0397e+01	6.0371	2.715142	0.000172	1.718875	0.291185	0.000017
 609	6.0496e+01	6.0499	2.735102	0.000201	2.005354	0.339716	0.000020
 610	6.0596e+01	6.0552	2.753432	0.000184	1.841652	0.311984	0.000018
 611	6.0695e+01	6.0650	2.776243	0.000229	2.291833	0.388247	0.000023
 612	6.0794e+01	6.0751	2.790093	0.000139	1.391470	0.235721	0.000014
 613	6.0894e+01	6.0821	2.809645	0.000196	1.964428	0.332783	0.000020
 614	6.0993e+01	6.0952	2.826754	0.000172	1.718875	0.291185	0.000017
 615	6.1093e+01	6.1028	2.844677	0.000180	1.800726	0.305051	0.000018
 616	6.1193e+01	6.1150	2.865859	0.000213	2.128131	0.360515	0.000021
 617	6.1292e+01	6.1269	2.882967	0.000172	1.718875	0.291185	0.000017
 618	6.1392e+01	6.1337	2.900890	0.000180	1.800726	0.305051	0.000018
 619	6.1491e+01	6.1449	2.919220	0.000184	1.841652	0.311984	0.000018
 620	6.1590e+01	6.1564	2.937958	0.000188	1.882577	0.318917	0.000019
 621	6.1690e+01	6.1652	2.954252	0.000164	1.637024	0.277319	0.000016
 622	6.1789e+01	6.1736	2.973804	0.000196	1.964428	0.332783	0.000020
 623	6.1889e+01	6.1906	2.990505	0.000168	1.677949	0.284252	0.000017
 624	6.1989e+01	6.1947	3.015761	0.000254	2.537387	0.429845	0.000025
 625	6.2088e+01	6.2055	3.029203	0.000135	1.350545	0.228788	0.000014
 626	6.2188e+01	6.2128	3.052829	0.000237	2.373684	0.402113	0.000024
 627	6.2287e+01	6.2231	3.069937	0.000172	1.718875	0.291185	0.000017
 628	6.2386e+01	6.2328	3.091526	0.000217	2.169056	0.367448	0.000022
 629	6.2486e+01	6.2440	3.115560	0.000241	2.414610	0.409046	0.000024
 630	6.2586e+01	6.2556	3.131853	0.000164	1.637024	0.277319	0.000016
 631	6.2685e+01	6.2649	3.150998	0.000192	1.923503	0.325850	0.000019
 632	6.2785e+01	6.2749	3.174624	0.000237	2.373684	0.402113	0.000024
 633	6.2884e+01	6.2845	3.189696	0.000151	1.514247	0.256520	0.000015
 634	6.2983e+01	6.2942	3.209656	0.000201	2.005354	0.339716	0.000020
 635	6.3083e+01	6.3013	3.224727	0.000151	1.514247	0.256520	0.000015
 636	6.3182e+01	6.3136	3.243058	0.000184	1.841652	0.311984	0.000018
 637	6.3282e+01	6.3280	3.259351	0.000164	1.637024	0.277319	0.000016
 638	6.3382e+01	6.3338	3.280126	0.000209	2.087205	0.353582	0.000021
 639	6.3481e+01	6.3433	3.296420	0.000164	1.637024	0.277319	0.000016
 640	6.3581e+01	6.3531	3.313935	0.000176	1.759801	0.298118	0.000018
 641	6.3680e+01	6.3616	3.335524	0.000217	2.169056	0.367448	0.000022
 642	6.3779e+01	6.3714	3.351411	0.000160	1.596098	0.270386	0.000016
 643	6.3879e+01	6.3826	3.370556	0.000192	1.923503	0.325850	0.000019
 644	6.3978e+01	6.3929	3.387257	0.000168	1.677949	0.284252	0.000017
 645	6.4078e+01	6.4008	3.403958	0.000168	1.677949	0.284252	0.000017
 646	6.4177e+01	6.4176	3.421474	0.000176	1.759801	0.298118	0.000018
 647	6.4277e+01	6.4248	3.437360	0.000160	1.596098	0.270386	0.000016
 648	6.4376e+01	6.4336	3.454876	0.000176	1.759801	0.298118	0.000018
 649	6.4476e+01	6.4419	3.470355	0.000156	1.555173	0.263453	0.000016
 650	6.4576e+01	6.4555	3.485834	0.000156	1.555173	0.263453	0.000016
 651	6.4675e+01	6.4648	3.500906	0.000151	1.514247	0.256520	0.000015
 652	6.4775e+01	6.4713	3.518014	0.000172	1.718875	0.291185	0.000017
 653	6.4874e+01	6.4819	3.534308	0.000164	1.637024	0.277319	0.000016
 654	6.4974e+01	6.4921	3.555897	0.000217	2.169056	0.367448	0.000022
 655	6.5073e+01	6.5057	3.570968	0.000151	1.514247	0.256520	0.000015
 656	6.5172e+01	6.5115	3.587670	0.000168	1.677949	0.284252	0.000017
 657	6.5272e+01	6.5234	3.604778	0.000172	1.718875	0.291185	0.000017
 658	6.5371e+01	6.5311	3.623516	0.000188	1.882577	0.318917	0.000019
 659	6.5471e+01	6.5443	3.643068	0.000196	1.964428	0.332783	0.000020
 660	6.5570e+01	6.5533	3.657325	0.000143	1.432396	0.242654	0.000014
 661	6.5670e+01	6.5617	3.678914	0.000217	2.169056	0.367448	0.000022
 662	6.5769e+01	6.5731	3.696837	0.000180	1.800726	0.305051	0.000018
 663	6.5869e+01	6.5824	3.711909	0.000151	1.514247	0.256520	0.000015
 664	6.5969e+01	6.5928	3.730647	0.000188	1.882577	0.318917	0.000019
 665	6.6068e+01	6.6030	3.746533	0.000160	1.596098	0.270386	0.000016
 666	6.6168e+01	6.6126	3.766086	0.000196	1.964428	0.332783	0.000020
 667	6.6267e+01	6.6232	3.784823	0.000188	1.882577	0.318917	0.000019
 668	6.6367e+01	6.6296	3.798266	0.000135	1.350545	0.228788	0.000014
 669	6.6466e+01	6.6436	3.816189	0.000180	1.800726	0.305051	0.000018
 670	6.6566e+01	6.6528	3.839000	0.000229	2.291833	0.388247	0.000023
 671	6.6665e+01	6.6616	3.853257	0.000143	1.432396	0.242654	0.000014
 672	6.6764e+01	6.6713	3.872402	0.000192	1.923503	0.325850	0.000019
 673	6.6864e+01	6.6811	3.890325	0.000180	1.800726	0.305051	0.000018
 674	6.6963e+01	6.6901	3.904989	0.000147	1.473321	0.249587	0.000015
 675	6.7063e+01	6.7035	3.926579	0.000217	2.169056	0.367448	0.000022
 676	6.7162e+01	6.7095	3.940021	0.000135	1.350545	0.228788	0.000014
 677	6.7262e+01	6.7207	3.960388	0.000205	2.046280	0.346649	0.000020
 678	6.7362e+01	6.7284	3.981977	0.000217	2.169056	0.367448	0.000022
 679	6.7461e+01	6.7419	3.995012	0.000131	1.309619	0.221855	0.000013
 680	6.7561e+01	6.7522	4.012935	0.000180	1.800726	0.305051	0.000018
 681	6.7660e+01	6.7612	4.032488	0.000196	1.964428	0.332783	0.000020
 682	6.7760e+01	6.7728	4.047152	0.000147	1.473321	0.249587	0.000015
 683	6.7859e+01	6.7829	4.063853	0.000168	1.677949	0.284252	0.000017
 684	6.7959e+01	6.7916	4.084627	0.000209	2.087205	0.353582	0.000021
 685	6.8058e+01	6.8028	4.102143	0.000176	1.759801	0.298118	0.000018
 686	6.8157e+01	6.8098	4.117622	0.000156	1.555173	0.263453	0.000016
 687	6.8257e+01	6.8197	4.137989	0.000205	2.046280	0.346649	0.000020
 688	6.8356e+01	6.8306	4.150617	0.000127	1.268693	0.214922	0.000013
 689	6.8456e+01	6.8404	4.170577	0.000201	2.005354	0.339716	0.000020
 690	6.8555e+01	6.8508	4.189314	0.000188	1.882577	0.318917	0.000019
 691	6.8655e+01	6.8603	4.209274	0.000201	2.005354	0.339716	0.000020
 692	6.8754e+01	6.8710	4.228419	0.000192	1.923503	0.325850	0.000019
 693	6.8854e+01	6.8824	4.243084	0.000147	1.473321	0.249587	0.000015
 694	6.8954e+01	6.8879	4.261007	0.000180	1.800726	0.305051	0.000018
 695	6.9053e+01	6.8999	4.282189	0.000213	2.128131	0.360515	0.000021
 696	6.9153e+01	6.9120	4.297260	0.000151	1.514247	0.256520	0.000015
 697	6.9252e+01	6.9201	4.316813	0.000196	1.964428	0.332783	0.000020
 698	6.9352e+01	6.9318	4.333921	0.000172	1.718875	0.291185	0.000017
 699	6.9451e+01	6.9414	4.352251	0.000184	1.841652	0.311984	0.000018
 700	6.9550e+01	6.9523	4.366916	0.000147	1.473321	0.249587	0.000015
 701	6.9650e+01	6.9607	4.382395	0.000156	1.555173	0.263453	0.000016
 702	6.9749e+01	6.9711	4.406428	0.000241	2.414610	0.409046	0.000024
 703	6.9849e+01	6.9816	4.421092	0.000147	1.473321	0.249587	0.000015
 704	6.9948e+01	6.9906	4.442274	0.000213	2.128131	0.360515	0.000021
 705	7.0048e+01	7.0000	4.458161	0.000160	1.596098	0.270386	0.000016
 706	7.0147e+01	7.0110	4.476898	0.000188	1.882577	0.318917	0.000019
 707	7.0247e+01	7.0232	4.493192	0.000164	1.637024	0.277319	0.000016
 708	7.0347e+01	7.0306	4.512337	0.000192	1.923503	0.325850	0.000019
 709	7.0446e+01	7.0406	4.528631	0.000164	1.637024	0.277319	0.000016
 710	7.0546e+01	7.0510	4.543702	0.000151	1.514247	0.256520	0.000015
 711	7.0645e+01	7.0592	4.557959	0.000143	1.432396	0.242654	0.000014
 712	7.0745e+01	7.0696	4.575475	0.000176	1.759801	0.298118	0.000018
 713	7.0844e+01	7.0798	4.588103	0.000127	1.268693	0.214922	0.000013
 714	7.0944e+01	7.0892	4.604397	0.000164	1.637024	0.277319	0.000016
 715	7.1043e+01	7.0996	4.622320	0.000180	1.800726	0.305051	0.000018
 716	7.1142e+01	7.1085	4.640650	0.000184	1.841652	0.311984	0.000018
 717	7.1242e+01	7.1181	4.654907	0.000143	1.432396	0.242654	0.000014
 718	7.1341e+01	7.1290	4.673645	0.000188	1.882577	0.318917	0.000019
 719	7.1441e+01	7.1408	4.689531	0.000160	1.596098	0.270386	0.000016
 720	7.1540e+01	7.1489	4.709491	0.000201	2.005354	0.339716	0.000020
 721	7.1640e+01	7.1595	4.727821	0.000184	1.841652	0.311984	0.000018
 722	7.1740e+01	7.1693	4.745337	0.000176	1.759801	0.298118	0.000018
 723	7.1839e+01	7.1804	4.762038	0.000168	1.677949	0.284252	0.000017
 724	7.1939e+01	7.1900	4.781183	0.000192	1.923503	0.325850	0.000019
 725	7.2038e+01	7.1999	4.799514	0.000184	1.841652	0.311984	0.000018
 726	7.2138e+01	7.2105	4.814993	0.000156	1.555173	0.263453	0.000016
 727	7.2237e+01	7.2205	4.833730	0.000188	1.882577	0.318917	0.000019
 728	7.2337e+01	7.2295	4.850839	0.000172	1.718875	0.291185	0.000017
 729	7.2436e+01	7.2379	4.873243	0.000225	2.250908	0.381314	0.000023
 730	7.2535e+01	7.2478	4.889129	0.000160	1.596098	0.270386	0.000016
 731	7.2635e+01	7.2582	4.912755	0.000237	2.373684	0.402113	0.000024
 732	7.2734e+01	7.2681	4.928641	0.000160	1.596098	0.270386	0.000016
 733	7.2834e+01	7.2774	4.952267	0.000237	2.373684	0.402113	0.000024
 734	7.2933e+01	7.2889	4.971412	0.000192	1.923503	0.325850	0.000019
 735	7.3033e+01	7.2987	4.990557	0.000192	1.923503	0.325850	0.000019
 736	7.3132e+01	7.3096	5.010924	0.000205	2.046280	0.346649	0.000020
 737	7.3232e+01	7.3172	5.029255	0.000184	1.841652	0.311984	0.000018
 738	7.3332e+01	7.3278	5.046363	0.000172	1.718875	0.291185	0.000017
 739	7.3431e+01	7.3403	5.068767	0.000225	2.250908	0.381314	0.000023
 740	7.3531e+01	7.3495	5.083431	0.000147	1.473321	0.249587	0.000015
 741	7.3630e+01	7.3591	5.101354	0.000180	1.800726	0.305051	0.000018
 742	7.3730e+01	7.3686	5.115611	0.000143	1.432396	0.242654	0.000014
 743	7.3829e+01	7.3770	5.135164	0.000196	1.964428	0.332783	0.000020
 744	7.3928e+01	7.3891	5.151865	0.000168	1.677949	0.284252	0.000017
 745	7.4028e+01	7.3961	5.171417	0.000196	1.964428	0.332783	0.000020
 746	7.4127e+01	7.4084	5.188526	0.000172	1.718875	0.291185	0.000017
 747	7.4227e+01	7.4186	5.206449	0.000180	1.800726	0.305051	0.000018
 748	7.4326e+01	7.4279	5.225187	0.000188	1.882577	0.318917	0.000019
 749	7.4426e+01	7.4372	5.241073	0.000160	1.596098	0.270386	0.000016
 750	7.4525e+01	7.4470	5.258589	0.000176	1.759801	0.298118	0.000018
 751	7.4625e+01	7.4566	5.278141	0.000196	1.964428	0.332783	0.000020
 752	7.4725e+01	7.4672	5.292805	0.000147	1.473321	0.249587	0.000015
 753	7.4824e+01	7.4786	5.312358	0.000196	1.964428	0.332783	0.000020
 754	7.4924e+01	7.4876	5.332725	0.000205	2.046280	0.346649	0.000020
 755	7.5023e+01	7.4963	5.349426	0.000168	1.677949	0.284252	0.000017
 756	7.5123e+01	7.5075	5.368571	0.000192	1.923503	0.325850	0.000019
 757	7.5222e+01	7.5168	5.387309	0.000188	1.882577	0.318917	0.000019
 758	7.5322e+01	7.5301	5.398715	0.000115	1.145917	0.194124	0.000011
 759	7.5421e+01	7.5363	5.418267	0.000196	1.964428	0.332783	0.000020
 760	7.5520e+01	7.5477	5.438634	0.000205	2.046280	0.346649	0.000020
 761	7.5620e+01	7.5572	5.455335	0.000168	1.677949	0.284252	0.000017
 762	7.5719e+01	7.5678	5.474480	0.000192	1.923503	0.325850	0.000019
 763	7.5819e+01	7.5758	5.489145	0.000147	1.473321	0.249587	0.000015
 764	7.5918e+01	7.5866	5.508697	0.000196	1.964428	0.332783	0.000020
 765	7.6018e+01	7.5977	5.526620	0.000180	1.800726	0.305051	0.000018
 766	7.6118e+01	7.6068	5.541692	0.000151	1.514247	0.256520	0.000015
 767	7.6217e+01	7.6173	5.562059	0.000205	2.046280	0.346649	0.000020
 768	7.6317e+01	7.6270	5.579575	0.000176	1.759801	0.298118	0.000018
 769	7.6416e+01	7.6360	5.595054	0.000156	1.555173	0.263453	0.000016
 770	7.6516e+01	7.6450	5.612977	0.000180	1.800726	0.305051	0.000018
 771	7.6615e+01	7.6584	5.633751	0.000209	2.087205	0.353582	0.000021
 772	7.6715e+01	7.6667	5.650452	0.000168	1.677949	0.284252	0.000017
 773	7.6814e+01	7.6758	5.670005	0.000196	1.964428	0.332783	0.000020
 774	7.6913e+01	7.6849	5.684669	0.000147	1.473321	0.249587	0.000015
 775	7.7013e+01	7.6964	5.703814	0.000192	1.923503	0.325850	0.000019
 776	7.7112e+01	7.7084	5.720108	0.000164	1.637024	0.277319	0.000016
 777	7.7212e+01	7.7170	5.735994	0.000160	1.596098	0.270386	0.000016
 778	7.7311e+01	7.7252	5.753917	0.000180	1.800726	0.305051	0.000018
 779	7.7411e+01	7.7381	5.773470	0.000196	1.964428	0.332783	0.000020
 780	7.7510e+01	7.7453	5.793429	0.000201	2.005354	0.339716	0.000020
 781	7.7610e+01	7.7581	5.808094	0.000147	1.473321	0.249587	0.000015
 782	7.7710e+01	7.7660	5.828054	0.000201	2.005354	0.339716	0.000020
 783	7.7809e+01	7.7771	5.841496	0.000135	1.350545	0.228788	0.000014
 784	7.7909e+01	7.7862	5.859419	0.000180	1.800726	0.305051	0.000018
 785	7.8008e+01	7.7972	5.877749	0.000184	1.841652	0.311984	0.000018
 786	7.8108e+01	7.8070	5.894043	0.000164	1.637024	0.277319	0.000016
 787	7.8207e+01	7.8164	5.909522	0.000156	1.555173	0.263453	0.000016
 788	7.8306e+01	7.8271	5.931519	0.000221	2.209982	0.374381	0.000022
 789	7.8406e+01	7.8345	5.946183	0.000147	1.473321	0.249587	0.000015
 790	7.8505e+01	7.8464	5.966143	0.000201	2.005354	0.339716	0.000020
 791	7.8605e+01	7.8576	5.981622	0.000156	1.555173	0.263453	0.000016
 792	7.8704e+01	7.8663	6.000767	0.000192	1.923503	0.325850	0.000019
 793	7.8804e+01	7.8760	6.017875	0.000172	1.718875	0.291185	0.000017
 794	7.8903e+01	7.8857	6.039872	0.000221	2.209982	0.374381	0.000022
 795	7.9003e+01	7.8953	6.054943	0.000151	1.514247	0.256520	0.000015
 796	7.9103e+01	7.9053	6.076125	0.000213	2.128131	0.360515	0.000021
 797	7.9202e+01	7.9175	6.093641	0.000176	1.759801	0.298118	0.000018
 798	7.9302e+01	7.9285	6.113601	0.000201	2.005354	0.339716	0.000020
 799	7.9401e+01	7.9320	6.131931	0.000184	1.841652	0.311984	0.000018
 800	7.9501e+01	7.9443	6.151891	0.000201	2.005354	0.339716	0.000020
 801	7.9600e+01	7.9566	6.170221	0.000184	1.841652	0.311984	0.000018
 802	7.9700e+01	7.9649	6.184886	0.000147	1.473321	0.249587	0.000015
 803	7.9799e+01	7.9781	6.205660	0.000209	2.087205	0.353582	0.000021
 804	7.9898e+01	7.9829	6.219917	0.000143	1.432396	0.242654	0.000014
 805	7.9998e+01	7.9957	6.237025	0.000172	1.718875	0.291185	0.000017
 806	8.0097e+01	8.0040	6.254134	0.000172	1.718875	0.291185	0.000017
 807	8.0197e+01	8.0116	6.271242	0.000172	1.718875	0.291185	0.000017
 808	8.0296e+01	8.0235	6.290795	0.000196	1.964428	0.332783	0.000020
 809	8.0396e+01	8.0334	6.308718	0.000180	1.800726	0.305051	0.000018
 810	8.0496e+01	8.0464	6.323382	0.000147	1.473321	0.249587	0.000015
 811	8.0595e+01	8.0589	6.341305	0.000180	1.800726	0.305051	0.000018
 812	8.0695e+01	8.0654	6.362080	0.000209	2.087205	0.353582	0.000021
 813	8.0794e+01	8.0754	6.373078	0.000110	1.104991	0.187191	0.000011
 814	8.0894e+01	8.0854	6.387742	0.000147	1.473321	0.249587	0.000015
 815	8.0993e+01	8.0927	6.402814	0.000151	1.514247	0.256520	0.000015
 816	8.1093e+01	8.1069	6.422366	0.000196	1.964428	0.332783	0.000020
 817	8.1192e+01	8.1156	6.436216	0.000139	1.391470	0.235721	0.000014
 818	8.1291e+01	8.1232	6.449658	0.000135	1.350545	0.228788	0.000014
 819	8.1391e+01	8.1377	6.467174	0.000176	1.759801	0.298118	0.000018
 820	8.1490e+01	8.1479	6.481024	0.000139	1.391470	0.235721	0.000014
 821	8.1590e+01	8.1555	6.499354	0.000184	1.841652	0.311984	0.000018
 822	8.1689e+01	8.1634	6.517684	0.000184	1.841652	0.311984	0.000018
 823	8.1789e+01	8.1747	6.534386	0.000168	1.677949	0.284252	0.000017
 824	8.1888e+01	8.1855	6.547421	0.000131	1.309619	0.221855	0.000013
 825	8.1988e+01	8.1920	6.564936	0.000176	1.759801	0.298118	0.000018
 826	8.2088e+01	8.2034	6.581230	0.000164	1.637024	0.277319	0.000016
 827	8.2187e+01	8.2150	6.602819	0.000217	2.169056	0.367448	0.000022
 828	8.2287e+01	8.2239	6.615447	0.000127	1.268693	0.214922	0.000013
 829	8.2386e+01	8.2324	6.634999	0.000196	1.964428	0.332783	0.000020
 830	8.2486e+01	8.2459	6.652108	0.000172	1.718875	0.291185	0.000017
 831	8.2585e+01	8.2549	6.667994	0.000160	1.596098	0.270386	0.000016
 832	8.2684e+01	8.2645	6.682658	0.000147	1.473321	0.249587	0.000015
 833	8.2784e+01	8.2757	6.701396	0.000188	1.882577	0.318917	0.000019
 834	8.2883e+01	8.2832	6.720134	0.000188	1.882577	0.318917	0.000019
 835	8.2983e+01	8.2952	6.733576	0.000135	1.350545	0.228788	0.000014
 836	8.3082e+01	8.3029	6.752721	0.000192	1.923503	0.325850	0.000019
 837	8.3182e+01	8.3137	6.766978	0.000143	1.432396	0.242654	0.000014
 838	8.3281e+01	8.3230	6.786531	0.000196	1.964428	0.332783	0.000020
 839	8.3381e+01	8.3331	6.802010	0.000156	1.555173	0.263453	0.000016
 840	8.3481e+01	8.3428	6.821155	0.000192	1.923503	0.325850	0.000019
 841	8.3580e+01	8.3535	6.836634	0.000156	1.555173	0.263453	0.000016
 842	8.3680e+01	8.3615	6.851705	0.000151	1.514247	0.256520	0.000015
 843	8.3779e+01	8.3756	6.870850	0.000192	1.923503	0.325850	0.000019
 844	8.3879e+01	8.3827	6.887144	0.000164	1.637024	0.277319	0.000016
 845	8.3978e+01	8.3924	6.902623	0.000156	1.555173	0.263453	0.000016
 846	8.4078e+01	8.4045	6.917288	0.000147	1.473321	0.249587	0.000015
 847	8.4177e+01	8.4142	6.937247	0.000201	2.005354	0.339716	0.000020
 848	8.4276e+01	8.4248	6.953541	0.000164	1.637024	0.277319	0.000016
 849	8.4376e+01	8.4335	6.971464	0.000180	1.800726	0.305051	0.000018
 850	8.4475e+01	8.4431	6.986536	0.000151	1.514247	0.256520	0.000015
 851	8.4575e+01	8.4539	7.004866	0.000184	1.841652	0.311984	0.000018
 852	8.4674e+01	8.4644	7.020753	0.000160	1.596098	0.270386	0.000016
 853	8.4774e+01	8.4744	7.039083	0.000184	1.841652	0.311984	0.000018
 854	8.4874e+01	8.4818	7.057006	0.000180	1.800726	0.305051	0.000018
 855	8.4973e+01	8.4972	7.075744	0.000188	1.882577	0.318917	0.000019
 856	8.5073e+01	8.5023	7.090408	0.000147	1.473321	0.249587	0.000015
 857	8.5172e+01	8.5132	7.106294	0.000160	1.596098	0.270386	0.000016
 858	8.5272e+01	8.5207	7.126254	0.000201	2.005354	0.339716	0.000020
 859	8.5371e+01	8.5348	7.142141	0.000160	1.596098	0.270386	0.000016
 860	8.5471e+01	8.5433	7.163322	0.000213	2.128131	0.360515	0.000021
 861	8.5570e+01	8.5538	7.177579	0.000143	1.432396	0.242654	0.000014
 862	8.5669e+01	8.5621	7.194688	0.000172	1.718875	0.291185	0.000017
 863	8.5769e+01	8.5711	7.210574	0.000160	1.596098	0.270386	0.000016
 864	8.5868e+01	8.5806	7.227275	0.000168	1.677949	0.284252	0.000017
 865	8.5968e+01	8.5903	7.244384	0.000172	1.718875	0.291185	0.000017
 866	8.6067e+01	8.6004	7.259455	0.000151	1.514247	0.256520	0.000015
 867	8.6167e+01	8.6129	7.277378	0.000180	1.800726	0.305051	0.000018
 868	8.6266e+01	8.6209	7.295709	0.000184	1.841652	0.311984	0.000018
 869	8.6366e+01	8.6308	7.312817	0.000172	1.718875	0.291185	0.000017
 870	8.6466e+01	8.6427	7.329926	0.000172	1.718875	0.291185	0.000017
 871	8.6565e+01	8.6514	7.348663	0.000188	1.882577	0.318917	0.000019
 872	8.6665e+01	8.6615	7.363735	0.000151	1.514247	0.256520	0.000015
 873	8.6764e+01	8.6732	7.382065	0.000184	1.841652	0.311984	0.000018
 874	8.6864e+01	8.6807	7.397544	0.000156	1.555173	0.263453	0.000016
 875	8.6963e+01	8.6925	7.417504	0.000201	2.005354	0.339716	0.000020
 876	8.7063e+01	8.7003	7.432983	0.000156	1.555173	0.263453	0.000016
 877	8.7162e+01	8.7112	7.446833	0.000139	1.391470	0.235721	0.000014
 878	8.7261e+01	8.7223	7.463127	0.000164	1.637024	0.277319	0.000016
 879	8.7361e+01	8.7311	7.477384	0.000143	1.432396	0.242654	0.000014
 880	8.7460e+01	8.7418	7.493270	0.000160	1.596098	0.270386	0.000016
 881	8.7560e+01	8.7527	7.506712	0.000135	1.350545	0.228788	0.000014
 882	8.7659e+01	8.7634	7.523821	0.000172	1.718875	0.291185	0.000017
 883	8.7759e+01	8.7703	7.534819	0.000110	1.104991	0.187191	0.000011
 884	8.7859e+01	8.7805	7.556001	0.000213	2.128131	0.360515	0.000021
 885	8.7958e+01	8.7897	7.571480	0.000156	1.555173	0.263453	0.000016
 886	8.8058e+01	8.8007	7.588181	0.000168	1.677949	0.284252	0.000017
 887	8.8157e+01	8.8160	7.605696	0.000176	1.759801	0.298118	0.000018
 888	8.8257e+01	8.8196	7.626064	0.000205	2.046280	0.346649	0.000020
 889	8.8356e+01	8.8306	7.643987	0.000180	1.800726	0.305051	0.000018
 890	8.8456e+01	8.8395	7.653356	0.000094	0.941289	0.159459	0.000009
 891	8.8555e+01	8.8498	7.675759	0.000225	2.250908	0.381314	0.000023
 892	8.8654e+01	8.8601	7.694904	0.000192	1.923503	0.325850	0.000019
 893	8.8754e+01	8.8675	7.711198	0.000164	1.637024	0.277319	0.000016
 894	8.8853e+01	8.8809	7.728307	0.000172	1.718875	0.291185	0.000017
 895	8.8953e+01	8.8899	7.745822	0.000176	1.759801	0.298118	0.000018
 896	8.9052e+01	8.8996	7.760487	0.000147	1.473321	0.249587	0.000015
 897	8.9152e+01	8.9111	7.780854	0.000205	2.046280	0.346649	0.000020
 898	8.9251e+01	8.9179	7.801221	0.000205	2.046280	0.346649	0.000020
 899	8.9351e+01	8.9282	7.820773	0.000196	1.964428	0.332783	0.000020
 900	8.9451e+01	8.9383	7.838696	0.000180	1.800726	0.305051	0.000018
 901	8.9550e+01	8.9502	7.861508	0.000229	2.291833	0.388247	0.000023
 902	8.9650e+01	8.9600	7.877801	0.000164	1.637024	0.277319	0.000016
 903	8.9749e+01	8.9703	7.898983	0.000213	2.128131	0.360515	0.000021
 904	8.9849e+01	8.9785	7.916499	0.000176	1.759801	0.298118	0.000018
 905	8.9948e+01	8.9921	7.934829	0.000184	1.841652	0.311984	0.000018
 906	9.0047e+01	9.0018	7.951938	0.000172	1.718875	0.291185	0.000017
 907	9.0147e+01	9.0112	7.968639	0.000168	1.677949	0.284252	0.000017
 908	9.0246e+01	9.0234	7.985747	0.000172	1.718875	0.291185	0.000017
 909	9.0346e+01	9.0311	8.004485	0.000188	1.882577	0.318917	0.000019
 910	9.0445e+01	9.0393	8.022408	0.000180	1.800726	0.305051	0.000018
 911	9.0545e+01	9.0495	8.039516	0.000172	1.718875	0.291185	0.000017
 912	9.0644e+01	9.0582	8.056625	0.000172	1.718875	0.291185	0.000017
 913	9.0744e+01	9.0698	8.071289	0.000147	1.473321	0.249587	0.000015
 914	9.0844e+01	9.0815	8.090434	0.000192	1.923503	0.325850	0.000019
 915	9.0943e+01	9.0894	8.111209	0.000209	2.087205	0.353582	0.000021
 916	9.1043e+01	9.0973	8.124244	0.000131	1.309619	0.221855	0.000013
 917	9.1142e+01	9.1090	8.142981	0.000188	1.882577	0.318917	0.000019
 918	9.1242e+01	9.1168	8.158460	0.000156	1.555173	0.263453	0.000016
 919	9.1341e+01	9.1290	8.176383	0.000180	1.800726	0.305051	0.000018
 920	9.1441e+01	9.1372	8.195121	0.000188	1.882577	0.318917	0.000019
 921	9.1540e+01	9.1471	8.211822	0.000168	1.677949	0.284252	0.000017
 922	9.1639e+01	9.1570	8.229745	0.000180	1.800726	0.305051	0.000018
 923	9.1739e+01	9.1692	8.246854	0.000172	1.718875	0.291185	0.000017
 924	9.1838e+01	9.1760	8.261518	0.000147	1.473321	0.249587	0.000015
 925	9.1938e+01	9.1875	8.281070	0.000196	1.964428	0.332783	0.000020
 926	9.2037e+01	9.2011	8.298179	0.000172	1.718875	0.291185	0.000017
 927	9.2137e+01	9.2072	8.315695	0.000176	1.759801	0.298118	0.000018
 928	9.2237e+01	9.2159	8.334432	0.000188	1.882577	0.318917	0.000019
 929	9.2336e+01	9.2304	8.349504	0.000151	1.514247	0.256520	0.000015
 930	9.2436e+01	9.2383	8.367020	0.000176	1.759801	0.298118	0.000018
 931	9.2535e+01	9.2484	8.386572	0.000196	1.964428	0.332783	0.000020
 932	9.2635e+01	9.2561	8.404088	0.000176	1.759801	0.298118	0.000018
 933	9.2734e+01	9.2664	8.421196	0.000172	1.718875	0.291185	0.000017
 934	9.2834e+01	9.2786	8.441971	0.000209	2.087205	0.353582	0.000021
 935	9.2933e+01	9.2862	8.456228	0.000143	1.432396	0.242654	0.000014
 936	9.3032e+01	9.2978	8.476187	0.000201	2.005354	0.339716	0.000020
 937	9.3132e+01	9.3081	8.490444	0.000143	1.432396	0.242654	0.000014
 938	9.3231e+01	9.3175	8.509182	0.000188	1.882577	0.318917	0.000019
 939	9.3331e+01	9.3268	8.523847	0.000147	1.473321	0.249587	0.000015
 940	9.3430e+01	9.3369	8.543399	0.000196	1.964428	0.332783	0.000020
 941	9.3530e+01	9.3506	8.560915	0.000176	1.759801	0.298118	0.000018
 942	9.3629e+01	9.3555	8.575986	0.000151	1.514247	0.256520	0.000015
 943	9.3729e+01	9.3712	8.593909	0.000180	1.800726	0.305051	0.000018
 944	9.3829e+01	9.3757	8.612647	0.000188	1.882577	0.318917	0.000019
 945	9.3928e+01	9.3862	8.624460	0.000119	1.186842	0.201057	0.000012
 946	9.4028e+01	9.3988	8.644827	0.000205	2.046280	0.346649	0.000020
 947	9.4127e+01	9.4068	8.663565	0.000188	1.882577	0.318917	0.000019
 948	9.4227e+01	9.4183	8.679859	0.000164	1.637024	0.277319	0.000016
 949	9.4326e+01	9.4263	8.699819	0.000201	2.005354	0.339716	0.000020
 950	9.4425e+01	9.4387	8.717334	0.000176	1.759801	0.298118	0.000018
 951	9.4525e+01	9.4465	8.731999	0.000147	1.473321	0.249587	0.000015
 952	9.4624e+01	9.4588	8.748292	0.000164	1.637024	0.277319	0.000016
 953	9.4724e+01	9.4678	8.767030	0.000188	1.882577	0.318917	0.000019
 954	9.4823e+01	9.4736	8.783324	0.000164	1.637024	0.277319	0.000016
 955	9.4923e+01	9.4873	8.801654	0.000184	1.841652	0.311984	0.000018
 956	9.5022e+01	9.4960	8.818763	0.000172	1.718875	0.291185	0.000017
 957	9.5122e+01	9.5068	8.837093	0.000184	1.841652	0.311984	0.000018
 958	9.5222e+01	9.5145	8.854201	0.000172	1.718875	0.291185	0.000017
 959	9.5321e+01	9.5264	8.871717	0.000176	1.759801	0.298118	0.000018
 960	9.5421e+01	9.5355	8.889233	0.000176	1.759801	0.298118	0.000018
 961	9.5520e+01	9.5472	8.909600	0.000205	2.046280	0.346649	0.000020
 962	9.5620e+01	9.5570	8.925894	0.000164	1.637024	0.277319	0.000016
 963	9.5719e+01	9.5679	8.945039	0.000192	1.923503	0.325850	0.000019
 964	9.5819e+01	9.5754	8.968257	0.000233	2.332759	0.395180	0.000023
 965	9.5918e+01	9.5866	8.986588	0.000184	1.841652	0.311984	0.000018
 966	9.6017e+01	9.5948	9.001659	0.000151	1.514247	0.256520	0.000015
 967	9.6117e+01	9.6058	9.018768	0.000172	1.718875	0.291185	0.000017
 968	9.6216e+01	9.6168	9.038320	0.000196	1.964428	0.332783	0.000020
 969	9.6316e+01	9.6259	9.055429	0.000172	1.718875	0.291185	0.000017
 970	9.6415e+01	9.6351	9.073759	0.000184	1.841652	0.311984	0.000018
 971	9.6515e+01	9.6458	9.090053	0.000164	1.637024	0.277319	0.000016
 972	9.6615e+01	9.6578	9.109605	0.000196	1.964428	0.332783	0.000020
 973	9.6714e+01	9.6659	9.125492	0.000160	1.596098	0.270386	0.000016
 974	9.6814e+01	9.6767	9.140563	0.000151	1.514247	0.256520	0.000015
 975	9.6913e+01	9.6861	9.161338	0.000209	2.087205	0.353582	0.000021
 976	9.7013e+01	9.6940	9.180483	0.000192	1.923503	0.325850	0.000019
 977	9.7112e+01	9.7042	9.197591	0.000172	1.718875	0.291185	0.000017
 978	9.7212e+01	9.7132	9.209811	0.000123	1.227768	0.207989	0.000012
 979	9.7311e+01	9.7290	9.232215	0.000225	2.250908	0.381314	0.000023
 980	9.7410e+01	9.7356	9.249731	0.000176	1.759801	0.298118	0.000018
 981	9.7510e+01	9.7500	9.262359	0.000127	1.268693	0.214922	0.000013
 982	9.7609e+01	9.7550	9.273357	0.000110	1.104991	0.187191	0.000011
 983	9.7709e+01	9.7659	9.293317	0.000201	2.005354	0.339716	0.000020
 984	9.7808e+01	9.7712	9.307166	0.000139	1.391470	0.235721	0.000014
 985	9.7908e+01	9.7839	9.322238	0.000151	1.514247	0.256520	0.000015
 986	9.8007e+01	9.7968	9.339754	0.000176	1.759801	0.298118	0.000018
 987	9.8107e+01	9.8047	9.356047	0.000164	1.637024	0.277319	0.000016
 988	9.8207e+01	9.8153	9.368675	0.000127	1.268693	0.214922	0.000013
 989	9.8306e+01	9.8231	9.384969	0.000164	1.637024	0.277319	0.000016
 990	9.8406e+01	9.8357	9.403706	0.000188	1.882577	0.318917	0.000019
 991	9.8505e+01	9.8450	9.426110	0.000225	2.250908	0.381314	0.000023
 992	9.8605e+01	9.8544	9.437516	0.000115	1.145917	0.194124	0.000011
 993	9.8704e+01	9.8624	9.458290	0.000209	2.087205	0.353582	0.000021
 994	9.8803e+01	9.8743	9.474177	0.000160	1.596098	0.270386	0.000016
 995	9.8903e+01	9.8843	9.489656	0.000156	1.555173	0.263453	0.000016
 996	9.9002e+01	9.8953	9.512467	0.000229	2.291833	0.388247	0.000023
 997	9.9102e+01	9.9038	9.522650	0.000102	1.023140	0.173325	0.000010
 998	9.9201e+01	9.9146	9.543425	0.000209	2.087205	0.353582	0.000021
 999	9.9301e+01	9.9225	9.560533	0.000172	1.718875	0.291185	0.000017
1000	9.9400e+01	9.9325	9.575605	0.000151	1.514247	0.256520	0.000015
1001	9.9500e+01	9.9463	9.592713	0.000172	1.718875	0.291185	0.000017
1002	9.9600e+01	9.9539	9.609822	0.000172	1.718875	0.291185	0.000017
1003	9.9699e+01	9.9651	9.626930	0.000172	1.718875	0.291185	0.000017
1004	9.9799e+01	9.9725	9.644853	0.000180	1.800726	0.305051	0.000018
1005	9.9898e+01	9.9824	9.657074	0.000123	1.227768	0.207989	0.000012
1006	9.9998e+01	9.9963	9.677848	0.000209	2.087205	0.353582	0.000021
1007	1.0010e+02	9.9854	9.667257	0.000106	1.064065	0.180258	-0.000011
1008	1.0020e+02	9.9766	9.651778	0.000156	1.555173	0.263453	-0.000016
1009	1.0030e+02	9.9649	9.642409	0.000094	0.941289	0.159459	-0.000009
1010	1.0040e+02	9.9536	9.634262	0.000082	0.818512	0.138660	-0.000008
1011	1.0050e+02	9.9451	9.618376	0.000160	1.596098	0.270386	-0.000016
1012	1.0059e+02	9.9349	9.604526	0.000139	1.391470	0.235721	-0.000014
1013	1.0069e+02	9.9220	9.595157	0.000094	0.941289	0.159459	-0.000009
1014	1.0079e+02	9.9137	9.580086	0.000151	1.514247	0.256520	-0.000015
1015	1.0089e+02	9.9060	9.568680	0.000115	1.145917	0.194124	-0.000011
1016	1.0099e+02	9.8962	9.555238	0.000135	1.350545	0.228788	-0.000014
1017	1.0109e+02	9.8833	9.540574	0.000147	1.473321	0.249587	-0.000015
1018	1.0119e+02	9.8740	9.525502	0.000151	1.514247	0.256520	-0.000015
1019	1.0129e+02	9.8637	9.515726	0.000098	0.982214	0.166392	-0.000010
1020	1.0139e+02	9.8554	9.501061	0.000147	1.473321	0.249587	-0.000015
1021	1.0149e+02	9.8441	9.490878	0.000102	1.023140	0.173325	-0.000010
1022	1.0159e+02	9.8319	9.477435	0.000135	1.350545	0.228788	-0.000014
1023	1.0169e+02	9.8256	9.463178	0.000143	1.432396	0.242654	-0.000014
1024	1.0179e+02	9.8145	9.452180	0.000110	1.104991	0.187191	-0.000011
1025	1.0189e+02	9.8061	9.439553	0.000127	1.268693	0.214922	-0.000013
1026	1.0199e+02	9.7942	9.429369	0.000102	1.023140	0.173325	-0.000010
1027	1.0209e+02	9.7858	9.416334	0.000131	1.309619	0.221855	-0.000013
1028	1.0219e+02	9.7778	9.399226	0.000172	1.718875	0.291185	-0.000017
1029	1.0229e+02	9.7633	9.387413	0.000119	1.186842	0.201057	-0.000012
1030	1.0239e+02	9.7596	9.373970	0.000135	1.350545	0.228788	-0.000014
1031	1.0248e+02	9.7437	9.363380	0.000106	1.064065	0.180258	-0.000011
1032	1.0258e+02	9.7332	9.346271	0.000172	1.718875	0.291185	-0.000017
1033	1.0268e+02	9.7240	9.332014	0.000143	1.432396	0.242654	-0.000014
1034	1.0278e+02	9.7150	9.317757	0.000143	1.432396	0.242654	-0.000014
1035	1.0288e+02	9.7051	9.307981	0.000098	0.982214	0.166392	-0.000010
1036	1.0298e+02	9.6932	9.293724	0.000143	1.432396	0.242654	-0.000014
1037	1.0308e+02	9.6856	9.283133	0.000106	1.064065	0.180258	-0.000011
1038	1.0318e+02	9.6774	9.267654	0.000156	1.555173	0.263453	-0.000016
1039	1.0328e+02	9.6644	9.255026	0.000127	1.268693	0.214922	-0.000013
1040	1.0338e+02	9.6552	9.241991	0.000131	1.309619	0.221855	-0.000013
1041	1.0348e+02	9.6477	9.228957	0.000131	1.309619	0.221855	-0.000013
1042	1.0358e+02	9.6369	9.215922	0.000131	1.309619	0.221855	-0.000013
1043	1.0368e+02	9.6268	9.199221	0.000168	1.677949	0.284252	-0.000017
1044	1.0378e+02	9.6143	9.186593	0.000127	1.268693	0.214922	-0.000013
1045	1.0388e+02	9.6063	9.171521	0.000151	1.514247	0.256520	-0.000015
1046	1.0398e+02	9.5936	9.151154	0.000205	2.046280	0.346649	-0.000020
1047	1.0408e+02	9.5850	9.138119	0.000131	1.309619	0.221855	-0.000013
1048	1.0418e+02	9.5754	9.123862	0.000143	1.432396	0.242654	-0.000014
1049	1.0428e+02	9.5660	9.105532	0.000184	1.841652	0.311984	-0.000018
1050	1.0438e+02	9.5547	9.091682	0.000139	1.391470	0.235721	-0.000014
1051	1.0447e+02	9.5496	9.075388	0.000164	1.637024	0.277319	-0.000016
1052	1.0457e+02	9.5351	9.065205	0.000102	1.023140	0.173325	-0.000010
1053	1.0467e+02	9.5267	9.046467	0.000188	1.882577	0.318917	-0.000019
1054	1.0477e+02	9.5166	9.033025	0.000135	1.350545	0.228788	-0.000014
1055	1.0487e+02	9.5079	9.023249	0.000098	0.982214	0.166392	-0.000010
1056	1.0497e+02	9.4961	9.006547	0.000168	1.677949	0.284252	-0.000017
1057	1.0507e+02	9.4860	8.992290	0.000143	1.432396	0.242654	-0.000014
1058	1.0517e+02	9.4776	8.982922	0.000094	0.941289	0.159459	-0.000009
1059	1.0527e+02	9.4672	8.967443	0.000156	1.555173	0.263453	-0.000016
1060	1.0537e+02	9.4581	8.952371	0.000151	1.514247	0.256520	-0.000015
1061	1.0547e+02	9.4503	8.940151	0.000123	1.227768	0.207989	-0.000012
1062	1.0557e+02	9.4388	8.924264	0.000160	1.596098	0.270386	-0.000016
1063	1.0567e+02	9.4267	8.913266	0.000110	1.104991	0.187191	-0.000011
1064	1.0577e+02	9.4142	8.901046	0.000123	1.227768	0.207989	-0.000012
1065	1.0587e+02	9.4080	8.889233	0.000119	1.186842	0.201057	-0.000012
1066	1.0597e+02	9.3974	8.874568	0.000147	1.473321	0.249587	-0.000015
1067	1.0607e+02	9.3887	8.865607	0.000090	0.900363	0.152526	-0.000009
1068	1.0617e+02	9.3774	8.857053	0.000086	0.859437	0.145593	-0.000009
1069	1.0627e+02	9.3665	8.839944	0.000172	1.718875	0.291185	-0.000017
1070	1.0637e+02	9.3570	8.828131	0.000119	1.186842	0.201057	-0.000012
1071	1.0647e+02	9.3482	8.816319	0.000119	1.186842	0.201057	-0.000012
1072	1.0656e+02	9.3388	8.801654	0.000147	1.473321	0.249587	-0.000015
1073	1.0666e+02	9.3283	8.791471	0.000102	1.023140	0.173325	-0.000010
1074	1.0676e+02	9.3169	8.772733	0.000188	1.882577	0.318917	-0.000019
1075	1.0686e+02	9.3068	8.764586	0.000082	0.818512	0.138660	-0.000008
1076	1.0696e+02	9.2953	8.749922	0.000147	1.473321	0.249587	-0.000015
1077	1.0706e+02	9.2896	8.731591	0.000184	1.841652	0.311984	-0.000018
1078	1.0716e+02	9.2801	8.718964	0.000127	1.268693	0.214922	-0.000013
1079	1.0726e+02	9.2677	8.705114	0.000139	1.391470	0.235721	-0.000014
1080	1.0736e+02	9.2570	8.690042	0.000151	1.514247	0.256520	-0.000015
1081	1.0746e+02	9.2475	8.673749	0.000164	1.637024	0.277319	-0.000016
1082	1.0756e+02	9.2383	8.660714	0.000131	1.309619	0.221855	-0.000013
1083	1.0766e+02	9.2297	8.645235	0.000156	1.555173	0.263453	-0.000016
1084	1.0776e+02	9.2159	8.632607	0.000127	1.268693	0.214922	-0.000013
1085	1.0786e+02	9.2090	8.618350	0.000143	1.432396	0.242654	-0.000014
1086	1.0796e+02	9.1983	8.605315	0.000131	1.309619	0.221855	-0.000013
1087	1.0806e+02	9.1895	8.591873	0.000135	1.350545	0.228788	-0.000014
1088	1.0816e+02	9.1778	8.576394	0.000156	1.555173	0.263453	-0.000016
1089	1.0826e+02	9.1639	8.563766	0.000127	1.268693	0.214922	-0.000013
1090	1.0836e+02	9.1595	8.551546	0.000123	1.227768	0.207989	-0.000012
1091	1.0845e+02	9.1483	8.533623	0.000180	1.800726	0.305051	-0.000018
1092	1.0855e+02	9.1414	8.523439	0.000102	1.023140	0.173325	-0.000010
1093	1.0865e+02	9.1291	8.503887	0.000196	1.964428	0.332783	-0.000020
1094	1.0875e+02	9.1189	8.495740	0.000082	0.818512	0.138660	-0.000008
1095	1.0885e+02	9.1085	8.476187	0.000196	1.964428	0.332783	-0.000020
1096	1.0895e+02	9.0979	8.463560	0.000127	1.268693	0.214922	-0.000013
1097	1.0905e+02	9.0894	8.451340	0.000123	1.227768	0.207989	-0.000012
1098	1.0915e+02	9.0787	8.436268	0.000151	1.514247	0.256520	-0.000015
1099	1.0925e+02	9.0700	8.422418	0.000139	1.391470	0.235721	-0.000014
1100	1.0935e+02	9.0578	8.406939	0.000156	1.555173	0.263453	-0.000016
1101	1.0945e+02	9.0485	8.394719	0.000123	1.227768	0.207989	-0.000012
1102	1.0955e+02	9.0372	8.379647	0.000151	1.514247	0.256520	-0.000015
1103	1.0965e+02	9.0247	8.361317	0.000184	1.841652	0.311984	-0.000018
1104	1.0975e+02	9.0195	8.349504	0.000119	1.186842	0.201057	-0.000012
1105	1.0985e+02	9.0112	8.336062	0.000135	1.350545	0.228788	-0.000014
1106	1.0995e+02	9.0006	8.320990	0.000151	1.514247	0.256520	-0.000015
1107	1.1005e+02	8.9899	8.308770	0.000123	1.227768	0.207989	-0.000012
1108	1.1015e+02	8.9800	8.288403	0.000205	2.046280	0.346649	-0.000020
1109	1.1025e+02	8.9700	8.277404	0.000110	1.104991	0.187191	-0.000011
1110	1.1035e+02	8.9591	8.259481	0.000180	1.800726	0.305051	-0.000018
1111	1.1044e+02	8.9480	8.243595	0.000160	1.596098	0.270386	-0.000016
1112	1.1054e+02	8.9405	8.230153	0.000135	1.350545	0.228788	-0.000014
1113	1.1064e+02	8.9299	8.217118	0.000131	1.309619	0.221855	-0.000013
1114	1.1074e+02	8.9213	8.203268	0.000139	1.391470	0.235721	-0.000014
1115	1.1084e+02	8.9118	8.185752	0.000176	1.759801	0.298118	-0.000018
1116	1.1094e+02	8.8997	8.175161	0.000106	1.064065	0.180258	-0.000011
1117	1.1104e+02	8.8888	8.158053	0.000172	1.718875	0.291185	-0.000017
1118	1.1114e+02	8.8818	8.142574	0.000156	1.555173	0.263453	-0.000016
1119	1.1124e+02	8.8706	8.130354	0.000123	1.227768	0.207989	-0.000012
1120	1.1134e+02	8.8596	8.113245	0.000172	1.718875	0.291185	-0.000017
1121	1.1144e+02	8.8496	8.094915	0.000184	1.841652	0.311984	-0.000018
1122	1.1154e+02	8.8381	8.082287	0.000127	1.268693	0.214922	-0.000013
1123	1.1164e+02	8.8306	8.067623	0.000147	1.473321	0.249587	-0.000015
1124	1.1174e+02	8.8211	8.051737	0.000160	1.596098	0.270386	-0.000016
1125	1.1184e+02	8.8106	8.036665	0.000151	1.514247	0.256520	-0.000015
1126	1.1194e+02	8.8009	8.026481	0.000102	1.023140	0.173325	-0.000010
1127	1.1204e+02	8.7902	8.015076	0.000115	1.145917	0.194124	-0.000011
1128	1.1214e+02	8.7787	7.995523	0.000196	1.964428	0.332783	-0.000020
1129	1.1224e+02	8.7689	7.986562	0.000090	0.900363	0.152526	-0.000009
1130	1.1234e+02	8.7622	7.974341	0.000123	1.227768	0.207989	-0.000012
1131	1.1244e+02	8.7531	7.958455	0.000160	1.596098	0.270386	-0.000016
1132	1.1253e+02	8.7415	7.942569	0.000160	1.596098	0.270386	-0.000016
1133	1.1263e+02	8.7308	7.932793	0.000098	0.982214	0.166392	-0.000010
1134	1.1273e+02	8.7198	7.917314	0.000156	1.555173	0.263453	-0.000016
1135	1.1283e+02	8.7127	7.904279	0.000131	1.309619	0.221855	-0.000013
1136	1.1293e+02	8.6983	7.890022	0.000143	1.432396	0.242654	-0.000014
1137	1.1303e+02	8.6921	7.875357	0.000147	1.473321	0.249587	-0.000015
1138	1.1313e+02	8.6829	7.857841	0.000176	1.759801	0.298118	-0.000018
1139	1.1323e+02	8.6706	7.843992	0.000139	1.391470	0.235721	-0.000014
1140	1.1333e+02	8.6621	7.828513	0.000156	1.555173	0.263453	-0.000016
1141	1.1343e+02	8.6535	7.813034	0.000156	1.555173	0.263453	-0.000016
1142	1.1353e+02	8.6411	7.797555	0.000156	1.555173	0.263453	-0.000016
1143	1.1363e+02	8.6298	7.782483	0.000151	1.514247	0.256520	-0.000015
1144	1.1373e+02	8.6199	7.769041	0.000135	1.350545	0.228788	-0.000014
1145	1.1383e+02	8.6120	7.749081	0.000201	2.005354	0.339716	-0.000020
1146	1.1393e+02	8.6000	7.736453	0.000127	1.268693	0.214922	-0.000013
1147	1.1403e+02	8.5914	7.720567	0.000160	1.596098	0.270386	-0.000016
1148	1.1413e+02	8.5836	7.702237	0.000184	1.841652	0.311984	-0.000018
1149	1.1423e+02	8.5721	7.688387	0.000139	1.391470	0.235721	-0.000014
1150	1.1433e+02	8.5619	7.667613	0.000209	2.087205	0.353582	-0.000021
1151	1.1442e+02	8.5519	7.654170	0.000135	1.350545	0.228788	-0.000014
1152	1.1452e+02	8.5425	7.635432	0.000188	1.882577	0.318917	-0.000019
1153	1.1462e+02	8.5361	7.620361	0.000151	1.514247	0.256520	-0.000015
1154	1.1472e+02	8.5246	7.600808	0.000196	1.964428	0.332783	-0.000020
1155	1.1482e+02	8.5059	7.586551	0.000143	1.432396	0.242654	-0.000014
1156	1.1492e+02	8.5028	7.567406	0.000192	1.923503	0.325850	-0.000019
1157	1.1502e+02	8.4926	7.556001	0.000115	1.145917	0.194124	-0.000011
1158	1.1512e+02	8.4815	7.540522	0.000156	1.555173	0.263453	-0.000016
1159	1.1522e+02	8.4735	7.523413	0.000172	1.718875	0.291185	-0.000017
1160	1.1532e+02	8.4628	7.509564	0.000139	1.391470	0.235721	-0.000014
1161	1.1542e+02	8.4537	7.492455	0.000172	1.718875	0.291185	-0.000017
1162	1.1552e+02	8.4415	7.473310	0.000192	1.923503	0.325850	-0.000019
1163	1.1562e+02	8.4338	7.461497	0.000119	1.186842	0.201057	-0.000012
1164	1.1572e+02	8.4206	7.445611	0.000160	1.596098	0.270386	-0.000016
1165	1.1582e+02	8.4118	7.430946	0.000147	1.473321	0.249587	-0.000015
1166	1.1592e+02	8.4014	7.410172	0.000209	2.087205	0.353582	-0.000021
1167	1.1602e+02	8.3921	7.396322	0.000139	1.391470	0.235721	-0.000014
1168	1.1612e+02	8.3813	7.381658	0.000147	1.473321	0.249587	-0.000015
1169	1.1622e+02	8.3731	7.364550	0.000172	1.718875	0.291185	-0.000017
1170	1.1632e+02	8.3630	7.349885	0.000147	1.473321	0.249587	-0.000015
1171	1.1642e+02	8.3545	7.334406	0.000156	1.555173	0.263453	-0.000016
1172	1.1651e+02	8.3424	7.317705	0.000168	1.677949	0.284252	-0.000017
1173	1.1661e+02	8.3335	7.302226	0.000156	1.555173	0.263453	-0.000016
1174	1.1671e+02	8.3213	7.285933	0.000164	1.637024	0.277319	-0.000016
1175	1.1681e+02	8.3115	7.270861	0.000151	1.514247	0.256520	-0.000015
1176	1.1691e+02	8.3047	7.257011	0.000139	1.391470	0.235721	-0.000014
1177	1.1701e+02	8.2959	7.242347	0.000147	1.473321	0.249587	-0.000015
1178	1.1711e+02	8.2819	7.224831	0.000176	1.759801	0.298118	-0.000018
1179	1.1721e+02	8.2737	7.206908	0.000180	1.800726	0.305051	-0.000018
1180	1.1731e+02	8.2658	7.195503	0.000115	1.145917	0.194124	-0.000011
1181	1.1741e+02	8.2544	7.175543	0.000201	2.005354	0.339716	-0.000020
1182	1.1751e+02	8.2417	7.157620	0.000180	1.800726	0.305051	-0.000018
1183	1.1761e+02	8.2346	7.141733	0.000160	1.596098	0.270386	-0.000016
1184	1.1771e+02	8.2236	7.128698	0.000131	1.309619	0.221855	-0.000013
1185	1.1781e+02	8.2165	7.109961	0.000188	1.882577	0.318917	-0.000019
1186	1.1791e+02	8.2031	7.095296	0.000147	1.473321	0.249587	-0.000015
1187	1.1801e+02	8.1934	7.079410	0.000160	1.596098	0.270386	-0.000016
1188	1.1811e+02	8.1878	7.062301	0.000172	1.718875	0.291185	-0.000017
1189	1.1821e+02	8.1768	7.048859	0.000135	1.350545	0.228788	-0.000014
1190	1.1831e+02	8.1627	7.034195	0.000147	1.473321	0.249587	-0.000015
1191	1.1841e+02	8.1543	7.015864	0.000184	1.841652	0.311984	-0.000018
1192	1.1850e+02	8.1446	7.003237	0.000127	1.268693	0.214922	-0.000013
1193	1.1860e+02	8.1326	6.988165	0.000151	1.514247	0.256520	-0.000015
1194	1.1870e+02	8.1230	6.972686	0.000156	1.555173	0.263453	-0.000016
1195	1.1880e+02	8.1139	6.958429	0.000143	1.432396	0.242654	-0.000014
1196	1.1890e+02	8.1035	6.939284	0.000192	1.923503	0.325850	-0.000019
1197	1.1900e+02	8.0957	6.923805	0.000156	1.555173	0.263453	-0.000016
1198	1.1910e+02	8.0865	6.907511	0.000164	1.637024	0.277319	-0.000016
1199	1.1920e+02	8.0726	6.890403	0.000172	1.718875	0.291185	-0.000017
1200	1.1930e+02	8.0653	6.874924	0.000156	1.555173	0.263453	-0.000016
1201	1.1940e+02	8.0524	6.859445	0.000156	1.555173	0.263453	-0.000016
1202	1.1950e+02	8.0457	6.846410	0.000131	1.309619	0.221855	-0.000013
1203	1.1960e+02	8.0341	6.828487	0.000180	1.800726	0.305051	-0.000018
1204	1.1970e+02	8.0264	6.813823	0.000147	1.473321	0.249587	-0.000015
1205	1.1980e+02	8.0148	6.799158	0.000147	1.473321	0.249587	-0.000015
1206	1.1990e+02	8.0056	6.784087	0.000151	1.514247	0.256520	-0.000015
1207	1.2000e+02	7.9950	6.764127	0.000201	2.005354	0.339716	-0.000020
1208	1.2010e+02	7.9847	6.749870	0.000143	1.432396	0.242654	-0.000014
1209	1.2020e+02	7.9731	6.732761	0.000172	1.718875	0.291185	-0.000017
1210	1.2030e+02	7.9664	6.718504	0.000143	1.432396	0.242654	-0.000014
1211	1.2039e+02	7.9568	6.701803	0.000168	1.677949	0.284252	-0.000017
1212	1.2049e+02	7.9432	6.681029	0.000209	2.087205	0.353582	-0.000021
1213	1.2059e+02	7.9351	6.664735	0.000164	1.637024	0.277319	-0.000016
1214	1.2069e+02	7.9287	6.647627	0.000172	1.718875	0.291185	-0.000017
1215	1.2079e+02	7.9159	6.630111	0.000176	1.759801	0.298118	-0.000018
1216	1.2089e+02	7.9047	6.613817	0.000164	1.637024	0.277319	-0.000016
1217	1.2099e+02	7.8931	6.596709	0.000172	1.718875	0.291185	-0.000017
1218	1.2109e+02	7.8844	6.577157	0.000196	1.964428	0.332783	-0.000020
1219	1.2119e+02	7.8748	6.560863	0.000164	1.637024	0.277319	-0.000016
1220	1.2129e+02	7.8654	6.546198	0.000147	1.473321	0.249587	-0.000015
1221	1.2139e+02	7.8577	6.529497	0.000168	1.677949	0.284252	-0.000017
1222	1.2149e+02	7.8468	6.513611	0.000160	1.596098	0.270386	-0.000016
1223	1.2159e+02	7.8350	6.500576	0.000131	1.309619	0.221855	-0.000013
1224	1.2169e+02	7.8255	6.482653	0.000180	1.800726	0.305051	-0.000018
1225	1.2179e+02	7.8176	6.462693	0.000201	2.005354	0.339716	-0.000020
1226	1.2189e+02	7.8043	6.451288	0.000115	1.145917	0.194124	-0.000011
1227	1.2199e+02	7.7994	6.435401	0.000160	1.596098	0.270386	-0.000016
1228	1.2209e+02	7.7838	6.413812	0.000217	2.169056	0.367448	-0.000022
1229	1.2219e+02	7.7760	6.401999	0.000119	1.186842	0.201057	-0.000012
1230	1.2229e+02	7.7666	6.386928	0.000151	1.514247	0.256520	-0.000015
1231	1.2239e+02	7.7560	6.373893	0.000131	1.309619	0.221855	-0.000013
1232	1.2248e+02	7.7455	6.360450	0.000135	1.350545	0.228788	-0.000014
1233	1.2258e+02	7.7353	6.344157	0.000164	1.637024	0.277319	-0.000016
1234	1.2268e+02	7.7246	6.331122	0.000131	1.309619	0.221855	-0.000013
1235	1.2278e+02	7.7148	6.318901	0.000123	1.227768	0.207989	-0.000012
1236	1.2288e+02	7.7065	6.301386	0.000176	1.759801	0.298118	-0.000018
1237	1.2298e+02	7.6960	6.287943	0.000135	1.350545	0.228788	-0.000014
1238	1.2308e+02	7.6870	6.276538	0.000115	1.145917	0.194124	-0.000011
1239	1.2318e+02	7.6801	6.259837	0.000168	1.677949	0.284252	-0.000017
1240	1.2328e+02	7.6675	6.249246	0.000106	1.064065	0.180258	-0.000011
1241	1.2338e+02	7.6577	6.228064	0.000213	2.128131	0.360515	-0.000021
1242	1.2348e+02	7.6491	6.212992	0.000151	1.514247	0.256520	-0.000015
1243	1.2358e+02	7.6417	6.197513	0.000156	1.555173	0.263453	-0.000016
1244	1.2368e+02	7.6283	6.179998	0.000176	1.759801	0.298118	-0.000018
1245	1.2378e+02	7.6150	6.164926	0.000151	1.514247	0.256520	-0.000015
1246	1.2388e+02	7.6086	6.151891	0.000131	1.309619	0.221855	-0.000013
1247	1.2398e+02	7.5950	6.130709	0.000213	2.128131	0.360515	-0.000021
1248	1.2408e+02	7.5847	6.118081	0.000127	1.268693	0.214922	-0.000013
1249	1.2418e+02	7.5758	6.099344	0.000188	1.882577	0.318917	-0.000019
1250	1.2428e+02	7.5677	6.086716	0.000127	1.268693	0.214922	-0.000013
1251	1.2438e+02	7.5593	6.068793	0.000180	1.800726	0.305051	-0.000018
1252	1.2447e+02	7.5475	6.055351	0.000135	1.350545	0.228788	-0.000014
1253	1.2457e+02	7.5347	6.037428	0.000180	1.800726	0.305051	-0.000018
1254	1.2467e+02	7.5277	6.022763	0.000147	1.473321	0.249587	-0.000015
1255	1.2477e+02	7.5158	6.004840	0.000180	1.800726	0.305051	-0.000018
1256	1.2487e+02	7.5090	5.987324	0.000176	1.759801	0.298118	-0.000018
1257	1.2497e+02	7.4955	5.972660	0.000147	1.473321	0.249587	-0.000015
1258	1.2507e+02	7.4854	5.957588	0.000151	1.514247	0.256520	-0.000015
1259	1.2517e+02	7.4792	5.942109	0.000156	1.555173	0.263453	-0.000016
1260	1.2527e+02	7.4670	5.926223	0.000160	1.596098	0.270386	-0.000016
1261	1.2537e+02	7.4586	5.910744	0.000156	1.555173	0.263453	-0.000016
1262	1.2547e+02	7.4475	5.892821	0.000180	1.800726	0.305051	-0.000018
1263	1.2557e+02	7.4391	5.873269	0.000196	1.964428	0.332783	-0.000020
1264	1.2567e+02	7.4284	5.864714	0.000086	0.859437	0.145593	-0.000009
1265	1.2577e+02	7.4166	5.843940	0.000209	2.087205	0.353582	-0.000021
1266	1.2587e+02	7.4101	5.830090	0.000139	1.391470	0.235721	-0.000014
1267	1.2597e+02	7.3971	5.812982	0.000172	1.718875	0.291185	-0.000017
1268	1.2607e+02	7.3878	5.799947	0.000131	1.309619	0.221855	-0.000013
1269	1.2617e+02	7.3780	5.783246	0.000168	1.677949	0.284252	-0.000017
1270	1.2627e+02	7.3664	5.764915	0.000184	1.841652	0.311984	-0.000018
1271	1.2636e+02	7.3585	5.751473	0.000135	1.350545	0.228788	-0.000014
1272	1.2646e+02	7.3479	5.734365	0.000172	1.718875	0.291185	-0.000017
1273	1.2656e+02	7.3416	5.718071	0.000164	1.637024	0.277319	-0.000016
1274	1.2666e+02	7.3281	5.701777	0.000164	1.637024	0.277319	-0.000016
1275	1.2676e+02	7.3186	5.686298	0.000156	1.555173	0.263453	-0.000016
1276	1.2686e+02	7.3098	5.668375	0.000180	1.800726	0.305051	-0.000018
1277	1.2696e+02	7.3003	5.653304	0.000151	1.514247	0.256520	-0.000015
1278	1.2706e+02	7.2900	5.638232	0.000151	1.514247	0.256520	-0.000015
1279	1.2716e+02	7.2771	5.616643	0.000217	2.169056	0.367448	-0.000022
1280	1.2726e+02	7.2674	5.603608	0.000131	1.309619	0.221855	-0.000013
1281	1.2736e+02	7.2613	5.587314	0.000164	1.637024	0.277319	-0.000016
1282	1.2746e+02	7.2461	5.572242	0.000151	1.514247	0.256520	-0.000015
1283	1.2756e+02	7.2386	5.555541	0.000168	1.677949	0.284252	-0.000017
1284	1.2766e+02	7.2266	5.535174	0.000205	2.046280	0.346649	-0.000020
1285	1.2776e+02	7.2175	5.520510	0.000147	1.473321	0.249587	-0.000015
1286	1.2786e+02	7.2070	5.504624	0.000160	1.596098	0.270386	-0.000016
1287	1.2796e+02	7.1980	5.489145	0.000156	1.555173	0.263453	-0.000016
1288	1.2806e+02	7.1896	5.472851	0.000164	1.637024	0.277319	-0.000016
1289	1.2816e+02	7.1791	5.456150	0.000168	1.677949	0.284252	-0.000017
1290	1.2826e+02	7.1695	5.437412	0.000188	1.882577	0.318917	-0.000019
1291	1.2835e+02	7.1595	5.422748	0.000147	1.473321	0.249587	-0.000015
1292	1.2845e+02	7.1489	5.402788	0.000201	2.005354	0.339716	-0.000020
1293	1.2855e+02	7.1375	5.388124	0.000147	1.473321	0.249587	-0.000015
1294	1.2865e+02	7.1289	5.373052	0.000151	1.514247	0.256520	-0.000015
1295	1.2875e+02	7.1220	5.357573	0.000156	1.555173	0.263453	-0.000016
1296	1.2885e+02	7.1103	5.339242	0.000184	1.841652	0.311984	-0.000018
1297	1.2895e+02	7.1001	5.326208	0.000131	1.309619	0.221855	-0.000013
1298	1.2905e+02	7.0899	5.312765	0.000135	1.350545	0.228788	-0.000014
1299	1.2915e+02	7.0791	5.298916	0.000139	1.391470	0.235721	-0.000014
1300	1.2925e+02	7.0690	5.279770	0.000192	1.923503	0.325850	-0.000019
1301	1.2935e+02	7.0584	5.269180	0.000106	1.064065	0.180258	-0.000011
1302	1.2945e+02	7.0503	5.252886	0.000164	1.637024	0.277319	-0.000016
1303	1.2955e+02	7.0412	5.236592	0.000164	1.637024	0.277319	-0.000016
1304	1.2965e+02	7.0287	5.217447	0.000192	1.923503	0.325850	-0.000019
1305	1.2975e+02	7.0242	5.201968	0.000156	1.555173	0.263453	-0.000016
1306	1.2985e+02	7.0094	5.190155	0.000119	1.186842	0.201057	-0.000012
1307	1.2995e+02	7.0007	5.169381	0.000209	2.087205	0.353582	-0.000021
1308	1.3005e+02	6.9888	5.154309	0.000151	1.514247	0.256520	-0.000015
1309	1.3015e+02	6.9810	5.137201	0.000172	1.718875	0.291185	-0.000017
1310	1.3025e+02	6.9699	5.118055	0.000192	1.923503	0.325850	-0.000019
1311	1.3034e+02	6.9615	5.102984	0.000151	1.514247	0.256520	-0.000015
1312	1.3044e+02	6.9511	5.086690	0.000164	1.637024	0.277319	-0.000016
1313	1.3054e+02	6.9395	5.068360	0.000184	1.841652	0.311984	-0.000018
1314	1.3064e+02	6.9309	5.053288	0.000151	1.514247	0.256520	-0.000015
1315	1.3074e+02	6.9210	5.032106	0.000213	2.128131	0.360515	-0.000021
1316	1.3084e+02	6.9118	5.015813	0.000164	1.637024	0.277319	-0.000016
1317	1.3094e+02	6.8999	4.995445	0.000205	2.046280	0.346649	-0.000020
1318	1.3104e+02	6.8901	4.975893	0.000196	1.964428	0.332783	-0.000020
1319	1.3114e+02	6.8794	4.961229	0.000147	1.473321	0.249587	-0.000015
1320	1.3124e+02	6.8694	4.940454	0.000209	2.087205	0.353582	-0.000021
1321	1.3134e+02	6.8600	4.920902	0.000196	1.964428	0.332783	-0.000020
1322	1.3144e+02	6.8511	4.904201	0.000168	1.677949	0.284252	-0.000017
1323	1.3154e+02	6.8424	4.885463	0.000188	1.882577	0.318917	-0.000019
1324	1.3164e+02	6.8285	4.869577	0.000160	1.596098	0.270386	-0.000016
1325	1.3174e+02	6.8218	4.850839	0.000188	1.882577	0.318917	-0.000019
1326	1.3184e+02	6.8105	4.833730	0.000172	1.718875	0.291185	-0.000017
1327	1.3194e+02	6.8013	4.816215	0.000176	1.759801	0.298118	-0.000018
1328	1.3204e+02	6.7901	4.799514	0.000168	1.677949	0.284252	-0.000017
1329	1.3214e+02	6.7800	4.784035	0.000156	1.555173	0.263453	-0.000016
1330	1.3224e+02	6.7702	4.766926	0.000172	1.718875	0.291185	-0.000017
1331	1.3234e+02	6.7606	4.749003	0.000180	1.800726	0.305051	-0.000018
1332	1.3243e+02	6.7516	4.731487	0.000176	1.759801	0.298118	-0.000018
1333	1.3253e+02	6.7406	4.714786	0.000168	1.677949	0.284252	-0.000017
1334	1.3263e+02	6.7341	4.696049	0.000188	1.882577	0.318917	-0.000019
1335	1.3273e+02	6.7205	4.680977	0.000151	1.514247	0.256520	-0.000015
1336	1.3283e+02	6.7106	4.663054	0.000180	1.800726	0.305051	-0.000018
1337	1.3293e+02	6.7010	4.641057	0.000221	2.209982	0.374381	-0.000022
1338	1.3303e+02	6.6930	4.630466	0.000106	1.064065	0.180258	-0.000011
1339	1.3313e+02	6.6790	4.608877	0.000217	2.169056	0.367448	-0.000022
1340	1.3323e+02	6.6714	4.593806	0.000151	1.514247	0.256520	-0.000015
1341	1.3333e+02	6.6616	4.577512	0.000164	1.637024	0.277319	-0.000016
1342	1.3343e+02	6.6493	4.557145	0.000205	2.046280	0.346649	-0.000020
1343	1.3353e+02	6.6428	4.542480	0.000147	1.473321	0.249587	-0.000015
1344	1.3363e+02	6.6333	4.526187	0.000164	1.637024	0.277319	-0.000016
1345	1.3373e+02	6.6219	4.509893	0.000164	1.637024	0.277319	-0.000016
1346	1.3383e+02	6.6085	4.489526	0.000205	2.046280	0.346649	-0.000020
1347	1.3393e+02	6.6026	4.472418	0.000172	1.718875	0.291185	-0.000017
1348	1.3403e+02	6.5914	4.454494	0.000180	1.800726	0.305051	-0.000018
1349	1.3413e+02	6.5831	4.436164	0.000184	1.841652	0.311984	-0.000018
1350	1.3423e+02	6.5707	4.420685	0.000156	1.555173	0.263453	-0.000016
1351	1.3432e+02	6.5614	4.401133	0.000196	1.964428	0.332783	-0.000020
1352	1.3442e+02	6.5545	4.385246	0.000160	1.596098	0.270386	-0.000016
1353	1.3452e+02	6.5432	4.368545	0.000168	1.677949	0.284252	-0.000017
1354	1.3462e+02	6.5343	4.346549	0.000221	2.209982	0.374381	-0.000022
1355	1.3472e+02	6.5230	4.334736	0.000119	1.186842	0.201057	-0.000012
1356	1.3482e+02	6.5114	4.314776	0.000201	2.005354	0.339716	-0.000020
1357	1.3492e+02	6.5046	4.298890	0.000160	1.596098	0.270386	-0.000016
1358	1.3502e+02	6.4928	4.284225	0.000147	1.473321	0.249587	-0.000015
1359	1.3512e+02	6.4840	4.264266	0.000201	2.005354	0.339716	-0.000020
1360	1.3522e+02	6.4736	4.247972	0.000164	1.637024	0.277319	-0.000016
1361	1.3532e+02	6.4631	4.232900	0.000151	1.514247	0.256520	-0.000015
1362	1.3542e+02	6.4523	4.216199	0.000168	1.677949	0.284252	-0.000017
1363	1.3552e+02	6.4444	4.198276	0.000180	1.800726	0.305051	-0.000018
1364	1.3562e+02	6.4330	4.180353	0.000180	1.800726	0.305051	-0.000018
1365	1.3572e+02	6.4218	4.161208	0.000192	1.923503	0.325850	-0.000019
1366	1.3582e+02	6.4129	4.146136	0.000151	1.514247	0.256520	-0.000015
1367	1.3592e+02	6.4051	4.124954	0.000213	2.128131	0.360515	-0.000021
1368	1.3602e+02	6.3924	4.108661	0.000164	1.637024	0.277319	-0.000016
1369	1.3612e+02	6.3824	4.091145	0.000176	1.759801	0.298118	-0.000018
1370	1.3622e+02	6.3731	4.073629	0.000176	1.759801	0.298118	-0.000018
1371	1.3631e+02	6.3620	4.061002	0.000127	1.268693	0.214922	-0.000013
1372	1.3641e+02	6.3525	4.039820	0.000213	2.128131	0.360515	-0.000021
1373	1.3651e+02	6.3444	4.024341	0.000156	1.555173	0.263453	-0.000016
1374	1.3661e+02	6.3345	4.007232	0.000172	1.718875	0.291185	-0.000017
1375	1.3671e+02	6.3225	3.992161	0.000151	1.514247	0.256520	-0.000015
1376	1.3681e+02	6.3145	3.974238	0.000180	1.800726	0.305051	-0.000018
1377	1.3691e+02	6.3030	3.957129	0.000172	1.718875	0.291185	-0.000017
1378	1.3701e+02	6.2920	3.941650	0.000156	1.555173	0.263453	-0.000016
1379	1.3711e+02	6.2850	3.919654	0.000221	2.209982	0.374381	-0.000022
1380	1.3721e+02	6.2728	3.898472	0.000213	2.128131	0.360515	-0.000021
1381	1.3731e+02	6.2630	3.880141	0.000184	1.841652	0.311984	-0.000018
1382	1.3741e+02	6.2523	3.859774	0.000205	2.046280	0.346649	-0.000020
1383	1.3751e+02	6.2466	3.841851	0.000180	1.800726	0.305051	-0.000018
1384	1.3761e+02	6.2336	3.820262	0.000217	2.169056	0.367448	-0.000022
1385	1.3771e+02	6.2289	3.808042	0.000123	1.227768	0.207989	-0.000012
1386	1.3781e+02	6.2153	3.786045	0.000221	2.209982	0.374381	-0.000022
1387	1.3791e+02	6.2029	3.768530	0.000176	1.759801	0.298118	-0.000018
1388	1.3801e+02	6.1947	3.751829	0.000168	1.677949	0.284252	-0.000017
1389	1.3811e+02	6.1849	3.735128	0.000168	1.677949	0.284252	-0.000017
1390	1.3821e+02	6.1744	3.718019	0.000172	1.718875	0.291185	-0.000017
1391	1.3831e+02	6.1650	3.700503	0.000176	1.759801	0.298118	-0.000018
1392	1.3840e+02	6.1555	3.682988	0.000176	1.759801	0.298118	-0.000018
1393	1.3850e+02	6.1430	3.666694	0.000164	1.637024	0.277319	-0.000016
1394	1.3860e+02	6.1343	3.645920	0.000209	2.087205	0.353582	-0.000021
1395	1.3870e+02	6.1237	3.631663	0.000143	1.432396	0.242654	-0.000014
1396	1.3880e+02	6.1141	3.610888	0.000209	2.087205	0.353582	-0.000021
1397	1.3890e+02	6.1024	3.593372	0.000176	1.759801	0.298118	-0.000018
1398	1.3900e+02	6.0958	3.579115	0.000143	1.432396	0.242654	-0.000014
1399	1.3910e+02	6.0845	3.561600	0.000176	1.759801	0.298118	-0.000018
1400	1.3920e+02	6.0766	3.549379	0.000123	1.227768	0.207989	-0.000012
1401	1.3930e+02	6.0650	3.529420	0.000201	2.005354	0.339716	-0.000020
1402	1.3940e+02	6.0552	3.518421	0.000110	1.104991	0.187191	-0.000011
1403	1.3950e+02	6.0470	3.503757	0.000147	1.473321	0.249587	-0.000015
1404	1.3960e+02	6.0349	3.487463	0.000164	1.637024	0.277319	-0.000016
1405	1.3970e+02	6.0254	3.473206	0.000143	1.432396	0.242654	-0.000014
1406	1.3980e+02	6.0156	3.456505	0.000168	1.677949	0.284252	-0.000017
1407	1.3990e+02	6.0035	3.437360	0.000192	1.923503	0.325850	-0.000019
1408	1.4000e+02	5.9969	3.421474	0.000160	1.596098	0.270386	-0.000016
1409	1.4010e+02	5.9841	3.407624	0.000139	1.391470	0.235721	-0.000014
1410	1.4020e+02	5.9783	3.387664	0.000201	2.005354	0.339716	-0.000020
1411	1.4029e+02	5.9664	3.371778	0.000160	1.596098	0.270386	-0.000016
1412	1.4039e+02	5.9559	3.350596	0.000213	2.128131	0.360515	-0.000021
1413	1.4049e+02	5.9463	3.334302	0.000164	1.637024	0.277319	-0.000016
1414	1.4059e+02	5.9365	3.315157	0.000192	1.923503	0.325850	-0.000019
1415	1.4069e+02	5.9252	3.302530	0.000127	1.268693	0.214922	-0.000013
1416	1.4079e+02	5.9160	3.284199	0.000184	1.841652	0.311984	-0.000018
1417	1.4089e+02	5.9051	3.263832	0.000205	2.046280	0.346649	-0.000020
1418	1.4099e+02	5.8950	3.247946	0.000160	1.596098	0.270386	-0.000016
1419	1.4109e+02	5.8856	3.232874	0.000151	1.514247	0.256520	-0.000015
1420	1.4119e+02	5.8794	3.212100	0.000209	2.087205	0.353582	-0.000021
1421	1.4129e+02	5.8633	3.194584	0.000176	1.759801	0.298118	-0.000018
1422	1.4139e+02	5.8579	3.180734	0.000139	1.391470	0.235721	-0.000014
1423	1.4149e+02	5.8448	3.160367	0.000205	2.046280	0.346649	-0.000020
1424	1.4159e+02	5.8346	3.142851	0.000176	1.759801	0.298118	-0.000018
1425	1.4169e+02	5.8288	3.126558	0.000164	1.637024	0.277319	-0.000016
1426	1.4179e+02	5.8160	3.110671	0.000160	1.596098	0.270386	-0.000016
1427	1.4189e+02	5.8062	3.092748	0.000180	1.800726	0.305051	-0.000018
1428	1.4199e+02	5.7973	3.073196	0.000196	1.964428	0.332783	-0.000020
1429	1.4209e+02	5.7847	3.056495	0.000168	1.677949	0.284252	-0.000017
1430	1.4219e+02	5.7783	3.038572	0.000180	1.800726	0.305051	-0.000018
1431	1.4228e+02	5.7685	3.021871	0.000168	1.677949	0.284252	-0.000017
1432	1.4238e+02	5.7565	3.004762	0.000172	1.718875	0.291185	-0.000017
1433	1.4248e+02	5.7465	2.989691	0.000151	1.514247	0.256520	-0.000015
1434	1.4258e+02	5.7375	2.969731	0.000201	2.005354	0.339716	-0.000020
1435	1.4268e+02	5.7262	2.951808	0.000180	1.800726	0.305051	-0.000018
1436	1.4278e+02	5.7159	2.935921	0.000160	1.596098	0.270386	-0.000016
1437	1.4288e+02	5.7046	2.917998	0.000180	1.800726	0.305051	-0.000018
1438	1.4298e+02	5.6960	2.898446	0.000196	1.964428	0.332783	-0.000020
1439	1.4308e+02	5.6847	2.881745	0.000168	1.677949	0.284252	-0.000017
1440	1.4318e+02	5.6761	2.865451	0.000164	1.637024	0.277319	-0.000016
1441	1.4328e+02	5.6682	2.845084	0.000205	2.046280	0.346649	-0.000020
1442	1.4338e+02	5.6570	2.828383	0.000168	1.677949	0.284252	-0.000017
1443	1.4348e+02	5.6463	2.812904	0.000156	1.555173	0.263453	-0.000016
1444	1.4358e+02	5.6367	2.792537	0.000205	2.046280	0.346649	-0.000020
1445	1.4368e+02	5.6265	2.774614	0.000180	1.800726	0.305051	-0.000018
1446	1.4378e+02	5.6165	2.754654	0.000201	2.005354	0.339716	-0.000020
1447	1.4388e+02	5.6071	2.741212	0.000135	1.350545	0.228788	-0.000014
1448	1.4398e+02	5.5987	2.722067	0.000192	1.923503	0.325850	-0.000019
1449	1.4408e+02	5.5883	2.704958	0.000172	1.718875	0.291185	-0.000017
1450	1.4418e+02	5.5770	2.686628	0.000184	1.841652	0.311984	-0.000018
1451	1.4428e+02	5.5682	2.666668	0.000201	2.005354	0.339716	-0.000020
1452	1.4437e+02	5.5585	2.647930	0.000188	1.882577	0.318917	-0.000019
1453	1.4447e+02	5.5459	2.634081	0.000139	1.391470	0.235721	-0.000014
1454	1.4457e+02	5.5383	2.613713	0.000205	2.046280	0.346649	-0.000020
1455	1.4467e+02	5.5285	2.596605	0.000172	1.718875	0.291185	-0.000017
1456	1.4477e+02	5.5177	2.580719	0.000160	1.596098	0.270386	-0.000016
1457	1.4487e+02	5.5087	2.563610	0.000172	1.718875	0.291185	-0.000017
1458	1.4497e+02	5.4977	2.544058	0.000196	1.964428	0.332783	-0.000020
1459	1.4507e+02	5.4879	2.522876	0.000213	2.128131	0.360515	-0.000021
1460	1.4517e+02	5.4780	2.509841	0.000131	1.309619	0.221855	-0.000013
1461	1.4527e+02	5.4670	2.493547	0.000164	1.637024	0.277319	-0.000016
1462	1.4537e+02	5.4589	2.471144	0.000225	2.250908	0.381314	-0.000023
1463	1.4547e+02	5.4461	2.455257	0.000160	1.596098	0.270386	-0.000016
1464	1.4557e+02	5.4363	2.441408	0.000139	1.391470	0.235721	-0.000014
1465	1.4567e+02	5.4298	2.420226	0.000213	2.128131	0.360515	-0.000021
1466	1.4577e+02	5.4160	2.406783	0.000135	1.350545	0.228788	-0.000014
1467	1.4587e+02	5.4104	2.391712	0.000151	1.514247	0.256520	-0.000015
1468	1.4597e+02	5.4002	2.374603	0.000172	1.718875	0.291185	-0.000017
1469	1.4607e+02	5.3887	2.359124	0.000156	1.555173	0.263453	-0.000016
1470	1.4617e+02	5.3783	2.338757	0.000205	2.046280	0.346649	-0.000020
1471	1.4626e+02	5.3677	2.322871	0.000160	1.596098	0.270386	-0.000016
1472	1.4636e+02	5.3584	2.301689	0.000213	2.128131	0.360515	-0.000021
1473	1.4646e+02	5.3490	2.288654	0.000131	1.309619	0.221855	-0.000013
1474	1.4656e+02	5.3417	2.267880	0.000209	2.087205	0.353582	-0.000021
1475	1.4666e+02	5.3300	2.252808	0.000151	1.514247	0.256520	-0.000015
1476	1.4676e+02	5.3180	2.232034	0.000209	2.087205	0.353582	-0.000021
1477	1.4686e+02	5.3082	2.214518	0.000176	1.759801	0.298118	-0.000018
1478	1.4696e+02	5.2993	2.196595	0.000180	1.800726	0.305051	-0.000018
1479	1.4706e+02	5.2869	2.180708	0.000160	1.596098	0.270386	-0.000016
1480	1.4716e+02	5.2792	2.155860	0.000250	2.496461	0.422912	-0.000025
1481	1.4726e+02	5.2695	2.139974	0.000160	1.596098	0.270386	-0.000016
1482	1.4736e+02	5.2622	2.120422	0.000196	1.964428	0.332783	-0.000020
1483	1.4746e+02	5.2490	2.100055	0.000205	2.046280	0.346649	-0.000020
1484	1.4756e+02	5.2383	2.079280	0.000209	2.087205	0.353582	-0.000021
1485	1.4766e+02	5.2291	2.061357	0.000180	1.800726	0.305051	-0.000018
1486	1.4776e+02	5.2193	2.042212	0.000192	1.923503	0.325850	-0.000019
1487	1.4786e+02	5.2090	2.021437	0.000209	2.087205	0.353582	-0.000021
1488	1.4796e+02	5.2020	2.004329	0.000172	1.718875	0.291185	-0.000017
1489	1.4806e+02	5.1917	1.981925	0.000225	2.250908	0.381314	-0.000023
1490	1.4816e+02	5.1802	1.961151	0.000209	2.087205	0.353582	-0.000021
1491	1.4825e+02	5.1682	1.943228	0.000180	1.800726	0.305051	-0.000018
1492	1.4835e+02	5.1610	1.924490	0.000188	1.882577	0.318917	-0.000019
1493	1.4845e+02	5.1513	1.904530	0.000201	2.005354	0.339716	-0.000020
1494	1.4855e+02	5.1402	1.890273	0.000143	1.432396	0.242654	-0.000014
1495	1.4865e+02	5.1296	1.870313	0.000201	2.005354	0.339716	-0.000020
1496	1.4875e+02	5.1180	1.849946	0.000205	2.046280	0.346649	-0.000020
1497	1.4885e+02	5.1107	1.832430	0.000176	1.759801	0.298118	-0.000018
1498	1.4895e+02	5.0994	1.814100	0.000184	1.841652	0.311984	-0.000018
1499	1.4905e+02	5.0913	1.794955	0.000192	1.923503	0.325850	-0.000019
1500	1.4915e+02	5.0793	1.773366	0.000217	2.169056	0.367448	-0.000022
1501	1.4925e+02	5.0726	1.758294	0.000151	1.514247	0.256520	-0.000015
1502	1.4935e+02	5.0602	1.738742	0.000196	1.964428	0.332783	-0.000020
1503	1.4945e+02	5.0494	1.720819	0.000180	1.800726	0.305051	-0.000018
1504	1.4955e+02	5.0391	1.702488	0.000184	1.841652	0.311984	-0.000018
1505	1.4965e+02	5.0309	1.680492	0.000221	2.209982	0.374381	-0.000022
1506	1.4975e+02	5.0236	1.663791	0.000168	1.677949	0.284252	-0.000017
1507	1.4985e+02	5.0118	1.645868	0.000180	1.800726	0.305051	-0.000018
1508	1.4995e+02	5.0023	1.624686	0.000213	2.128131	0.360515	-0.000021
1509	1.5005e+02	4.9909	1.611651	0.000131	1.309619	0.221855	-0.000013
1510	1.5015e+02	4.9799	1.590062	0.000217	2.169056	0.367448	-0.000022
1511	1.5025e+02	4.9705	1.571731	0.000184	1.841652	0.311984	-0.000018
1512	1.5034e+02	4.9615	1.554216	0.000176	1.759801	0.298118	-0.000018
1513	1.5044e+02	4.9493	1.534663	0.000196	1.964428	0.332783	-0.000020
1514	1.5054e+02	4.9408	1.518369	0.000164	1.637024	0.277319	-0.000016
1515	1.5064e+02	4.9306	1.496780	0.000217	2.169056	0.367448	-0.000022
1516	1.5074e+02	4.9220	1.476006	0.000209	2.087205	0.353582	-0.000021
1517	1.5084e+02	4.9121	1.454009	0.000221	2.209982	0.374381	-0.000022
1518	1.5094e+02	4.9017	1.435679	0.000184	1.841652	0.311984	-0.000018
1519	1.5104e+02	4.8904	1.421014	0.000147	1.473321	0.249587	-0.000015
1520	1.5114e+02	4.8814	1.400647	0.000205	2.046280	0.346649	-0.000020
1521	1.5124e+02	4.8710	1.382724	0.000180	1.800726	0.305051	-0.000018
1522	1.5134e+02	4.8628	1.360728	0.000221	2.209982	0.374381	-0.000022
1523	1.5144e+02	4.8539	1.343619	0.000172	1.718875	0.291185	-0.000017
1524	1.5154e+02	4.8430	1.331399	0.000123	1.227768	0.207989	-0.000012
1525	1.5164e+02	4.8310	1.306551	0.000250	2.496461	0.422912	-0.000025
1526	1.5174e+02	4.8215	1.291480	0.000151	1.514247	0.256520	-0.000015
1527	1.5184e+02	4.8106	1.270705	0.000209	2.087205	0.353582	-0.000021
1528	1.5194e+02	4.8035	1.253597	0.000172	1.718875	0.291185	-0.000017
1529	1.5204e+02	4.7898	1.232415	0.000213	2.128131	0.360515	-0.000021
1530	1.5214e+02	4.7819	1.216529	0.000160	1.596098	0.270386	-0.000016
1531	1.5224e+02	4.7718	1.199013	0.000176	1.759801	0.298118	-0.000018
1532	1.5233e+02	4.7630	1.178238	0.000209	2.087205	0.353582	-0.000021
1533	1.5243e+02	4.7510	1.159093	0.000192	1.923503	0.325850	-0.000019
1534	1.5253e+02	4.7412	1.139541	0.000196	1.964428	0.332783	-0.000020
1535	1.5263e+02	4.7330	1.119581	0.000201	2.005354	0.339716	-0.000020
1536	1.5273e+02	4.7215	1.102880	0.000168	1.677949	0.284252	-0.000017
1537	1.5283e+02	4.7121	1.082920	0.000201	2.005354	0.339716	-0.000020
1538	1.5293e+02	4.7034	1.062553	0.000205	2.046280	0.346649	-0.000020
1539	1.5303e+02	4.6918	1.045852	0.000168	1.677949	0.284252	-0.000017
1540	1.5313e+02	4.6825	1.031188	0.000147	1.473321	0.249587	-0.000015
1541	1.5323e+02	4.6719	1.012450	0.000188	1.882577	0.318917	-0.000019
1542	1.5333e+02	4.6616	0.992490	0.000201	2.005354	0.339716	-0.000020
1543	1.5343e+02	4.6526	0.974974	0.000176	1.759801	0.298118	-0.000018
1544	1.5353e+02	4.6423	0.954200	0.000209	2.087205	0.353582	-0.000021
1545	1.5363e+02	4.6350	0.933425	0.000209	2.087205	0.353582	-0.000021
1546	1.5373e+02	4.6218	0.912651	0.000209	2.087205	0.353582	-0.000021
1547	1.5383e+02	4.6131	0.893099	0.000196	1.964428	0.332783	-0.000020
1548	1.5393e+02	4.6027	0.874768	0.000184	1.841652	0.311984	-0.000018
1549	1.5403e+02	4.5927	0.852772	0.000221	2.209982	0.374381	-0.000022
1550	1.5413e+02	4.5792	0.826702	0.000262	2.619238	0.443711	-0.000026
1551	1.5422e+02	4.5719	0.810001	0.000168	1.677949	0.284252	-0.000017
1552	1.5432e+02	4.5597	0.792892	0.000172	1.718875	0.291185	-0.000017
1553	1.5442e+02	4.5528	0.772118	0.000209	2.087205	0.353582	-0.000021
1554	1.5452e+02	4.5428	0.748085	0.000241	2.414610	0.409046	-0.000024
1555	1.5462e+02	4.5321	0.729754	0.000184	1.841652	0.311984	-0.000018
1556	1.5472e+02	4.5239	0.713460	0.000164	1.637024	0.277319	-0.000016
1557	1.5482e+02	4.5116	0.695130	0.000184	1.841652	0.311984	-0.000018
1558	1.5492e+02	4.5013	0.678022	0.000172	1.718875	0.291185	-0.000017
1559	1.5502e+02	4.4933	0.656840	0.000213	2.128131	0.360515	-0.000021
1560	1.5512e+02	4.4841	0.636880	0.000201	2.005354	0.339716	-0.000020
1561	1.5522e+02	4.4719	0.620994	0.000160	1.596098	0.270386	-0.000016
1562	1.5532e+02	4.4608	0.599405	0.000217	2.169056	0.367448	-0.000022
1563	1.5542e+02	4.4572	0.581889	0.000176	1.759801	0.298118	-0.000018
1564	1.5552e+02	4.4418	0.561929	0.000201	2.005354	0.339716	-0.000020
1565	1.5562e+02	4.4318	0.545228	0.000168	1.677949	0.284252	-0.000017
1566	1.5572e+02	4.4219	0.528934	0.000164	1.637024	0.277319	-0.000016
1567	1.5582e+02	4.4143	0.509382	0.000196	1.964428	0.332783	-0.000020
1568	1.5592e+02	4.4039	0.495125	0.000143	1.432396	0.242654	-0.000014
1569	1.5602e+02	4.3954	0.475980	0.000192	1.923503	0.325850	-0.000019
1570	1.5612e+02	4.3828	0.460093	0.000160	1.596098	0.270386	-0.000016
1571	1.5622e+02	4.3748	0.442578	0.000176	1.759801	0.298118	-0.000018
1572	1.5631e+02	4.3626	0.427913	0.000147	1.473321	0.249587	-0.000015
1573	1.5641e+02	4.3533	0.410398	0.000176	1.759801	0.298118	-0.000018
1574	1.5651e+02	4.3439	0.393289	0.000172	1.718875	0.291185	-0.000017
1575	1.5661e+02	4.3325	0.373737	0.000196	1.964428	0.332783	-0.000020
1576	1.5671e+02	4.3249	0.357036	0.000168	1.677949	0.284252	-0.000017
1577	1.5681e+02	4.3162	0.334225	0.000229	2.291833	0.388247	-0.000023
1578	1.5691e+02	4.3047	0.317524	0.000168	1.677949	0.284252	-0.000017
1579	1.5701e+02	4.2932	0.295527	0.000221	2.209982	0.374381	-0.000022
1580	1.5711e+02	4.2834	0.279233	0.000164	1.637024	0.277319	-0.000016
1581	1.5721e+02	4.2767	0.260496	0.000188	1.882577	0.318917	-0.000019
1582	1.5731e+02	4.2654	0.241350	0.000192	1.923503	0.325850	-0.000019
1583	1.5741e+02	4.2558	0.223020	0.000184	1.841652	0.311984	-0.000018
1584	1.5751e+02	4.2452	0.203060	0.000201	2.005354	0.339716	-0.000020
1585	1.5761e+02	4.2342	0.185545	0.000176	1.759801	0.298118	-0.000018
1586	1.5771e+02	4.2251	0.167214	0.000184	1.841652	0.311984	-0.000018
1587	1.5781e+02	4.2141	0.147254	0.000201	2.005354	0.339716	-0.000020
1588	1.5791e+02	4.2071	0.130553	0.000168	1.677949	0.284252	-0.000017
1589	1.5801e+02	4.1933	0.110186	0.000205	2.046280	0.346649	-0.000020
1590	1.5811e+02	4.1821	0.090634	0.000196	1.964428	0.332783	-0.000020
1591	1.5821e+02	4.1746	0.071896	0.000188	1.882577	0.318917	-0.000019
1592	1.5830e+02	4.1645	0.054788	0.000172	1.718875	0.291185	-0.000017
1593	1.5840e+02	4.1560	0.032384	0.000225	2.250908	0.381314	-0.000023
1594	1.5850e+02	4.1444	0.012424	0.000201	2.005354	0.339716	-0.000020
1595	1.5860e+02	4.1382	-0.005092	0.000176	1.759801	0.298118	-0.000018
1596	1.5870e+02	4.1239	-0.023830	0.000188	1.882577	0.318917	-0.000019
1597	1.5880e+02	4.1128	-0.045011	0.000213	2.128131	0.360515	-0.000021
1598	1.5890e+02	4.1061	-0.061305	0.000164	1.637024	0.277319	-0.000016
1599	1.5900e+02	4.0945	-0.078821	0.000176	1.759801	0.298118	-0.000018
1600	1.5910e+02	4.0842	-0.100003	0.000213	2.128131	0.360515	-0.000021
1601	1.5920e+02	4.0743	-0.121999	0.000221	2.209982	0.374381	-0.000022
1602	1.5930e+02	4.0654	-0.135849	0.000139	1.391470	0.235721	-0.000014
1603	1.5940e+02	4.0550	-0.152550	0.000168	1.677949	0.284252	-0.000017
1604	1.5950e+02	4.0430	-0.174139	0.000217	2.169056	0.367448	-0.000022
1605	1.5960e+02	4.0409	-0.193284	0.000192	1.923503	0.325850	-0.000019
1606	1.5970e+02	4.0241	-0.211207	0.000180	1.800726	0.305051	-0.000018
1607	1.5980e+02	4.0137	-0.232796	0.000217	2.169056	0.367448	-0.000022
1608	1.5990e+02	4.0043	-0.249905	0.000172	1.718875	0.291185	-0.000017
1609	1.6000e+02	3.9936	-0.268642	0.000188	1.882577	0.318917	-0.000019
1610	1.6010e+02	3.9845	-0.289417	0.000209	2.087205	0.353582	-0.000021
1611	1.6019e+02	3.9753	-0.309377	0.000201	2.005354	0.339716	-0.000020
1612	1.6029e+02	3.9672	-0.328522	0.000192	1.923503	0.325850	-0.000019
1613	1.6039e+02	3.9525	-0.346445	0.000180	1.800726	0.305051	-0.000018
1614	1.6049e+02	3.9449	-0.366812	0.000205	2.046280	0.346649	-0.000020
1615	1.6059e+02	3.9336	-0.386364	0.000196	1.964428	0.332783	-0.000020
1616	1.6069e+02	3.9247	-0.406732	0.000205	2.046280	0.346649	-0.000020
1617	1.6079e+02	3.9179	-0.423840	0.000172	1.718875	0.291185	-0.000017
1618	1.6089e+02	3.9085	-0.442170	0.000184	1.841652	0.311984	-0.000018
1619	1.6099e+02	3.8971	-0.467833	0.000258	2.578312	0.436778	-0.000026
1620	1.6109e+02	3.8870	-0.482905	0.000151	1.514247	0.256520	-0.000015
1621	1.6119e+02	3.8769	-0.502864	0.000201	2.005354	0.339716	-0.000020
1622	1.6129e+02	3.8678	-0.517529	0.000147	1.473321	0.249587	-0.000015
1623	1.6139e+02	3.8549	-0.540747	0.000233	2.332759	0.395180	-0.000023
1624	1.6149e+02	3.8468	-0.563558	0.000229	2.291833	0.388247	-0.000023
1625	1.6159e+02	3.8382	-0.583111	0.000196	1.964428	0.332783	-0.000020
1626	1.6169e+02	3.8261	-0.597775	0.000147	1.473321	0.249587	-0.000015
1627	1.6179e+02	3.8174	-0.618550	0.000209	2.087205	0.353582	-0.000021
1628	1.6189e+02	3.8086	-0.636880	0.000184	1.841652	0.311984	-0.000018
1629	1.6199e+02	3.7957	-0.654396	0.000176	1.759801	0.298118	-0.000018
1630	1.6209e+02	3.7856	-0.677614	0.000233	2.332759	0.395180	-0.000023
1631	1.6219e+02	3.7769	-0.691057	0.000135	1.350545	0.228788	-0.000014
1632	1.6228e+02	3.7663	-0.711424	0.000205	2.046280	0.346649	-0.000020
1633	1.6238e+02	3.7566	-0.725273	0.000139	1.391470	0.235721	-0.000014
1634	1.6248e+02	3.7467	-0.747270	0.000221	2.209982	0.374381	-0.000022
1635	1.6258e+02	3.7357	-0.761527	0.000143	1.432396	0.242654	-0.000014
1636	1.6268e+02	3.7270	-0.782301	0.000209	2.087205	0.353582	-0.000021
1637	1.6278e+02	3.7163	-0.803483	0.000213	2.128131	0.360515	-0.000021
1638	1.6288e+02	3.7074	-0.818962	0.000156	1.555173	0.263453	-0.000016
1639	1.6298e+02	3.6966	-0.840144	0.000213	2.128131	0.360515	-0.000021
1640	1.6308e+02	3.6855	-0.860918	0.000209	2.087205	0.353582	-0.000021
1641	1.6318e+02	3.6757	-0.875583	0.000147	1.473321	0.249587	-0.000015
1642	1.6328e+02	3.6681	-0.899209	0.000237	2.373684	0.402113	-0.000024
1643	1.6338e+02	3.6568	-0.914688	0.000156	1.555173	0.263453	-0.000016
1644	1.6348e+02	3.6460	-0.938314	0.000237	2.373684	0.402113	-0.000024
1645	1.6358e+02	3.6358	-0.957866	0.000196	1.964428	0.332783	-0.000020
1646	1.6368e+02	3.6264	-0.973345	0.000156	1.555173	0.263453	-0.000016
1647	1.6378e+02	3.6213	-0.997378	0.000241	2.414610	0.409046	-0.000024
1648	1.6388e+02	3.6058	-1.017338	0.000201	2.005354	0.339716	-0.000020
1649	1.6398e+02	3.5990	-1.035668	0.000184	1.841652	0.311984	-0.000018
1650	1.6408e+02	3.5885	-1.058480	0.000229	2.291833	0.388247	-0.000023
1651	1.6418e+02	3.5765	-1.080883	0.000225	2.250908	0.381314	-0.000023
1652	1.6427e+02	3.5689	-1.103695	0.000229	2.291833	0.388247	-0.000023
1653	1.6437e+02	3.5568	-1.121210	0.000176	1.759801	0.298118	-0.000018
1654	1.6447e+02	3.5480	-1.145651	0.000246	2.455536	0.415979	-0.000025
1655	1.6457e+02	3.5375	-1.167240	0.000217	2.169056	0.367448	-0.000022
1656	1.6467e+02	3.5261	-1.188829	0.000217	2.169056	0.367448	-0.000022
1657	1.6477e+02	3.5183	-1.209604	0.000209	2.087205	0.353582	-0.000021
1658	1.6487e+02	3.5069	-1.229156	0.000196	1.964428	0.332783	-0.000020
1659	1.6497e+02	3.4972	-1.248709	0.000196	1.964428	0.332783	-0.000020
1660	1.6507e+02	3.4868	-1.267039	0.000184	1.841652	0.311984	-0.000018
1661	1.6517e+02	3.4789	-1.292294	0.000254	2.537387	0.429845	-0.000025
1662	1.6527e+02	3.4664	-1.310625	0.000184	1.841652	0.311984	-0.000018
1663	1.6537e+02	3.4570	-1.329362	0.000188	1.882577	0.318917	-0.000019
1664	1.6547e+02	3.4493	-1.348508	0.000192	1.923503	0.325850	-0.000019
1665	1.6557e+02	3.4359	-1.369282	0.000209	2.087205	0.353582	-0.000021
1666	1.6567e+02	3.4280	-1.391686	0.000225	2.250908	0.381314	-0.000023
1667	1.6577e+02	3.4200	-1.404721	0.000131	1.309619	0.221855	-0.000013
1668	1.6587e+02	3.4092	-1.429976	0.000254	2.537387	0.429845	-0.000025
1669	1.6597e+02	3.3978	-1.450750	0.000209	2.087205	0.353582	-0.000021
1670	1.6607e+02	3.3891	-1.471118	0.000205	2.046280	0.346649	-0.000020
1671	1.6616e+02	3.3785	-1.491485	0.000205	2.046280	0.346649	-0.000020
1672	1.6626e+02	3.3689	-1.511037	0.000196	1.964428	0.332783	-0.000020
1673	1.6636e+02	3.3595	-1.533848	0.000229	2.291833	0.388247	-0.000023
1674	1.6646e+02	3.3486	-1.552993	0.000192	1.923503	0.325850	-0.000019
1675	1.6656e+02	3.3369	-1.573768	0.000209	2.087205	0.353582	-0.000021
1676	1.6666e+02	3.3286	-1.594950	0.000213	2.128131	0.360515	-0.000021
1677	1.6676e+02	3.3190	-1.615317	0.000205	2.046280	0.346649	-0.000020
1678	1.6686e+02	3.3083	-1.633240	0.000180	1.800726	0.305051	-0.000018
1679	1.6696e+02	3.2975	-1.653607	0.000205	2.046280	0.346649	-0.000020
1680	1.6706e+02	3.2902	-1.675196	0.000217	2.169056	0.367448	-0.000022
1681	1.6716e+02	3.2827	-1.693934	0.000188	1.882577	0.318917	-0.000019
1682	1.6726e+02	3.2696	-1.716338	0.000225	2.250908	0.381314	-0.000023
1683	1.6736e+02	3.2609	-1.735890	0.000196	1.964428	0.332783	-0.000020
1684	1.6746e+02	3.2497	-1.757887	0.000221	2.209982	0.374381	-0.000022
1685	1.6756e+02	3.2412	-1.776217	0.000184	1.841652	0.311984	-0.000018
1686	1.6766e+02	3.2287	-1.795362	0.000192	1.923503	0.325850	-0.000019
1687	1.6776e+02	3.2209	-1.818173	0.000229	2.291833	0.388247	-0.000023
1688	1.6786e+02	3.2082	-1.837319	0.000192	1.923503	0.325850	-0.000019
1689	1.6796e+02	3.1995	-1.857278	0.000201	2.005354	0.339716	-0.000020
1690	1.6806e+02	3.1876	-1.880904	0.000237	2.373684	0.402113	-0.000024
1691	1.6816e+02	3.1802	-1.898827	0.000180	1.800726	0.305051	-0.000018
1692	1.6825e+02	3.1682	-1.917158	0.000184	1.841652	0.311984	-0.000018
1693	1.6835e+02	3.1593	-1.939562	0.000225	2.250908	0.381314	-0.000023
1694	1.6845e+02	3.1515	-1.962373	0.000229	2.291833	0.388247	-0.000023
1695	1.6855e+02	3.1378	-1.978666	0.000164	1.637024	0.277319	-0.000016
1696	1.6865e+02	3.1248	-2.001885	0.000233	2.332759	0.395180	-0.000023
1697	1.6875e+02	3.1193	-2.019401	0.000176	1.759801	0.298118	-0.000018
1698	1.6885e+02	3.1126	-2.036916	0.000176	1.759801	0.298118	-0.000018
1699	1.6895e+02	3.1001	-2.057284	0.000205	2.046280	0.346649	-0.000020
1700	1.6905e+02	3.0923	-2.077651	0.000205	2.046280	0.346649	-0.000020
1701	1.6915e+02	3.0791	-2.101277	0.000237	2.373684	0.402113	-0.000024
1702	1.6925e+02	3.0715	-2.119200	0.000180	1.800726	0.305051	-0.000018
1703	1.6935e+02	3.0631	-2.139159	0.000201	2.005354	0.339716	-0.000020
1704	1.6945e+02	3.0516	-2.160341	0.000213	2.128131	0.360515	-0.000021
1705	1.6955e+02	3.0401	-2.183152	0.000229	2.291833	0.388247	-0.000023
1706	1.6965e+02	3.0309	-2.204334	0.000213	2.128131	0.360515	-0.000021
1707	1.6975e+02	3.0199	-2.220221	0.000160	1.596098	0.270386	-0.000016
1708	1.6985e+02	3.0125	-2.240588	0.000205	2.046280	0.346649	-0.000020
1709	1.6995e+02	2.9984	-2.258918	0.000184	1.841652	0.311984	-0.000018
1710	1.7005e+02	2.9897	-2.283766	0.000250	2.496461	0.422912	-0.000025
1711	1.7015e+02	2.9813	-2.301282	0.000176	1.759801	0.298118	-0.000018
1712	1.7024e+02	2.9696	-2.320834	0.000196	1.964428	0.332783	-0.000020
1713	1.7034e+02	2.9600	-2.341609	0.000209	2.087205	0.353582	-0.000021
1714	1.7044e+02	2.9533	-2.368901	0.000274	2.742015	0.464510	-0.000027
1715	1.7054e+02	2.9415	-2.388453	0.000196	1.964428	0.332783	-0.000020
1716	1.7064e+02	2.9333	-2.409635	0.000213	2.128131	0.360515	-0.000021
1717	1.7074e+02	2.9207	-2.432446	0.000229	2.291833	0.388247	-0.000023
1718	1.7084e+02	2.9117	-2.453221	0.000209	2.087205	0.353582	-0.000021
1719	1.7094e+02	2.9027	-2.477254	0.000241	2.414610	0.409046	-0.000024
1720	1.7104e+02	2.8886	-2.497214	0.000201	2.005354	0.339716	-0.000020
1721	1.7114e+02	2.8808	-2.521247	0.000241	2.414610	0.409046	-0.000024
1722	1.7124e+02	2.8715	-2.543651	0.000225	2.250908	0.381314	-0.000023
1723	1.7134e+02	2.8595	-2.563610	0.000201	2.005354	0.339716	-0.000020
1724	1.7144e+02	2.8511	-2.581941	0.000184	1.841652	0.311984	-0.000018
1725	1.7154e+02	2.8408	-2.603937	0.000221	2.209982	0.374381	-0.000022
1726	1.7164e+02	2.8268	-2.620231	0.000164	1.637024	0.277319	-0.000016
1727	1.7174e+02	2.8208	-2.642635	0.000225	2.250908	0.381314	-0.000023
1728	1.7184e+02	2.8124	-2.665853	0.000233	2.332759	0.395180	-0.000023
1729	1.7194e+02	2.8013	-2.686220	0.000205	2.046280	0.346649	-0.000020
1730	1.7204e+02	2.7886	-2.704958	0.000188	1.882577	0.318917	-0.000019
1731	1.7213e+02	2.7825	-2.724103	0.000192	1.923503	0.325850	-0.000019
1732	1.7223e+02	2.7708	-2.745692	0.000217	2.169056	0.367448	-0.000022
1733	1.7233e+02	2.7580	-2.761171	0.000156	1.555173	0.263453	-0.000016
1734	1.7243e+02	2.7538	-2.782761	0.000217	2.169056	0.367448	-0.000022
1735	1.7253e+02	2.7394	-2.802313	0.000196	1.964428	0.332783	-0.000020
1736	1.7263e+02	2.7325	-2.817792	0.000156	1.555173	0.263453	-0.000016
1737	1.7273e+02	2.7224	-2.836530	0.000188	1.882577	0.318917	-0.000019
1738	1.7283e+02	2.7158	-2.854860	0.000184	1.841652	0.311984	-0.000018
1739	1.7293e+02	2.7055	-2.873191	0.000184	1.841652	0.311984	-0.000018
1740	1.7303e+02	2.6905	-2.889892	0.000168	1.677949	0.284252	-0.000017
1741	1.7313e+02	2.6821	-2.913518	0.000237	2.373684	0.402113	-0.000024
1742	1.7323e+02	2.6742	-2.931441	0.000180	1.800726	0.305051	-0.000018
1743	1.7333e+02	2.6615	-2.948142	0.000168	1.677949	0.284252	-0.000017
1744	1.7343e+02	2.6507	-2.970953	0.000229	2.291833	0.388247	-0.000023
1745	1.7353e+02	2.6408	-2.993357	0.000225	2.250908	0.381314	-0.000023
1746	1.7363e+02	2.6292	-3.008428	0.000151	1.514247	0.256520	-0.000015
1747	1.7373e+02	2.6231	-3.031647	0.000233	2.332759	0.395180	-0.000023
1748	1.7383e+02	2.6133	-3.052829	0.000213	2.128131	0.360515	-0.000021
1749	1.7393e+02	2.6034	-3.074825	0.000221	2.209982	0.374381	-0.000022
1750	1.7403e+02	2.5924	-3.095600	0.000209	2.087205	0.353582	-0.000021
1751	1.7413e+02	2.5803	-3.114337	0.000188	1.882577	0.318917	-0.000019
1752	1.7422e+02	2.5723	-3.138778	0.000246	2.455536	0.415979	-0.000025
1753	1.7432e+02	2.5636	-3.155072	0.000164	1.637024	0.277319	-0.000016
1754	1.7442e+02	2.5514	-3.178290	0.000233	2.332759	0.395180	-0.000023
1755	1.7452e+02	2.5428	-3.197843	0.000196	1.964428	0.332783	-0.000020
1756	1.7462e+02	2.5340	-3.216580	0.000188	1.882577	0.318917	-0.000019
1757	1.7472e+02	2.5188	-3.239392	0.000229	2.291833	0.388247	-0.000023
1758	1.7482e+02	2.5123	-3.259759	0.000205	2.046280	0.346649	-0.000020
1759	1.7492e+02	2.5033	-3.276052	0.000164	1.637024	0.277319	-0.000016
1760	1.7502e+02	2.4940	-3.299271	0.000233	2.332759	0.395180	-0.000023
1761	1.7512e+02	2.4852	-3.320045	0.000209	2.087205	0.353582	-0.000021
1762	1.7522e+02	2.4732	-3.340820	0.000209	2.087205	0.353582	-0.000021
1763	1.7532e+02	2.4636	-3.360780	0.000201	2.005354	0.339716	-0.000020
1764	1.7542e+02	2.4527	-3.381962	0.000213	2.128131	0.360515	-0.000021
1765	1.7552e+02	2.4420	-3.404773	0.000229	2.291833	0.388247	-0.000023
1766	1.7562e+02	2.4332	-3.424325	0.000196	1.964428	0.332783	-0.000020
1767	1.7572e+02	2.4220	-3.443878	0.000196	1.964428	0.332783	-0.000020
1768	1.7582e+02	2.4120	-3.464245	0.000205	2.046280	0.346649	-0.000020
1769	1.7592e+02	2.4042	-3.486649	0.000225	2.250908	0.381314	-0.000023
1770	1.7602e+02	2.3940	-3.507423	0.000209	2.087205	0.353582	-0.000021
1771	1.7612e+02	2.3833	-3.524531	0.000172	1.718875	0.291185	-0.000017
1772	1.7621e+02	2.3738	-3.547750	0.000233	2.332759	0.395180	-0.000023
1773	1.7631e+02	2.3599	-3.569746	0.000221	2.209982	0.374381	-0.000022
1774	1.7641e+02	2.3529	-3.587262	0.000176	1.759801	0.298118	-0.000018
1775	1.7651e+02	2.3431	-3.609666	0.000225	2.250908	0.381314	-0.000023
1776	1.7661e+02	2.3326	-3.627996	0.000184	1.841652	0.311984	-0.000018
1777	1.7671e+02	2.3214	-3.649178	0.000213	2.128131	0.360515	-0.000021
1778	1.7681e+02	2.3138	-3.672397	0.000233	2.332759	0.395180	-0.000023
1779	1.7691e+02	2.3054	-3.692764	0.000205	2.046280	0.346649	-0.000020
1780	1.7701e+02	2.2936	-3.710280	0.000176	1.759801	0.298118	-0.000018
1781	1.7711e+02	2.2836	-3.735535	0.000254	2.537387	0.429845	-0.000025
1782	1.7721e+02	2.2739	-3.754273	0.000188	1.882577	0.318917	-0.000019
1783	1.7731e+02	2.2626	-3.777898	0.000237	2.373684	0.402113	-0.000024
1784	1.7741e+02	2.2541	-3.798266	0.000205	2.046280	0.346649	-0.000020
1785	1.7751e+02	2.2455	-3.815781	0.000176	1.759801	0.298118	-0.000018
1786	1.7761e+02	2.2329	-3.842666	0.000270	2.701089	0.457577	-0.000027
1787	1.7771e+02	2.2228	-3.859774	0.000172	1.718875	0.291185	-0.000017
1788	1.7781e+02	2.2147	-3.880141	0.000205	2.046280	0.346649	-0.000020
1789	1.7791e+02	2.2059	-3.900916	0.000209	2.087205	0.353582	-0.000021
1790	1.7801e+02	2.1940	-3.924949	0.000241	2.414610	0.409046	-0.000024
1791	1.7810e+02	2.1847	-3.945724	0.000209	2.087205	0.353582	-0.000021
1792	1.7820e+02	2.1722	-3.970164	0.000246	2.455536	0.415979	-0.000025
1793	1.7830e+02	2.1642	-3.988495	0.000184	1.841652	0.311984	-0.000018
1794	1.7840e+02	2.1567	-4.008454	0.000201	2.005354	0.339716	-0.000020
1795	1.7850e+02	2.1471	-4.031266	0.000229	2.291833	0.388247	-0.000023
1796	1.7860e+02	2.1355	-4.051225	0.000201	2.005354	0.339716	-0.000020
1797	1.7870e+02	2.1246	-4.070778	0.000196	1.964428	0.332783	-0.000020
1798	1.7880e+02	2.1144	-4.088701	0.000180	1.800726	0.305051	-0.000018
1799	1.7890e+02	2.1048	-4.107846	0.000192	1.923503	0.325850	-0.000019
1800	1.7900e+02	2.0994	-4.126176	0.000184	1.841652	0.311984	-0.000018
1801	1.7910e+02	2.0824	-4.148173	0.000221	2.209982	0.374381	-0.000022
1802	1.7920e+02	2.0727	-4.164467	0.000164	1.637024	0.277319	-0.000016
1803	1.7930e+02	2.0652	-4.186870	0.000225	2.250908	0.381314	-0.000023
1804	1.7940e+02	2.0574	-4.209682	0.000229	2.291833	0.388247	-0.000023
1805	1.7950e+02	2.0475	-4.230049	0.000205	2.046280	0.346649	-0.000020
1806	1.7960e+02	2.0371	-4.247564	0.000176	1.759801	0.298118	-0.000018
1807	1.7970e+02	2.0234	-4.269968	0.000225	2.250908	0.381314	-0.000023
1808	1.7980e+02	2.0133	-4.293187	0.000233	2.332759	0.395180	-0.000023
1809	1.7990e+02	2.0046	-4.316405	0.000233	2.332759	0.395180	-0.000023
1810	1.8000e+02	1.9929	-4.333921	0.000176	1.759801	0.298118	-0.000018
1811	1.8009e+02	1.9858	-4.356325	0.000225	2.250908	0.381314	-0.000023
1812	1.8019e+02	1.9767	-4.376692	0.000205	2.046280	0.346649	-0.000020
1813	1.8029e+02	1.9670	-4.396652	0.000201	2.005354	0.339716	-0.000020
1814	1.8039e+02	1.9543	-4.418648	0.000221	2.209982	0.374381	-0.000022
1815	1.8049e+02	1.9447	-4.441052	0.000225	2.250908	0.381314	-0.000023
1816	1.8059e+02	1.9380	-4.463049	0.000221	2.209982	0.374381	-0.000022
1817	1.8069e+02	1.9240	-4.484638	0.000217	2.169056	0.367448	-0.000022
1818	1.8079e+02	1.9141	-4.509893	0.000254	2.537387	0.429845	-0.000025
1819	1.8089e+02	1.9048	-4.530260	0.000205	2.046280	0.346649	-0.000020
1820	1.8099e+02	1.8949	-4.558367	0.000282	2.823866	0.478376	-0.000028
1821	1.8109e+02	1.8853	-4.576697	0.000184	1.841652	0.311984	-0.000018
1822	1.8119e+02	1.8735	-4.600323	0.000237	2.373684	0.402113	-0.000024
1823	1.8129e+02	1.8674	-4.626393	0.000262	2.619238	0.443711	-0.000026
1824	1.8139e+02	1.8575	-4.646353	0.000201	2.005354	0.339716	-0.000020
1825	1.8149e+02	1.8490	-4.669164	0.000229	2.291833	0.388247	-0.000023
1826	1.8159e+02	1.8384	-4.692790	0.000237	2.373684	0.402113	-0.000024
1827	1.8169e+02	1.8256	-4.715194	0.000225	2.250908	0.381314	-0.000023
1828	1.8179e+02	1.8169	-4.733117	0.000180	1.800726	0.305051	-0.000018
1829	1.8189e+02	1.8052	-4.757150	0.000241	2.414610	0.409046	-0.000024
1830	1.8199e+02	1.7970	-4.779554	0.000225	2.250908	0.381314	-0.000023
1831	1.8209e+02	1.7852	-4.800328	0.000209	2.087205	0.353582	-0.000021
1832	1.8218e+02	1.7783	-4.823954	0.000237	2.373684	0.402113	-0.000024
1833	1.8228e+02	1.7675	-4.845136	0.000213	2.128131	0.360515	-0.000021
1834	1.8238e+02	1.7560	-4.867540	0.000225	2.250908	0.381314	-0.000023
1835	1.8248e+02	1.7461	-4.889536	0.000221	2.209982	0.374381	-0.000022
1836	1.8258e+02	1.7336	-4.906237	0.000168	1.677949	0.284252	-0.000017
1837	1.8268e+02	1.7263	-4.929863	0.000237	2.373684	0.402113	-0.000024
1838	1.8278e+02	1.7164	-4.957970	0.000282	2.823866	0.478376	-0.000028
1839	1.8288e+02	1.7055	-4.977930	0.000201	2.005354	0.339716	-0.000020
1840	1.8298e+02	1.6968	-4.995038	0.000172	1.718875	0.291185	-0.000017
1841	1.8308e+02	1.6875	-5.019479	0.000246	2.455536	0.415979	-0.000025
1842	1.8318e+02	1.6785	-5.043919	0.000246	2.455536	0.415979	-0.000025
1843	1.8328e+02	1.6665	-5.063472	0.000196	1.964428	0.332783	-0.000020
1844	1.8338e+02	1.6585	-5.085061	0.000217	2.169056	0.367448	-0.000022
1845	1.8348e+02	1.6476	-5.107057	0.000221	2.209982	0.374381	-0.000022
1846	1.8358e+02	1.6373	-5.134349	0.000274	2.742015	0.464510	-0.000027
1847	1.8368e+02	1.6267	-5.150236	0.000160	1.596098	0.270386	-0.000016
1848	1.8378e+02	1.6171	-5.171825	0.000217	2.169056	0.367448	-0.000022
1849	1.8388e+02	1.6061	-5.196265	0.000246	2.455536	0.415979	-0.000025
1850	1.8398e+02	1.5956	-5.219076	0.000229	2.291833	0.388247	-0.000023
1851	1.8407e+02	1.5895	-5.241073	0.000221	2.209982	0.374381	-0.000022
1852	1.8417e+02	1.5778	-5.264291	0.000233	2.332759	0.395180	-0.000023
1853	1.8427e+02	1.5673	-5.289547	0.000254	2.537387	0.429845	-0.000025
1854	1.8437e+02	1.5571	-5.304211	0.000147	1.473321	0.249587	-0.000015
1855	1.8447e+02	1.5487	-5.329466	0.000254	2.537387	0.429845	-0.000025
1856	1.8457e+02	1.5387	-5.354314	0.000250	2.496461	0.422912	-0.000025
1857	1.8467e+02	1.5274	-5.375089	0.000209	2.087205	0.353582	-0.000021
1858	1.8477e+02	1.5189	-5.393419	0.000184	1.841652	0.311984	-0.000018
1859	1.8487e+02	1.5075	-5.419082	0.000258	2.578312	0.436778	-0.000026
1860	1.8497e+02	1.4965	-5.438634	0.000196	1.964428	0.332783	-0.000020
1861	1.8507e+02	1.4883	-5.461445	0.000229	2.291833	0.388247	-0.000023
1862	1.8517e+02	1.4792	-5.485071	0.000237	2.373684	0.402113	-0.000024
1863	1.8527e+02	1.4677	-5.503809	0.000188	1.882577	0.318917	-0.000019
1864	1.8537e+02	1.4574	-5.526213	0.000225	2.250908	0.381314	-0.000023
1865	1.8547e+02	1.4462	-5.551875	0.000258	2.578312	0.436778	-0.000026
1866	1.8557e+02	1.4397	-5.566540	0.000147	1.473321	0.249587	-0.000015
1867	1.8567e+02	1.4293	-5.591388	0.000250	2.496461	0.422912	-0.000025
1868	1.8577e+02	1.4202	-5.610533	0.000192	1.923503	0.325850	-0.000019
1869	1.8587e+02	1.4080	-5.637825	0.000274	2.742015	0.464510	-0.000027
1870	1.8597e+02	1.3995	-5.656970	0.000192	1.923503	0.325850	-0.000019
1871	1.8606e+02	1.3873	-5.677744	0.000209	2.087205	0.353582	-0.000021
1872	1.8616e+02	1.3769	-5.702592	0.000250	2.496461	0.422912	-0.000025
1873	1.8626e+02	1.3694	-5.726625	0.000241	2.414610	0.409046	-0.000024
1874	1.8636e+02	1.3595	-5.748622	0.000221	2.209982	0.374381	-0.000022
1875	1.8646e+02	1.3472	-5.766137	0.000176	1.759801	0.298118	-0.000018
1876	1.8656e+02	1.3394	-5.790171	0.000241	2.414610	0.409046	-0.000024
1877	1.8666e+02	1.3304	-5.809316	0.000192	1.923503	0.325850	-0.000019
1878	1.8676e+02	1.3196	-5.833756	0.000246	2.455536	0.415979	-0.000025
1879	1.8686e+02	1.3097	-5.851272	0.000176	1.759801	0.298118	-0.000018
1880	1.8696e+02	1.2992	-5.880193	0.000291	2.905717	0.492242	-0.000029
1881	1.8706e+02	1.2891	-5.898931	0.000188	1.882577	0.318917	-0.000019
1882	1.8716e+02	1.2792	-5.928260	0.000295	2.946643	0.499175	-0.000029
1883	1.8726e+02	1.2701	-5.951071	0.000229	2.291833	0.388247	-0.000023
1884	1.8736e+02	1.2599	-5.973882	0.000229	2.291833	0.388247	-0.000023
1885	1.8746e+02	1.2482	-5.993435	0.000196	1.964428	0.332783	-0.000020
1886	1.8756e+02	1.2421	-6.019912	0.000266	2.660164	0.450644	-0.000027
1887	1.8766e+02	1.2311	-6.042316	0.000225	2.250908	0.381314	-0.000023
1888	1.8776e+02	1.2199	-6.066756	0.000246	2.455536	0.415979	-0.000025
1889	1.8786e+02	1.2092	-6.089567	0.000229	2.291833	0.388247	-0.000023
1890	1.8796e+02	1.1987	-6.112379	0.000229	2.291833	0.388247	-0.000023
1891	1.8806e+02	1.1897	-6.133153	0.000209	2.087205	0.353582	-0.000021
1892	1.8815e+02	1.1790	-6.157186	0.000241	2.414610	0.409046	-0.000024
1893	1.8825e+02	1.1676	-6.178775	0.000217	2.169056	0.367448	-0.000022
1894	1.8835e+02	1.1598	-6.199957	0.000213	2.128131	0.360515	-0.000021
1895	1.8845e+02	1.1502	-6.224805	0.000250	2.496461	0.422912	-0.000025
1896	1.8855e+02	1.1401	-6.245172	0.000205	2.046280	0.346649	-0.000020
1897	1.8865e+02	1.1297	-6.264317	0.000192	1.923503	0.325850	-0.000019
1898	1.8875e+02	1.1199	-6.289980	0.000258	2.578312	0.436778	-0.000026
1899	1.8885e+02	1.1103	-6.309125	0.000192	1.923503	0.325850	-0.000019
1900	1.8895e+02	1.0978	-6.335602	0.000266	2.660164	0.450644	-0.000027
1901	1.8905e+02	1.0889	-6.350674	0.000151	1.514247	0.256520	-0.000015
1902	1.8915e+02	1.0793	-6.374300	0.000237	2.373684	0.402113	-0.000024
1903	1.8925e+02	1.0704	-6.393852	0.000196	1.964428	0.332783	-0.000020
1904	1.8935e+02	1.0628	-6.412997	0.000192	1.923503	0.325850	-0.000019
1905	1.8945e+02	1.0521	-6.434994	0.000221	2.209982	0.374381	-0.000022
1906	1.8955e+02	1.0398	-6.452102	0.000172	1.718875	0.291185	-0.000017
1907	1.8965e+02	1.0294	-6.472877	0.000209	2.087205	0.353582	-0.000021
1908	1.8975e+02	1.0213	-6.494059	0.000213	2.128131	0.360515	-0.000021
1909	1.8985e+02	1.0110	-6.512796	0.000188	1.882577	0.318917	-0.000019
1910	1.8995e+02	1.0014	-6.537237	0.000246	2.455536	0.415979	-0.000025
1911	1.9004e+02	0.9926	-6.557197	0.000201	2.005354	0.339716	-0.000020
1912	1.9014e+02	0.9797	-6.583267	0.000262	2.619238	0.443711	-0.000026
1913	1.9024e+02	0.9700	-6.604856	0.000217	2.169056	0.367448	-0.000022
1914	1.9034e+02	0.9618	-6.624816	0.000201	2.005354	0.339716	-0.000020
1915	1.9044e+02	0.9495	-6.648034	0.000233	2.332759	0.395180	-0.000023
1916	1.9054e+02	0.9412	-6.667587	0.000196	1.964428	0.332783	-0.000020
1917	1.9064e+02	0.9295	-6.690398	0.000229	2.291833	0.388247	-0.000023
1918	1.9074e+02	0.9213	-6.711987	0.000217	2.169056	0.367448	-0.000022
1919	1.9084e+02	0.9121	-6.736835	0.000250	2.496461	0.422912	-0.000025
1920	1.9094e+02	0.9017	-6.760868	0.000241	2.414610	0.409046	-0.000024
1921	1.9104e+02	0.8914	-6.777976	0.000172	1.718875	0.291185	-0.000017
1922	1.9114e+02	0.8829	-6.803639	0.000258	2.578312	0.436778	-0.000026
1923	1.9124e+02	0.8693	-6.827672	0.000241	2.414610	0.409046	-0.000024
1924	1.9134e+02	0.8621	-6.847632	0.000201	2.005354	0.339716	-0.000020
1925	1.9144e+02	0.8524	-6.867592	0.000201	2.005354	0.339716	-0.000020
1926	1.9154e+02	0.8418	-6.896106	0.000286	2.864792	0.485309	-0.000029
1927	1.9164e+02	0.8334	-6.911992	0.000160	1.596098	0.270386	-0.000016
1928	1.9174e+02	0.8212	-6.934803	0.000229	2.291833	0.388247	-0.000023
1929	1.9184e+02	0.8150	-6.957207	0.000225	2.250908	0.381314	-0.000023
1930	1.9194e+02	0.8021	-6.983684	0.000266	2.660164	0.450644	-0.000027
1931	1.9203e+02	0.7923	-7.002422	0.000188	1.882577	0.318917	-0.000019
1932	1.9213e+02	0.7790	-7.028085	0.000258	2.578312	0.436778	-0.000026
1933	1.9223e+02	0.7719	-7.045600	0.000176	1.759801	0.298118	-0.000018
1934	1.9233e+02	0.7603	-7.071670	0.000262	2.619238	0.443711	-0.000026
1935	1.9243e+02	0.7517	-7.096518	0.000250	2.496461	0.422912	-0.000025
1936	1.9253e+02	0.7401	-7.113627	0.000172	1.718875	0.291185	-0.000017
1937	1.9263e+02	0.7328	-7.140104	0.000266	2.660164	0.450644	-0.000027
1938	1.9273e+02	0.7237	-7.159656	0.000196	1.964428	0.332783	-0.000020
1939	1.9283e+02	0.7126	-7.183690	0.000241	2.414610	0.409046	-0.000024
1940	1.9293e+02	0.7014	-7.205279	0.000217	2.169056	0.367448	-0.000022
1941	1.9303e+02	0.6911	-7.225239	0.000201	2.005354	0.339716	-0.000020
1942	1.9313e+02	0.6814	-7.250901	0.000258	2.578312	0.436778	-0.000026
1943	1.9323e+02	0.6721	-7.270454	0.000196	1.964428	0.332783	-0.000020
1944	1.9333e+02	0.6631	-7.291228	0.000209	2.087205	0.353582	-0.000021
1945	1.9343e+02	0.6510	-7.318113	0.000270	2.701089	0.457577	-0.000027
1946	1.9353e+02	0.6402	-7.340516	0.000225	2.250908	0.381314	-0.000023
1947	1.9363e+02	0.6342	-7.364957	0.000246	2.455536	0.415979	-0.000025
1948	1.9373e+02	0.6226	-7.384102	0.000192	1.923503	0.325850	-0.000019
1949	1.9383e+02	0.6139	-7.405691	0.000217	2.169056	0.367448	-0.000022
1950	1.9393e+02	0.5996	-7.431761	0.000262	2.619238	0.443711	-0.000026
1951	1.9403e+02	0.5919	-7.452943	0.000213	2.128131	0.360515	-0.000021
1952	1.9412e+02	0.5841	-7.476569	0.000237	2.373684	0.402113	-0.000024
1953	1.9422e+02	0.5748	-7.499787	0.000233	2.332759	0.395180	-0.000023
1954	1.9432e+02	0.5631	-7.519747	0.000201	2.005354	0.339716	-0.000020
1955	1.9442e+02	0.5542	-7.543373	0.000237	2.373684	0.402113	-0.000024
1956	1.9452e+02	0.5401	-7.564962	0.000217	2.169056	0.367448	-0.000022
1957	1.9462e+02	0.5318	-7.590217	0.000254	2.537387	0.429845	-0.000025
1958	1.9472e+02	0.5225	-7.610992	0.000209	2.087205	0.353582	-0.000021
1959	1.9482e+02	0.5119	-7.633803	0.000229	2.291833	0.388247	-0.000023
1960	1.9492e+02	0.5029	-7.656614	0.000229	2.291833	0.388247	-0.000023
1961	1.9502e+02	0.4920	-7.685536	0.000291	2.905717	0.492242	-0.000029
1962	1.9512e+02	0.4845	-7.704681	0.000192	1.923503	0.325850	-0.000019
1963	1.9522e+02	0.4716	-7.729529	0.000250	2.496461	0.422912	-0.000025
1964	1.9532e+02	0.4618	-7.750710	0.000213	2.128131	0.360515	-0.000021
1965	1.9542e+02	0.4535	-7.771078	0.000205	2.046280	0.346649	-0.000020
1966	1.9552e+02	0.4442	-7.795111	0.000241	2.414610	0.409046	-0.000024
1967	1.9562e+02	0.4330	-7.814663	0.000196	1.964428	0.332783	-0.000020
1968	1.9572e+02	0.4218	-7.836252	0.000217	2.169056	0.367448	-0.000022
1969	1.9582e+02	0.4140	-7.856212	0.000201	2.005354	0.339716	-0.000020
1970	1.9592e+02	0.4034	-7.878616	0.000225	2.250908	0.381314	-0.000023
1971	1.9601e+02	0.3929	-7.898983	0.000205	2.046280	0.346649	-0.000020
1972	1.9611e+02	0.3854	-7.918943	0.000201	2.005354	0.339716	-0.000020
1973	1.9621e+02	0.3706	-7.946642	0.000278	2.782940	0.471443	-0.000028
1974	1.9631e+02	0.3640	-7.964973	0.000184	1.841652	0.311984	-0.000018
1975	1.9641e+02	0.3527	-7.989006	0.000241	2.414610	0.409046	-0.000024
1976	1.9651e+02	0.3460	-8.012224	0.000233	2.332759	0.395180	-0.000023
1977	1.9661e+02	0.3331	-8.041146	0.000291	2.905717	0.492242	-0.000029
1978	1.9671e+02	0.3238	-8.059883	0.000188	1.882577	0.318917	-0.000019
1979	1.9681e+02	0.3132	-8.084731	0.000250	2.496461	0.422912	-0.000025
1980	1.9691e+02	0.3034	-8.107542	0.000229	2.291833	0.388247	-0.000023
1981	1.9701e+02	0.2955	-8.127502	0.000201	2.005354	0.339716	-0.000020
1982	1.9711e+02	0.2850	-8.151128	0.000237	2.373684	0.402113	-0.000024
1983	1.9721e+02	0.2747	-8.178013	0.000270	2.701089	0.457577	-0.000027
1984	1.9731e+02	0.2640	-8.199195	0.000213	2.128131	0.360515	-0.000021
1985	1.9741e+02	0.2560	-8.225264	0.000262	2.619238	0.443711	-0.000026
1986	1.9751e+02	0.2446	-8.248483	0.000233	2.332759	0.395180	-0.000023
1987	1.9761e+02	0.2356	-8.275775	0.000274	2.742015	0.464510	-0.000027
1988	1.9771e+02	0.2219	-8.298179	0.000225	2.250908	0.381314	-0.000023
1989	1.9781e+02	0.2138	-8.324249	0.000262	2.619238	0.443711	-0.000026
1990	1.9791e+02	0.2055	-8.351541	0.000274	2.742015	0.464510	-0.000027
1991	1.9800e+02	0.1949	-8.371500	0.000201	2.005354	0.339716	-0.000020
1992	1.9810e+02	0.1836	-8.400829	0.000295	2.946643	0.499175	-0.000029
1993	1.9820e+02	0.1725	-8.423640	0.000229	2.291833	0.388247	-0.000023
1994	1.9830e+02	0.1647	-8.446859	0.000233	2.332759	0.395180	-0.000023
1995	1.9840e+02	0.1571	-8.475780	0.000291	2.905717	0.492242	-0.000029
1996	1.9850e+02	0.1453	-8.496555	0.000209	2.087205	0.353582	-0.000021
1997	1.9860e+02	0.1347	-8.517329	0.000209	2.087205	0.353582	-0.000021
1998	1.9870e+02	0.1246	-8.540548	0.000233	2.332759	0.395180	-0.000023
1999	1.9880e+02	0.1168	-8.563359	0.000229	2.291833	0.388247	-0.000023
2000	1.9890e+02	0.1078	-8.586577	0.000233	2.332759	0.395180	-0.000023
2001	1.9900e+02	0.0948	-8.611425	0.000250	2.496461	0.422912	-0.000025
2002	1.9910e+02	0.0858	-8.634644	0.000233	2.332759	0.395180	-0.000023
2003	1.9920e+02	0.0738	-8.657048	0.000225	2.250908	0.381314	-0.000023
2004	1.9930e+02	0.0620	-8.685562	0.000286	2.864792	0.485309	-0.000029
2005	1.9940e+02	0.0545	-8.706743	0.000213	2.128131	0.360515	-0.000021
2006	1.9950e+02	0.0466	-8.734850	0.000282	2.823866	0.478376	-0.000028
2007	1.9960e+02	0.0363	-8.756439	0.000217	2.169056	0.367448	-0.000022
2008	1.9970e+02	0.0246	-8.775584	0.000192	1.923503	0.325850	-0.000019
2009	1.9980e+02	0.0150	-8.801247	0.000258	2.578312	0.436778	-0.000026
2010	1.9990e+02	0.0044	-8.824465	0.000233	2.332759	0.395180	-0.000023
2011	2.0000e+02	-0.0060	-8.848091	0.000233	2.332759	0.395180	-0.000024

PMax (uC/cm2):	1.94e+01
Pr (uC/cm2):	8.26e-01
-Pr (uC/cm2):	0.00e+00
PLoss (uC/cm2):	0.00e+00
C (Max-Eff) (nF):	1.94e-01
K (Eff):	3.28e+02
Vert. (+/-Pr) Shift (uC/cm2):	4.13e-01
Offset (uC/cm2):	9.67e+00

A (Loop Area - uC/cm2·Volts):	-8.19e-03



Hysteresis Version: 5.48.1 - Radiant Technologies, Inc., 1999 - 9/12/24

