»»»»»»»»»»»»»»»»»»»»»»»»»»»»»»»»»»»» Hysteresis ««««««««««««««««««««««««««««««««««««
»»»  Executed Version:	5.48.1
»»»  Vision Version:	5.48.4 (R)
»»»  Vision Compiled:	9/18/24
»»»  Driver Version:	5.47.0
»»»  Windows Version:	Windows 8 or 8.1
»»»  Processor Information:	x86 (AMD or Intel) - 32 Processors
»»»  Tester Name:	PMF21124-494 (100V)
»»»  Tester S/N:	PMF21124-494
»»»  Internal Amp Type:	100V RevK 270k
»»»  Internal Amp S/N:	iAB2-596/K     
»»»  Execution Count:	1
»»»»»»»»»»»»»»»»»»»»»»»»»»»»»»»»»»»»»»»»»»««««««««««««««««««««««««««««««««««««««««««

Stored:	6/26/2025 - 17:25:29
Configured:	06/26/25 10:24:47 AM
Executed:	06/26/25 05:24:52 PM

»»»»»»»»»»»»»»»»»»»»»»»»»»»»»»»»»»» Sample Info ««««««««««««««««««««««««««««««««««««
Sample Name:	
Lot Name:	
Wafer Name:	
Die Row/Column:	0/0
Capacitor Number:	0
Sample Area (cm2):	1.00e-04
Sample Thickness (microns):	1.50e-01

Amplifier:	Internal

»»»»»»»»»»»»»»»»»»»»»»»»»»»»»»»»»»» Tester Info «««««««««««««««««««««««««««««««««««
Tester Name:	PMF21124-494 (100V)
Tester Serial Number:	PMF21124-494
Return Signal Amp. Level:	1.9 [Index: 2]

»»»»»»»»»»»»»»»»»»»»»»»»»»»»»»»» Hysteresis Info ««««««««««««««««««««««««««««««««««
Task Name:	Hyst-562
Volts:	10.00
Field:	666.67 (kV/cm)
DCBias:	0.00
DCField:	0.00 (kV/cm)
Hysteresis Period (ms):	2.00e+02
Preset:	Enabled
Preset Delay (ms):	1.00e+03
Profile:	Standard Monopolar

»»»»»»»»»»»»»»»»»»»»»»»»»»»»»»»»»»»»»» Data «««««««««««««««««««««««««««««««««««««««
Points:	2011

Valid Data

Point	Time (ms)	Drive Voltage	Measured Polarization (uC/cm2)	Capacitance (uF)	Normalized Capacitance (uF/cm2)	Dielectric Constant	Instantaneous Current (mA)
   1	0.0000e+00	-0.0027	-12.028011	0.000237	2.374617	0.402271	0.000024
   2	9.9500e-02	0.0052	-12.004385	0.000237	2.374617	0.402271	0.000024
   3	1.9900e-01	0.0156	-11.981981	0.000225	2.251792	0.381464	0.000023
   4	2.9850e-01	0.0246	-11.956726	0.000254	2.538384	0.430014	0.000025
   5	3.9800e-01	0.0353	-11.932693	0.000242	2.415559	0.409207	0.000024
   6	4.9750e-01	0.0444	-11.909067	0.000237	2.374617	0.402271	0.000024
   7	5.9700e-01	0.0549	-11.883812	0.000254	2.538384	0.430014	0.000025
   8	6.9650e-01	0.0636	-11.861408	0.000225	2.251792	0.381464	0.000023
   9	7.9600e-01	0.0743	-11.834116	0.000274	2.743092	0.464692	0.000027
  10	8.9550e-01	0.0851	-11.809675	0.000246	2.456500	0.416142	0.000025
  11	9.9500e-01	0.0944	-11.786049	0.000237	2.374617	0.402271	0.000024
  12	1.0945e+00	0.1077	-11.762016	0.000242	2.415559	0.409207	0.000024
  13	1.1940e+00	0.1166	-11.734317	0.000278	2.784034	0.471628	0.000028
  14	1.2935e+00	0.1266	-11.711098	0.000233	2.333675	0.395335	0.000023
  15	1.3930e+00	0.1326	-11.691139	0.000201	2.006142	0.339850	0.000020
  16	1.4925e+00	0.1435	-11.660588	0.000307	3.070626	0.520178	0.000031
  17	1.5920e+00	0.1544	-11.642665	0.000180	1.801434	0.305171	0.000018
  18	1.6915e+00	0.1652	-11.613743	0.000291	2.906859	0.492435	0.000029
  19	1.7910e+00	0.1733	-11.589710	0.000242	2.415559	0.409207	0.000024
  20	1.8905e+00	0.1846	-11.568528	0.000213	2.128967	0.360657	0.000021
  21	1.9900e+00	0.1971	-11.545717	0.000229	2.292734	0.388400	0.000023
  22	2.0895e+00	0.2036	-11.521684	0.000242	2.415559	0.409207	0.000024
  23	2.1890e+00	0.2150	-11.500502	0.000213	2.128967	0.360657	0.000021
  24	2.2885e+00	0.2246	-11.478098	0.000225	2.251792	0.381464	0.000023
  25	2.3880e+00	0.2365	-11.453658	0.000246	2.456500	0.416142	0.000025
  26	2.4875e+00	0.2443	-11.435735	0.000180	1.801434	0.305171	0.000018
  27	2.5870e+00	0.2559	-11.412516	0.000233	2.333675	0.395335	0.000023
  28	2.6865e+00	0.2646	-11.384002	0.000287	2.865917	0.485500	0.000029
  29	2.7860e+00	0.2744	-11.365265	0.000188	1.883317	0.319043	0.000019
  30	2.8855e+00	0.2856	-11.341231	0.000242	2.415559	0.409207	0.000024
  31	2.9850e+00	0.2912	-11.314347	0.000270	2.702151	0.457757	0.000027
  32	3.0845e+00	0.3049	-11.290721	0.000237	2.374617	0.402271	0.000024
  33	3.1840e+00	0.3139	-11.273612	0.000172	1.719550	0.291300	0.000017
  34	3.2835e+00	0.3234	-11.250394	0.000233	2.333675	0.395335	0.000023
  35	3.3830e+00	0.3366	-11.224324	0.000262	2.620267	0.443885	0.000026
  36	3.4825e+00	0.3419	-11.205586	0.000188	1.883317	0.319043	0.000019
  37	3.5820e+00	0.3543	-11.181553	0.000242	2.415559	0.409207	0.000024
  38	3.6815e+00	0.3642	-11.159149	0.000225	2.251792	0.381464	0.000023
  39	3.7810e+00	0.3732	-11.138375	0.000209	2.088025	0.353721	0.000021
  40	3.8805e+00	0.3832	-11.113119	0.000254	2.538384	0.430014	0.000025
  41	3.9800e+00	0.3964	-11.087457	0.000258	2.579326	0.436950	0.000026
  42	4.0795e+00	0.4038	-11.063424	0.000242	2.415559	0.409207	0.000024
  43	4.1790e+00	0.4160	-11.039390	0.000242	2.415559	0.409207	0.000024
  44	4.2785e+00	0.4238	-11.012913	0.000266	2.661209	0.450821	0.000027
  45	4.3780e+00	0.4349	-10.988065	0.000250	2.497442	0.423078	0.000025
  46	4.4775e+00	0.4471	-10.965254	0.000229	2.292734	0.388400	0.000023
  47	4.5770e+00	0.4541	-10.938370	0.000270	2.702151	0.457757	0.000027
  48	4.6765e+00	0.4602	-10.917188	0.000213	2.128967	0.360657	0.000021
  49	4.7760e+00	0.4729	-10.891932	0.000254	2.538384	0.430014	0.000025
  50	4.8755e+00	0.4828	-10.867492	0.000246	2.456500	0.416142	0.000025
  51	4.9750e+00	0.4928	-10.845088	0.000225	2.251792	0.381464	0.000023
  52	5.0745e+00	0.5016	-10.823906	0.000213	2.128967	0.360657	0.000021
  53	5.1740e+00	0.5123	-10.800280	0.000237	2.374617	0.402271	0.000024
  54	5.2735e+00	0.5229	-10.774210	0.000262	2.620267	0.443885	0.000026
  55	5.3730e+00	0.5309	-10.754251	0.000201	2.006142	0.339850	0.000020
  56	5.4725e+00	0.5433	-10.728181	0.000262	2.620267	0.443885	0.000026
  57	5.5720e+00	0.5531	-10.709036	0.000192	1.924259	0.325978	0.000019
  58	5.6715e+00	0.5624	-10.680929	0.000282	2.824976	0.478564	0.000028
  59	5.7710e+00	0.5742	-10.658525	0.000225	2.251792	0.381464	0.000023
  60	5.8705e+00	0.5828	-10.635714	0.000229	2.292734	0.388400	0.000023
  61	5.9700e+00	0.5943	-10.613718	0.000221	2.210850	0.374528	0.000022
  62	6.0695e+00	0.6030	-10.588870	0.000250	2.497442	0.423078	0.000025
  63	6.1690e+00	0.6126	-10.567280	0.000217	2.169909	0.367592	0.000022
  64	6.2685e+00	0.6203	-10.540803	0.000266	2.661209	0.450821	0.000027
  65	6.3680e+00	0.6346	-10.520436	0.000205	2.047084	0.346785	0.000020
  66	6.4675e+00	0.6427	-10.495588	0.000250	2.497442	0.423078	0.000025
  67	6.5670e+00	0.6527	-10.469518	0.000262	2.620267	0.443885	0.000026
  68	6.6665e+00	0.6615	-10.446707	0.000229	2.292734	0.388400	0.000023
  69	6.7660e+00	0.6722	-10.423081	0.000237	2.374617	0.402271	0.000024
  70	6.8655e+00	0.6814	-10.396197	0.000270	2.702151	0.457757	0.000027
  71	6.9650e+00	0.6917	-10.372571	0.000237	2.374617	0.402271	0.000024
  72	7.0645e+00	0.7008	-10.350574	0.000221	2.210850	0.374528	0.000022
  73	7.1640e+00	0.7117	-10.321653	0.000291	2.906859	0.492435	0.000029
  74	7.2635e+00	0.7187	-10.297212	0.000246	2.456500	0.416142	0.000025
  75	7.3630e+00	0.7321	-10.271142	0.000262	2.620267	0.443885	0.000026
  76	7.4625e+00	0.7421	-10.243036	0.000282	2.824976	0.478564	0.000028
  77	7.5620e+00	0.7500	-10.216966	0.000262	2.620267	0.443885	0.000026
  78	7.6615e+00	0.7614	-10.190081	0.000270	2.702151	0.457757	0.000027
  79	7.7610e+00	0.7711	-10.164011	0.000262	2.620267	0.443885	0.000026
  80	7.8605e+00	0.7821	-10.141200	0.000229	2.292734	0.388400	0.000023
  81	7.9600e+00	0.7922	-10.113501	0.000278	2.784034	0.471628	0.000028
  82	8.0595e+00	0.8015	-10.085394	0.000282	2.824976	0.478564	0.000028
  83	8.1590e+00	0.8101	-10.062176	0.000233	2.333675	0.395335	0.000023
  84	8.2585e+00	0.8216	-10.038142	0.000242	2.415559	0.409207	0.000024
  85	8.3580e+00	0.8321	-10.008406	0.000299	2.988742	0.506307	0.000030
  86	8.4575e+00	0.8408	-9.986817	0.000217	2.169909	0.367592	0.000022
  87	8.5570e+00	0.8529	-9.961562	0.000254	2.538384	0.430014	0.000025
  88	8.6565e+00	0.8608	-9.935085	0.000266	2.661209	0.450821	0.000027
  89	8.7560e+00	0.8718	-9.903719	0.000315	3.152509	0.534049	0.000032
  90	8.8555e+00	0.8802	-9.880908	0.000229	2.292734	0.388400	0.000023
  91	8.9550e+00	0.8902	-9.854431	0.000266	2.661209	0.450821	0.000027
  92	9.0545e+00	0.9017	-9.830805	0.000237	2.374617	0.402271	0.000024
  93	9.1540e+00	0.9105	-9.801069	0.000299	2.988742	0.506307	0.000030
  94	9.2535e+00	0.9230	-9.772555	0.000287	2.865917	0.485500	0.000029
  95	9.3530e+00	0.9313	-9.750966	0.000217	2.169909	0.367592	0.000022
  96	9.4525e+00	0.9424	-9.722045	0.000291	2.906859	0.492435	0.000029
  97	9.5520e+00	0.9501	-9.698011	0.000242	2.415559	0.409207	0.000024
  98	9.6515e+00	0.9602	-9.670720	0.000274	2.743092	0.464692	0.000027
  99	9.7510e+00	0.9705	-9.644242	0.000266	2.661209	0.450821	0.000027
 100	9.8505e+00	0.9814	-9.618987	0.000254	2.538384	0.430014	0.000025
 101	9.9500e+00	0.9923	-9.594954	0.000242	2.415559	0.409207	0.000024
 102	1.0050e+01	0.9979	-9.568477	0.000266	2.661209	0.450821	0.000027
 103	1.0149e+01	1.0096	-9.537111	0.000315	3.152509	0.534049	0.000032
 104	1.0248e+01	1.0202	-9.512671	0.000246	2.456500	0.416142	0.000025
 105	1.0348e+01	1.0311	-9.487823	0.000250	2.497442	0.423078	0.000025
 106	1.0447e+01	1.0397	-9.457272	0.000307	3.070626	0.520178	0.000031
 107	1.0547e+01	1.0488	-9.426721	0.000307	3.070626	0.520178	0.000031
 108	1.0646e+01	1.0626	-9.402688	0.000242	2.415559	0.409207	0.000024
 109	1.0746e+01	1.0711	-9.371323	0.000315	3.152509	0.534049	0.000032
 110	1.0845e+01	1.0840	-9.341994	0.000295	2.947801	0.499371	0.000029
 111	1.0945e+01	1.0909	-9.314295	0.000278	2.784034	0.471628	0.000028
 112	1.1044e+01	1.1002	-9.286188	0.000282	2.824976	0.478564	0.000028
 113	1.1144e+01	1.1134	-9.258489	0.000278	2.784034	0.471628	0.000028
 114	1.1243e+01	1.1198	-9.235678	0.000229	2.292734	0.388400	0.000023
 115	1.1343e+01	1.1286	-9.205127	0.000307	3.070626	0.520178	0.000031
 116	1.1443e+01	1.1418	-9.178242	0.000270	2.702151	0.457757	0.000027
 117	1.1542e+01	1.1498	-9.147284	0.000311	3.111567	0.527114	0.000031
 118	1.1642e+01	1.1614	-9.119992	0.000274	2.743092	0.464692	0.000027
 119	1.1741e+01	1.1691	-9.090256	0.000299	2.988742	0.506307	0.000030
 120	1.1841e+01	1.1783	-9.062557	0.000278	2.784034	0.471628	0.000028
 121	1.1940e+01	1.1897	-9.037709	0.000250	2.497442	0.423078	0.000025
 122	1.2040e+01	1.2007	-9.007973	0.000299	2.988742	0.506307	0.000030
 123	1.2139e+01	1.2107	-8.984755	0.000233	2.333675	0.395335	0.000023
 124	1.2239e+01	1.2200	-8.953389	0.000315	3.152509	0.534049	0.000032
 125	1.2338e+01	1.2281	-8.929356	0.000242	2.415559	0.409207	0.000024
 126	1.2438e+01	1.2408	-8.905730	0.000237	2.374617	0.402271	0.000024
 127	1.2537e+01	1.2477	-8.879660	0.000262	2.620267	0.443885	0.000026
 128	1.2636e+01	1.2574	-8.855627	0.000242	2.415559	0.409207	0.000024
 129	1.2736e+01	1.2682	-8.830372	0.000254	2.538384	0.430014	0.000025
 130	1.2835e+01	1.2782	-8.800228	0.000303	3.029684	0.513242	0.000030
 131	1.2935e+01	1.2897	-8.776603	0.000237	2.374617	0.402271	0.000024
 132	1.3034e+01	1.2991	-8.747681	0.000291	2.906859	0.492435	0.000029
 133	1.3134e+01	1.3081	-8.722833	0.000250	2.497442	0.423078	0.000025
 134	1.3233e+01	1.3201	-8.699615	0.000233	2.333675	0.395335	0.000023
 135	1.3333e+01	1.3290	-8.670694	0.000291	2.906859	0.492435	0.000029
 136	1.3432e+01	1.3389	-8.637291	0.000336	3.357217	0.568728	0.000034
 137	1.3532e+01	1.3484	-8.612851	0.000246	2.456500	0.416142	0.000025
 138	1.3632e+01	1.3593	-8.587188	0.000258	2.579326	0.436950	0.000026
 139	1.3731e+01	1.3683	-8.559082	0.000282	2.824976	0.478564	0.000028
 140	1.3831e+01	1.3762	-8.535048	0.000242	2.415559	0.409207	0.000024
 141	1.3930e+01	1.3907	-8.508571	0.000266	2.661209	0.450821	0.000027
 142	1.4030e+01	1.3984	-8.477613	0.000311	3.111567	0.527114	0.000031
 143	1.4129e+01	1.4097	-8.452358	0.000254	2.538384	0.430014	0.000025
 144	1.4229e+01	1.4181	-8.427510	0.000250	2.497442	0.423078	0.000025
 145	1.4328e+01	1.4277	-8.401440	0.000262	2.620267	0.443885	0.000026
 146	1.4428e+01	1.4378	-8.372926	0.000287	2.865917	0.485500	0.000029
 147	1.4527e+01	1.4474	-8.349300	0.000237	2.374617	0.402271	0.000024
 148	1.4627e+01	1.4568	-8.319157	0.000303	3.029684	0.513242	0.000030
 149	1.4726e+01	1.4650	-8.289421	0.000299	2.988742	0.506307	0.000030
 150	1.4825e+01	1.4775	-8.263758	0.000258	2.579326	0.436950	0.000026
 151	1.4925e+01	1.4871	-8.236466	0.000274	2.743092	0.464692	0.000027
 152	1.5024e+01	1.5020	-8.209989	0.000266	2.661209	0.450821	0.000027
 153	1.5124e+01	1.5073	-8.190437	0.000197	1.965200	0.332914	0.000020
 154	1.5223e+01	1.5170	-8.161923	0.000287	2.865917	0.485500	0.000029
 155	1.5323e+01	1.5283	-8.137482	0.000246	2.456500	0.416142	0.000025
 156	1.5422e+01	1.5366	-8.109376	0.000282	2.824976	0.478564	0.000028
 157	1.5522e+01	1.5454	-8.084120	0.000254	2.538384	0.430014	0.000025
 158	1.5621e+01	1.5573	-8.059272	0.000250	2.497442	0.423078	0.000025
 159	1.5721e+01	1.5669	-8.037683	0.000217	2.169909	0.367592	0.000022
 160	1.5820e+01	1.5765	-8.014057	0.000237	2.374617	0.402271	0.000024
 161	1.5920e+01	1.5865	-7.985951	0.000282	2.824976	0.478564	0.000028
 162	1.6020e+01	1.5967	-7.963954	0.000221	2.210850	0.374528	0.000022
 163	1.6119e+01	1.6070	-7.938292	0.000258	2.579326	0.436950	0.000026
 164	1.6218e+01	1.6171	-7.912629	0.000258	2.579326	0.436950	0.000026
 165	1.6318e+01	1.6253	-7.893077	0.000197	1.965200	0.332914	0.000020
 166	1.6418e+01	1.6370	-7.864970	0.000282	2.824976	0.478564	0.000028
 167	1.6517e+01	1.6481	-7.842973	0.000221	2.210850	0.374528	0.000022
 168	1.6616e+01	1.6557	-7.815274	0.000278	2.784034	0.471628	0.000028
 169	1.6716e+01	1.6669	-7.793278	0.000221	2.210850	0.374528	0.000022
 170	1.6816e+01	1.6807	-7.770467	0.000229	2.292734	0.388400	0.000023
 171	1.6915e+01	1.6871	-7.742767	0.000278	2.784034	0.471628	0.000028
 172	1.7015e+01	1.6985	-7.719956	0.000229	2.292734	0.388400	0.000023
 173	1.7114e+01	1.7051	-7.690627	0.000295	2.947801	0.499371	0.000029
 174	1.7213e+01	1.7146	-7.672297	0.000184	1.842375	0.312107	0.000018
 175	1.7313e+01	1.7284	-7.649893	0.000225	2.251792	0.381464	0.000023
 176	1.7413e+01	1.7361	-7.620157	0.000299	2.988742	0.506307	0.000030
 177	1.7512e+01	1.7456	-7.597346	0.000229	2.292734	0.388400	0.000023
 178	1.7611e+01	1.7546	-7.574535	0.000229	2.292734	0.388400	0.000023
 179	1.7711e+01	1.7642	-7.551316	0.000233	2.333675	0.395335	0.000023
 180	1.7811e+01	1.7755	-7.527283	0.000242	2.415559	0.409207	0.000024
 181	1.7910e+01	1.7869	-7.505694	0.000217	2.169909	0.367592	0.000022
 182	1.8009e+01	1.7985	-7.477995	0.000278	2.784034	0.471628	0.000028
 183	1.8109e+01	1.8077	-7.447037	0.000311	3.111567	0.527114	0.000031
 184	1.8209e+01	1.8163	-7.429928	0.000172	1.719550	0.291300	0.000017
 185	1.8308e+01	1.8257	-7.403451	0.000266	2.661209	0.450821	0.000027
 186	1.8407e+01	1.8366	-7.381862	0.000217	2.169909	0.367592	0.000022
 187	1.8507e+01	1.8465	-7.360680	0.000213	2.128967	0.360657	0.000021
 188	1.8607e+01	1.8559	-7.336239	0.000246	2.456500	0.416142	0.000025
 189	1.8706e+01	1.8649	-7.314650	0.000217	2.169909	0.367592	0.000022
 190	1.8805e+01	1.8744	-7.292654	0.000221	2.210850	0.374528	0.000022
 191	1.8905e+01	1.8864	-7.268620	0.000242	2.415559	0.409207	0.000024
 192	1.9005e+01	1.8950	-7.248253	0.000205	2.047084	0.346785	0.000020
 193	1.9104e+01	1.9071	-7.228294	0.000201	2.006142	0.339850	0.000020
 194	1.9203e+01	1.9157	-7.205890	0.000225	2.251792	0.381464	0.000023
 195	1.9303e+01	1.9277	-7.181449	0.000246	2.456500	0.416142	0.000025
 196	1.9402e+01	1.9357	-7.163119	0.000184	1.842375	0.312107	0.000018
 197	1.9502e+01	1.9428	-7.136234	0.000270	2.702151	0.457757	0.000027
 198	1.9602e+01	1.9543	-7.115052	0.000213	2.128967	0.360657	0.000021
 199	1.9701e+01	1.9654	-7.091019	0.000242	2.415559	0.409207	0.000024
 200	1.9800e+01	1.9785	-7.069023	0.000221	2.210850	0.374528	0.000022
 201	1.9900e+01	1.9851	-7.046619	0.000225	2.251792	0.381464	0.000023
 202	2.0000e+01	1.9939	-7.025844	0.000209	2.088025	0.353721	0.000021
 203	2.0099e+01	2.0039	-7.003033	0.000229	2.292734	0.388400	0.000023
 204	2.0198e+01	2.0131	-6.981037	0.000221	2.210850	0.374528	0.000022
 205	2.0298e+01	2.0245	-6.961077	0.000201	2.006142	0.339850	0.000020
 206	2.0398e+01	2.0376	-6.937858	0.000233	2.333675	0.395335	0.000023
 207	2.0497e+01	2.0492	-6.913418	0.000246	2.456500	0.416142	0.000025
 208	2.0596e+01	2.0568	-6.893458	0.000201	2.006142	0.339850	0.000020
 209	2.0696e+01	2.0650	-6.869017	0.000246	2.456500	0.416142	0.000025
 210	2.0796e+01	2.0757	-6.841725	0.000274	2.743092	0.464692	0.000027
 211	2.0895e+01	2.0847	-6.819729	0.000221	2.210850	0.374528	0.000022
 212	2.0994e+01	2.0940	-6.795696	0.000242	2.415559	0.409207	0.000024
 213	2.1094e+01	2.1035	-6.771663	0.000242	2.415559	0.409207	0.000024
 214	2.1194e+01	2.1170	-6.745593	0.000262	2.620267	0.443885	0.000026
 215	2.1293e+01	2.1221	-6.724818	0.000209	2.088025	0.353721	0.000021
 216	2.1392e+01	2.1342	-6.700785	0.000242	2.415559	0.409207	0.000024
 217	2.1492e+01	2.1450	-6.677159	0.000237	2.374617	0.402271	0.000024
 218	2.1591e+01	2.1556	-6.651089	0.000262	2.620267	0.443885	0.000026
 219	2.1691e+01	2.1648	-6.633573	0.000176	1.760492	0.298235	0.000018
 220	2.1791e+01	2.1748	-6.609948	0.000237	2.374617	0.402271	0.000024
 221	2.1890e+01	2.1865	-6.584285	0.000258	2.579326	0.436950	0.000026
 222	2.1989e+01	2.1941	-6.564325	0.000201	2.006142	0.339850	0.000020
 223	2.2089e+01	2.2052	-6.539477	0.000250	2.497442	0.423078	0.000025
 224	2.2189e+01	2.2147	-6.520740	0.000188	1.883317	0.319043	0.000019
 225	2.2288e+01	2.2239	-6.496299	0.000246	2.456500	0.416142	0.000025
 226	2.2387e+01	2.2337	-6.474303	0.000221	2.210850	0.374528	0.000022
 227	2.2487e+01	2.2440	-6.450269	0.000242	2.415559	0.409207	0.000024
 228	2.2587e+01	2.2549	-6.425014	0.000254	2.538384	0.430014	0.000025
 229	2.2686e+01	2.2637	-6.403018	0.000221	2.210850	0.374528	0.000022
 230	2.2785e+01	2.2734	-6.381836	0.000213	2.128967	0.360657	0.000021
 231	2.2885e+01	2.2834	-6.362691	0.000192	1.924259	0.325978	0.000019
 232	2.2985e+01	2.2931	-6.334991	0.000278	2.784034	0.471628	0.000028
 233	2.3084e+01	2.3037	-6.310551	0.000246	2.456500	0.416142	0.000025
 234	2.3183e+01	2.3149	-6.291406	0.000192	1.924259	0.325978	0.000019
 235	2.3283e+01	2.3254	-6.266965	0.000246	2.456500	0.416142	0.000025
 236	2.3383e+01	2.3333	-6.245783	0.000213	2.128967	0.360657	0.000021
 237	2.3482e+01	2.3432	-6.217269	0.000287	2.865917	0.485500	0.000029
 238	2.3581e+01	2.3556	-6.194458	0.000229	2.292734	0.388400	0.000023
 239	2.3681e+01	2.3640	-6.165537	0.000291	2.906859	0.492435	0.000029
 240	2.3780e+01	2.3721	-6.140689	0.000250	2.497442	0.423078	0.000025
 241	2.3880e+01	2.3830	-6.115841	0.000250	2.497442	0.423078	0.000025
 242	2.3980e+01	2.3942	-6.090993	0.000250	2.497442	0.423078	0.000025
 243	2.4079e+01	2.4038	-6.064516	0.000266	2.661209	0.450821	0.000027
 244	2.4178e+01	2.4096	-6.045371	0.000192	1.924259	0.325978	0.000019
 245	2.4278e+01	2.4235	-6.014820	0.000307	3.070626	0.520178	0.000031
 246	2.4378e+01	2.4329	-5.987936	0.000270	2.702151	0.457757	0.000027
 247	2.4477e+01	2.4465	-5.965939	0.000221	2.210850	0.374528	0.000022
 248	2.4576e+01	2.4538	-5.938240	0.000278	2.784034	0.471628	0.000028
 249	2.4676e+01	2.4642	-5.910133	0.000282	2.824976	0.478564	0.000028
 250	2.4776e+01	2.4728	-5.886507	0.000237	2.374617	0.402271	0.000024
 251	2.4875e+01	2.4826	-5.858808	0.000278	2.784034	0.471628	0.000028
 252	2.4974e+01	2.4968	-5.837219	0.000217	2.169909	0.367592	0.000022
 253	2.5074e+01	2.5018	-5.811149	0.000262	2.620267	0.443885	0.000026
 254	2.5174e+01	2.5123	-5.790782	0.000205	2.047084	0.346785	0.000020
 255	2.5273e+01	2.5233	-5.761046	0.000299	2.988742	0.506307	0.000030
 256	2.5372e+01	2.5303	-5.733754	0.000274	2.743092	0.464692	0.000027
 257	2.5472e+01	2.5414	-5.712572	0.000213	2.128967	0.360657	0.000021
 258	2.5572e+01	2.5504	-5.687317	0.000254	2.538384	0.430014	0.000025
 259	2.5671e+01	2.5620	-5.660025	0.000274	2.743092	0.464692	0.000027
 260	2.5770e+01	2.5731	-5.635992	0.000242	2.415559	0.409207	0.000024
 261	2.5870e+01	2.5826	-5.607885	0.000282	2.824976	0.478564	0.000028
 262	2.5970e+01	2.5906	-5.581815	0.000262	2.620267	0.443885	0.000026
 263	2.6069e+01	2.6002	-5.556967	0.000250	2.497442	0.423078	0.000025
 264	2.6169e+01	2.6108	-5.529675	0.000274	2.743092	0.464692	0.000027
 265	2.6268e+01	2.6225	-5.504420	0.000254	2.538384	0.430014	0.000025
 266	2.6367e+01	2.6348	-5.478757	0.000258	2.579326	0.436950	0.000026
 267	2.6467e+01	2.6413	-5.456353	0.000225	2.251792	0.381464	0.000023
 268	2.6567e+01	2.6501	-5.431098	0.000254	2.538384	0.430014	0.000025
 269	2.6666e+01	2.6632	-5.402584	0.000287	2.865917	0.485500	0.000029
 270	2.6765e+01	2.6722	-5.373256	0.000295	2.947801	0.499371	0.000029
 271	2.6865e+01	2.6812	-5.349630	0.000237	2.374617	0.402271	0.000024
 272	2.6965e+01	2.6929	-5.323560	0.000262	2.620267	0.443885	0.000026
 273	2.7064e+01	2.7010	-5.299119	0.000246	2.456500	0.416142	0.000025
 274	2.7163e+01	2.7142	-5.262458	0.000368	3.684751	0.624214	0.000037
 275	2.7263e+01	2.7216	-5.242091	0.000205	2.047084	0.346785	0.000020
 276	2.7363e+01	2.7298	-5.211541	0.000307	3.070626	0.520178	0.000031
 277	2.7462e+01	2.7412	-5.185063	0.000266	2.661209	0.450821	0.000027
 278	2.7561e+01	2.7514	-5.153698	0.000315	3.152509	0.534049	0.000032
 279	2.7661e+01	2.7620	-5.127628	0.000262	2.620267	0.443885	0.000026
 280	2.7761e+01	2.7730	-5.103595	0.000242	2.415559	0.409207	0.000024
 281	2.7860e+01	2.7796	-5.076710	0.000270	2.702151	0.457757	0.000027
 282	2.7959e+01	2.7914	-5.047382	0.000295	2.947801	0.499371	0.000029
 283	2.8059e+01	2.8005	-5.020090	0.000274	2.743092	0.464692	0.000027
 284	2.8159e+01	2.8095	-4.994834	0.000254	2.538384	0.430014	0.000025
 285	2.8258e+01	2.8215	-4.964691	0.000303	3.029684	0.513242	0.000030
 286	2.8358e+01	2.8336	-4.939843	0.000250	2.497442	0.423078	0.000025
 287	2.8457e+01	2.8421	-4.910922	0.000291	2.906859	0.492435	0.000029
 288	2.8556e+01	2.8521	-4.885259	0.000258	2.579326	0.436950	0.000026
 289	2.8656e+01	2.8617	-4.853487	0.000319	3.193451	0.540985	0.000032
 290	2.8756e+01	2.8709	-4.831490	0.000221	2.210850	0.374528	0.000022
 291	2.8855e+01	2.8787	-4.803791	0.000278	2.784034	0.471628	0.000028
 292	2.8954e+01	2.8889	-4.777313	0.000266	2.661209	0.450821	0.000027
 293	2.9054e+01	2.8996	-4.750429	0.000270	2.702151	0.457757	0.000027
 294	2.9154e+01	2.9131	-4.726396	0.000242	2.415559	0.409207	0.000024
 295	2.9253e+01	2.9182	-4.705621	0.000209	2.088025	0.353721	0.000021
 296	2.9352e+01	2.9314	-4.673848	0.000319	3.193451	0.540985	0.000032
 297	2.9452e+01	2.9394	-4.649001	0.000250	2.497442	0.423078	0.000025
 298	2.9552e+01	2.9538	-4.629041	0.000201	2.006142	0.339850	0.000020
 299	2.9651e+01	2.9620	-4.598490	0.000307	3.070626	0.520178	0.000031
 300	2.9750e+01	2.9691	-4.575272	0.000233	2.333675	0.395335	0.000023
 301	2.9850e+01	2.9827	-4.548794	0.000266	2.661209	0.450821	0.000027
 302	2.9950e+01	2.9908	-4.523132	0.000258	2.579326	0.436950	0.000026
 303	3.0049e+01	3.0006	-4.497062	0.000262	2.620267	0.443885	0.000026
 304	3.0148e+01	3.0121	-4.469362	0.000278	2.784034	0.471628	0.000028
 305	3.0248e+01	3.0189	-4.442478	0.000270	2.702151	0.457757	0.000027
 306	3.0348e+01	3.0288	-4.413557	0.000291	2.906859	0.492435	0.000029
 307	3.0447e+01	3.0399	-4.385043	0.000287	2.865917	0.485500	0.000029
 308	3.0547e+01	3.0509	-4.365083	0.000201	2.006142	0.339850	0.000020
 309	3.0646e+01	3.0599	-4.336161	0.000291	2.906859	0.492435	0.000029
 310	3.0745e+01	3.0709	-4.307647	0.000287	2.865917	0.485500	0.000029
 311	3.0845e+01	3.0823	-4.283614	0.000242	2.415559	0.409207	0.000024
 312	3.0945e+01	3.0899	-4.257544	0.000262	2.620267	0.443885	0.000026
 313	3.1044e+01	3.0990	-4.231882	0.000258	2.579326	0.436950	0.000026
 314	3.1143e+01	3.1123	-4.203775	0.000282	2.824976	0.478564	0.000028
 315	3.1243e+01	3.1231	-4.174854	0.000291	2.906859	0.492435	0.000029
 316	3.1343e+01	3.1306	-4.151228	0.000237	2.374617	0.402271	0.000024
 317	3.1442e+01	3.1389	-4.123936	0.000274	2.743092	0.464692	0.000027
 318	3.1541e+01	3.1511	-4.098273	0.000258	2.579326	0.436950	0.000026
 319	3.1641e+01	3.1567	-4.074648	0.000237	2.374617	0.402271	0.000024
 320	3.1741e+01	3.1690	-4.048578	0.000262	2.620267	0.443885	0.000026
 321	3.1840e+01	3.1850	-4.023322	0.000254	2.538384	0.430014	0.000025
 322	3.1939e+01	3.1890	-3.994808	0.000287	2.865917	0.485500	0.000029
 323	3.2039e+01	3.1991	-3.973219	0.000217	2.169909	0.367592	0.000022
 324	3.2139e+01	3.2092	-3.949593	0.000237	2.374617	0.402271	0.000024
 325	3.2238e+01	3.2196	-3.925560	0.000242	2.415559	0.409207	0.000024
 326	3.2337e+01	3.2300	-3.901934	0.000237	2.374617	0.402271	0.000024
 327	3.2437e+01	3.2393	-3.877901	0.000242	2.415559	0.409207	0.000024
 328	3.2536e+01	3.2476	-3.853053	0.000250	2.497442	0.423078	0.000025
 329	3.2636e+01	3.2597	-3.827391	0.000258	2.579326	0.436950	0.000026
 330	3.2736e+01	3.2686	-3.806616	0.000209	2.088025	0.353721	0.000021
 331	3.2835e+01	3.2818	-3.781768	0.000250	2.497442	0.423078	0.000025
 332	3.2934e+01	3.2876	-3.758957	0.000229	2.292734	0.388400	0.000023
 333	3.3034e+01	3.2986	-3.732887	0.000262	2.620267	0.443885	0.000026
 334	3.3133e+01	3.3082	-3.710483	0.000225	2.251792	0.381464	0.000023
 335	3.3233e+01	3.3192	-3.681969	0.000287	2.865917	0.485500	0.000029
 336	3.3333e+01	3.3287	-3.659973	0.000221	2.210850	0.374528	0.000022
 337	3.3432e+01	3.3389	-3.635940	0.000242	2.415559	0.409207	0.000024
 338	3.3532e+01	3.3475	-3.612314	0.000237	2.374617	0.402271	0.000024
 339	3.3631e+01	3.3581	-3.590725	0.000217	2.169909	0.367592	0.000022
 340	3.3730e+01	3.3678	-3.564247	0.000266	2.661209	0.450821	0.000027
 341	3.3830e+01	3.3797	-3.541843	0.000225	2.251792	0.381464	0.000023
 342	3.3929e+01	3.3892	-3.521884	0.000201	2.006142	0.339850	0.000020
 343	3.4029e+01	3.3982	-3.494999	0.000270	2.702151	0.457757	0.000027
 344	3.4129e+01	3.4103	-3.473003	0.000221	2.210850	0.374528	0.000022
 345	3.4228e+01	3.4181	-3.448562	0.000246	2.456500	0.416142	0.000025
 346	3.4328e+01	3.4296	-3.426566	0.000221	2.210850	0.374528	0.000022
 347	3.4427e+01	3.4365	-3.404976	0.000217	2.169909	0.367592	0.000022
 348	3.4526e+01	3.4490	-3.376055	0.000291	2.906859	0.492435	0.000029
 349	3.4626e+01	3.4561	-3.358539	0.000176	1.760492	0.298235	0.000018
 350	3.4725e+01	3.4692	-3.334506	0.000242	2.415559	0.409207	0.000024
 351	3.4825e+01	3.4773	-3.306399	0.000282	2.824976	0.478564	0.000028
 352	3.4925e+01	3.4879	-3.283181	0.000233	2.333675	0.395335	0.000023
 353	3.5024e+01	3.4974	-3.260370	0.000229	2.292734	0.388400	0.000023
 354	3.5123e+01	3.5052	-3.238373	0.000221	2.210850	0.374528	0.000022
 355	3.5223e+01	3.5210	-3.216784	0.000217	2.169909	0.367592	0.000022
 356	3.5322e+01	3.5318	-3.194788	0.000221	2.210850	0.374528	0.000022
 357	3.5422e+01	3.5380	-3.173198	0.000217	2.169909	0.367592	0.000022
 358	3.5522e+01	3.5459	-3.155683	0.000176	1.760492	0.298235	0.000018
 359	3.5621e+01	3.5585	-3.130020	0.000258	2.579326	0.436950	0.000026
 360	3.5721e+01	3.5670	-3.113726	0.000164	1.637667	0.277428	0.000016
 361	3.5820e+01	3.5763	-3.084398	0.000295	2.947801	0.499371	0.000029
 362	3.5919e+01	3.5896	-3.066067	0.000184	1.842375	0.312107	0.000018
 363	3.6019e+01	3.5989	-3.047330	0.000188	1.883317	0.319043	0.000019
 364	3.6118e+01	3.6071	-3.024518	0.000229	2.292734	0.388400	0.000023
 365	3.6218e+01	3.6162	-3.002929	0.000217	2.169909	0.367592	0.000022
 366	3.6318e+01	3.6275	-2.979303	0.000237	2.374617	0.402271	0.000024
 367	3.6417e+01	3.6349	-2.956492	0.000229	2.292734	0.388400	0.000023
 368	3.6517e+01	3.6458	-2.933681	0.000229	2.292734	0.388400	0.000023
 369	3.6616e+01	3.6576	-2.913721	0.000201	2.006142	0.339850	0.000020
 370	3.6715e+01	3.6689	-2.894984	0.000188	1.883317	0.319043	0.000019
 371	3.6815e+01	3.6754	-2.872580	0.000225	2.251792	0.381464	0.000023
 372	3.6914e+01	3.6872	-2.849768	0.000229	2.292734	0.388400	0.000023
 373	3.7014e+01	3.6989	-2.830216	0.000197	1.965200	0.332914	0.000020
 374	3.7114e+01	3.7083	-2.806590	0.000237	2.374617	0.402271	0.000024
 375	3.7213e+01	3.7182	-2.783372	0.000233	2.333675	0.395335	0.000023
 376	3.7313e+01	3.7252	-2.759338	0.000242	2.415559	0.409207	0.000024
 377	3.7412e+01	3.7341	-2.740601	0.000188	1.883317	0.319043	0.000019
 378	3.7511e+01	3.7481	-2.716160	0.000246	2.456500	0.416142	0.000025
 379	3.7611e+01	3.7561	-2.692534	0.000237	2.374617	0.402271	0.000024
 380	3.7711e+01	3.7658	-2.668501	0.000242	2.415559	0.409207	0.000024
 381	3.7810e+01	3.7772	-2.644468	0.000242	2.415559	0.409207	0.000024
 382	3.7910e+01	3.7864	-2.620027	0.000246	2.456500	0.416142	0.000025
 383	3.8009e+01	3.8001	-2.600882	0.000192	1.924259	0.325978	0.000019
 384	3.8108e+01	3.8052	-2.575627	0.000254	2.538384	0.430014	0.000025
 385	3.8208e+01	3.8170	-2.554038	0.000217	2.169909	0.367592	0.000022
 386	3.8307e+01	3.8271	-2.530819	0.000233	2.333675	0.395335	0.000023
 387	3.8407e+01	3.8351	-2.512896	0.000180	1.801434	0.305171	0.000018
 388	3.8507e+01	3.8469	-2.494566	0.000184	1.842375	0.312107	0.000018
 389	3.8606e+01	3.8557	-2.468903	0.000258	2.579326	0.436950	0.000026
 390	3.8706e+01	3.8654	-2.449758	0.000192	1.924259	0.325978	0.000019
 391	3.8805e+01	3.8744	-2.426132	0.000237	2.374617	0.402271	0.000024
 392	3.8904e+01	3.8860	-2.405765	0.000205	2.047084	0.346785	0.000020
 393	3.9004e+01	3.8973	-2.378473	0.000274	2.743092	0.464692	0.000027
 394	3.9103e+01	3.9062	-2.360143	0.000184	1.842375	0.312107	0.000018
 395	3.9203e+01	3.9147	-2.337739	0.000225	2.251792	0.381464	0.000023
 396	3.9303e+01	3.9248	-2.314928	0.000229	2.292734	0.388400	0.000023
 397	3.9402e+01	3.9357	-2.295783	0.000192	1.924259	0.325978	0.000019
 398	3.9502e+01	3.9486	-2.275823	0.000201	2.006142	0.339850	0.000020
 399	3.9601e+01	3.9519	-2.246087	0.000299	2.988742	0.506307	0.000030
 400	3.9700e+01	3.9678	-2.229793	0.000164	1.637667	0.277428	0.000016
 401	3.9800e+01	3.9777	-2.206167	0.000237	2.374617	0.402271	0.000024
 402	3.9900e+01	3.9861	-2.185393	0.000209	2.088025	0.353721	0.000021
 403	3.9999e+01	3.9968	-2.161360	0.000242	2.415559	0.409207	0.000024
 404	4.0099e+01	4.0064	-2.138548	0.000229	2.292734	0.388400	0.000023
 405	4.0198e+01	4.0148	-2.113700	0.000250	2.497442	0.423078	0.000025
 406	4.0297e+01	4.0273	-2.087631	0.000262	2.620267	0.443885	0.000026
 407	4.0397e+01	4.0352	-2.067263	0.000205	2.047084	0.346785	0.000020
 408	4.0496e+01	4.0448	-2.043638	0.000237	2.374617	0.402271	0.000024
 409	4.0596e+01	4.0543	-2.016346	0.000274	2.743092	0.464692	0.000027
 410	4.0696e+01	4.0649	-1.991905	0.000246	2.456500	0.416142	0.000025
 411	4.0795e+01	4.0753	-1.966242	0.000258	2.579326	0.436950	0.000026
 412	4.0895e+01	4.0845	-1.947097	0.000192	1.924259	0.325978	0.000019
 413	4.0994e+01	4.0948	-1.916547	0.000307	3.070626	0.520178	0.000031
 414	4.1093e+01	4.1015	-1.895772	0.000209	2.088025	0.353721	0.000021
 415	4.1193e+01	4.1172	-1.867258	0.000287	2.865917	0.485500	0.000029
 416	4.1292e+01	4.1261	-1.846484	0.000209	2.088025	0.353721	0.000021
 417	4.1392e+01	4.1329	-1.822858	0.000237	2.374617	0.402271	0.000024
 418	4.1492e+01	4.1458	-1.799639	0.000233	2.333675	0.395335	0.000023
 419	4.1591e+01	4.1547	-1.772347	0.000274	2.743092	0.464692	0.000027
 420	4.1691e+01	4.1639	-1.751980	0.000205	2.047084	0.346785	0.000020
 421	4.1790e+01	4.1729	-1.726318	0.000258	2.579326	0.436950	0.000026
 422	4.1889e+01	4.1828	-1.701877	0.000246	2.456500	0.416142	0.000025
 423	4.1989e+01	4.1966	-1.674993	0.000270	2.702151	0.457757	0.000027
 424	4.2089e+01	4.2031	-1.650552	0.000246	2.456500	0.416142	0.000025
 425	4.2188e+01	4.2144	-1.626926	0.000237	2.374617	0.402271	0.000024
 426	4.2288e+01	4.2225	-1.601264	0.000258	2.579326	0.436950	0.000026
 427	4.2387e+01	4.2348	-1.579674	0.000217	2.169909	0.367592	0.000022
 428	4.2486e+01	4.2420	-1.552382	0.000274	2.743092	0.464692	0.000027
 429	4.2586e+01	4.2526	-1.527535	0.000250	2.497442	0.423078	0.000025
 430	4.2685e+01	4.2620	-1.503909	0.000237	2.374617	0.402271	0.000024
 431	4.2785e+01	4.2754	-1.480283	0.000237	2.374617	0.402271	0.000024
 432	4.2885e+01	4.2819	-1.455028	0.000254	2.538384	0.430014	0.000025
 433	4.2984e+01	4.2947	-1.431402	0.000237	2.374617	0.402271	0.000024
 434	4.3084e+01	4.3027	-1.405332	0.000262	2.620267	0.443885	0.000026
 435	4.3183e+01	4.3127	-1.384965	0.000205	2.047084	0.346785	0.000020
 436	4.3282e+01	4.3227	-1.356451	0.000287	2.865917	0.485500	0.000029
 437	4.3382e+01	4.3333	-1.334047	0.000225	2.251792	0.381464	0.000023
 438	4.3481e+01	4.3442	-1.306348	0.000278	2.784034	0.471628	0.000028
 439	4.3581e+01	4.3560	-1.281500	0.000250	2.497442	0.423078	0.000025
 440	4.3681e+01	4.3641	-1.257466	0.000242	2.415559	0.409207	0.000024
 441	4.3780e+01	4.3725	-1.228545	0.000291	2.906859	0.492435	0.000029
 442	4.3880e+01	4.3832	-1.203697	0.000250	2.497442	0.423078	0.000025
 443	4.3979e+01	4.3941	-1.174776	0.000291	2.906859	0.492435	0.000029
 444	4.4078e+01	4.4032	-1.148706	0.000262	2.620267	0.443885	0.000026
 445	4.4178e+01	4.4144	-1.123451	0.000254	2.538384	0.430014	0.000025
 446	4.4278e+01	4.4239	-1.095751	0.000278	2.784034	0.471628	0.000028
 447	4.4377e+01	4.4335	-1.071311	0.000246	2.456500	0.416142	0.000025
 448	4.4477e+01	4.4439	-1.042390	0.000291	2.906859	0.492435	0.000029
 449	4.4576e+01	4.4547	-1.020393	0.000221	2.210850	0.374528	0.000022
 450	4.4675e+01	4.4607	-0.993916	0.000266	2.661209	0.450821	0.000027
 451	4.4775e+01	4.4753	-0.968253	0.000258	2.579326	0.436950	0.000026
 452	4.4874e+01	4.4814	-0.942183	0.000262	2.620267	0.443885	0.000026
 453	4.4974e+01	4.4923	-0.913669	0.000287	2.865917	0.485500	0.000029
 454	4.5074e+01	4.5032	-0.886785	0.000270	2.702151	0.457757	0.000027
 455	4.5173e+01	4.5131	-0.865196	0.000217	2.169909	0.367592	0.000022
 456	4.5273e+01	4.5211	-0.831793	0.000336	3.357217	0.568728	0.000034
 457	4.5372e+01	4.5327	-0.808982	0.000229	2.292734	0.388400	0.000023
 458	4.5471e+01	4.5425	-0.783320	0.000258	2.579326	0.436950	0.000026
 459	4.5571e+01	4.5524	-0.757250	0.000262	2.620267	0.443885	0.000026
 460	4.5670e+01	4.5618	-0.735253	0.000221	2.210850	0.374528	0.000022
 461	4.5770e+01	4.5736	-0.713664	0.000217	2.169909	0.367592	0.000022
 462	4.5870e+01	4.5830	-0.687594	0.000262	2.620267	0.443885	0.000026
 463	4.5969e+01	4.5914	-0.664376	0.000233	2.333675	0.395335	0.000023
 464	4.6069e+01	4.6024	-0.637898	0.000266	2.661209	0.450821	0.000027
 465	4.6168e+01	4.6120	-0.615495	0.000225	2.251792	0.381464	0.000023
 466	4.6267e+01	4.6207	-0.586981	0.000287	2.865917	0.485500	0.000029
 467	4.6367e+01	4.6320	-0.564984	0.000221	2.210850	0.374528	0.000022
 468	4.6467e+01	4.6431	-0.541358	0.000237	2.374617	0.402271	0.000024
 469	4.6566e+01	4.6535	-0.518140	0.000233	2.333675	0.395335	0.000023
 470	4.6666e+01	4.6638	-0.490033	0.000282	2.824976	0.478564	0.000028
 471	4.6765e+01	4.6733	-0.467222	0.000229	2.292734	0.388400	0.000023
 472	4.6864e+01	4.6824	-0.439115	0.000282	2.824976	0.478564	0.000028
 473	4.6964e+01	4.6933	-0.416304	0.000229	2.292734	0.388400	0.000023
 474	4.7063e+01	4.7019	-0.386568	0.000299	2.988742	0.506307	0.000030
 475	4.7163e+01	4.7138	-0.362535	0.000242	2.415559	0.409207	0.000024
 476	4.7263e+01	4.7208	-0.338909	0.000237	2.374617	0.402271	0.000024
 477	4.7362e+01	4.7326	-0.313246	0.000258	2.579326	0.436950	0.000026
 478	4.7462e+01	4.7415	-0.285140	0.000282	2.824976	0.478564	0.000028
 479	4.7561e+01	4.7530	-0.262736	0.000225	2.251792	0.381464	0.000023
 480	4.7660e+01	4.7607	-0.239925	0.000229	2.292734	0.388400	0.000023
 481	4.7760e+01	4.7727	-0.211411	0.000287	2.865917	0.485500	0.000029
 482	4.7859e+01	4.7816	-0.186563	0.000250	2.497442	0.423078	0.000025
 483	4.7959e+01	4.7901	-0.159271	0.000274	2.743092	0.464692	0.000027
 484	4.8059e+01	4.8015	-0.136460	0.000229	2.292734	0.388400	0.000023
 485	4.8158e+01	4.8109	-0.108760	0.000278	2.784034	0.471628	0.000028
 486	4.8258e+01	4.8223	-0.085542	0.000233	2.333675	0.395335	0.000023
 487	4.8357e+01	4.8309	-0.062323	0.000233	2.333675	0.395335	0.000023
 488	4.8456e+01	4.8408	-0.036661	0.000258	2.579326	0.436950	0.000026
 489	4.8556e+01	4.8519	-0.014257	0.000225	2.251792	0.381464	0.000023
 490	4.8656e+01	4.8623	0.008962	0.000233	2.333675	0.395335	0.000023
 491	4.8755e+01	4.8710	0.032995	0.000242	2.415559	0.409207	0.000024
 492	4.8855e+01	4.8809	0.055806	0.000229	2.292734	0.388400	0.000023
 493	4.8954e+01	4.8911	0.073729	0.000180	1.801434	0.305171	0.000018
 494	4.9053e+01	4.9009	0.101836	0.000282	2.824976	0.478564	0.000028
 495	4.9153e+01	4.9118	0.123832	0.000221	2.210850	0.374528	0.000022
 496	4.9252e+01	4.9198	0.147458	0.000237	2.374617	0.402271	0.000024
 497	4.9352e+01	4.9311	0.168232	0.000209	2.088025	0.353721	0.000021
 498	4.9452e+01	4.9414	0.192266	0.000242	2.415559	0.409207	0.000024
 499	4.9551e+01	4.9499	0.217521	0.000254	2.538384	0.430014	0.000025
 500	4.9651e+01	4.9588	0.239517	0.000221	2.210850	0.374528	0.000022
 501	4.9750e+01	4.9738	0.262329	0.000229	2.292734	0.388400	0.000023
 502	4.9849e+01	4.9795	0.283103	0.000209	2.088025	0.353721	0.000021
 503	4.9949e+01	4.9923	0.309173	0.000262	2.620267	0.443885	0.000026
 504	5.0048e+01	5.0011	0.330355	0.000213	2.128967	0.360657	0.000021
 505	5.0148e+01	5.0126	0.350315	0.000201	2.006142	0.339850	0.000020
 506	5.0248e+01	5.0199	0.376385	0.000262	2.620267	0.443885	0.000026
 507	5.0347e+01	5.0317	0.396752	0.000205	2.047084	0.346785	0.000020
 508	5.0447e+01	5.0388	0.421192	0.000246	2.456500	0.416142	0.000025
 509	5.0546e+01	5.0512	0.443596	0.000225	2.251792	0.381464	0.000023
 510	5.0645e+01	5.0581	0.462741	0.000192	1.924259	0.325978	0.000019
 511	5.0745e+01	5.0707	0.483923	0.000213	2.128967	0.360657	0.000021
 512	5.0844e+01	5.0771	0.506734	0.000229	2.292734	0.388400	0.000023
 513	5.0944e+01	5.0898	0.530360	0.000237	2.374617	0.402271	0.000024
 514	5.1044e+01	5.0994	0.554801	0.000246	2.456500	0.416142	0.000025
 515	5.1143e+01	5.1103	0.575168	0.000205	2.047084	0.346785	0.000020
 516	5.1242e+01	5.1192	0.595942	0.000209	2.088025	0.353721	0.000021
 517	5.1342e+01	5.1289	0.619975	0.000242	2.415559	0.409207	0.000024
 518	5.1441e+01	5.1372	0.640342	0.000205	2.047084	0.346785	0.000020
 519	5.1541e+01	5.1521	0.663968	0.000237	2.374617	0.402271	0.000024
 520	5.1641e+01	5.1580	0.685965	0.000221	2.210850	0.374528	0.000022
 521	5.1740e+01	5.1684	0.709591	0.000237	2.374617	0.402271	0.000024
 522	5.1840e+01	5.1781	0.728736	0.000192	1.924259	0.325978	0.000019
 523	5.1939e+01	5.1879	0.747474	0.000188	1.883317	0.319043	0.000019
 524	5.2038e+01	5.2003	0.770692	0.000233	2.333675	0.395335	0.000023
 525	5.2138e+01	5.2110	0.788208	0.000176	1.760492	0.298235	0.000018
 526	5.2237e+01	5.2212	0.809390	0.000213	2.128967	0.360657	0.000021
 527	5.2337e+01	5.2293	0.825683	0.000164	1.637667	0.277428	0.000016
 528	5.2437e+01	5.2393	0.846865	0.000213	2.128967	0.360657	0.000021
 529	5.2536e+01	5.2471	0.870084	0.000233	2.333675	0.395335	0.000023
 530	5.2636e+01	5.2590	0.888414	0.000184	1.842375	0.312107	0.000018
 531	5.2735e+01	5.2648	0.911225	0.000229	2.292734	0.388400	0.000023
 532	5.2834e+01	5.2775	0.928741	0.000176	1.760492	0.298235	0.000018
 533	5.2934e+01	5.2886	0.954811	0.000262	2.620267	0.443885	0.000026
 534	5.3033e+01	5.2993	0.976400	0.000217	2.169909	0.367592	0.000022
 535	5.3133e+01	5.3094	0.995953	0.000197	1.965200	0.332914	0.000020
 536	5.3233e+01	5.3181	1.012654	0.000168	1.678609	0.284364	0.000017
 537	5.3332e+01	5.3286	1.036279	0.000237	2.374617	0.402271	0.000024
 538	5.3431e+01	5.3373	1.052166	0.000160	1.596725	0.270493	0.000016
 539	5.3531e+01	5.3527	1.072940	0.000209	2.088025	0.353721	0.000021
 540	5.3630e+01	5.3576	1.092085	0.000192	1.924259	0.325978	0.000019
 541	5.3730e+01	5.3678	1.116933	0.000250	2.497442	0.423078	0.000025
 542	5.3830e+01	5.3783	1.135671	0.000188	1.883317	0.319043	0.000019
 543	5.3929e+01	5.3915	1.156853	0.000213	2.128967	0.360657	0.000021
 544	5.4029e+01	5.3983	1.179257	0.000225	2.251792	0.381464	0.000023
 545	5.4128e+01	5.4123	1.205327	0.000262	2.620267	0.443885	0.000026
 546	5.4227e+01	5.4163	1.226916	0.000217	2.169909	0.367592	0.000022
 547	5.4327e+01	5.4269	1.246876	0.000201	2.006142	0.339850	0.000020
 548	5.4426e+01	5.4398	1.271316	0.000246	2.456500	0.416142	0.000025
 549	5.4526e+01	5.4465	1.290461	0.000192	1.924259	0.325978	0.000019
 550	5.4626e+01	5.4565	1.310421	0.000201	2.006142	0.339850	0.000020
 551	5.4725e+01	5.4671	1.332417	0.000221	2.210850	0.374528	0.000022
 552	5.4825e+01	5.4733	1.354414	0.000221	2.210850	0.374528	0.000022
 553	5.4924e+01	5.4877	1.373559	0.000192	1.924259	0.325978	0.000019
 554	5.5023e+01	5.4958	1.393926	0.000205	2.047084	0.346785	0.000020
 555	5.5123e+01	5.5093	1.416737	0.000229	2.292734	0.388400	0.000023
 556	5.5222e+01	5.5166	1.433438	0.000168	1.678609	0.284364	0.000017
 557	5.5322e+01	5.5287	1.456250	0.000229	2.292734	0.388400	0.000023
 558	5.5422e+01	5.5352	1.473765	0.000176	1.760492	0.298235	0.000018
 559	5.5521e+01	5.5479	1.496577	0.000229	2.292734	0.388400	0.000023
 560	5.5620e+01	5.5576	1.516536	0.000201	2.006142	0.339850	0.000020
 561	5.5720e+01	5.5695	1.539755	0.000233	2.333675	0.395335	0.000023
 562	5.5819e+01	5.5772	1.562973	0.000233	2.333675	0.395335	0.000023
 563	5.5919e+01	5.5870	1.584155	0.000213	2.128967	0.360657	0.000021
 564	5.6019e+01	5.5999	1.602486	0.000184	1.842375	0.312107	0.000018
 565	5.6118e+01	5.6064	1.624482	0.000221	2.210850	0.374528	0.000022
 566	5.6218e+01	5.6162	1.642813	0.000184	1.842375	0.312107	0.000018
 567	5.6317e+01	5.6271	1.666438	0.000237	2.374617	0.402271	0.000024
 568	5.6416e+01	5.6401	1.686806	0.000205	2.047084	0.346785	0.000020
 569	5.6516e+01	5.6460	1.707580	0.000209	2.088025	0.353721	0.000021
 570	5.6615e+01	5.6562	1.729984	0.000225	2.251792	0.381464	0.000023
 571	5.6715e+01	5.6670	1.753610	0.000237	2.374617	0.402271	0.000024
 572	5.6815e+01	5.6762	1.773162	0.000197	1.965200	0.332914	0.000020
 573	5.6914e+01	5.6863	1.795566	0.000225	2.251792	0.381464	0.000023
 574	5.7014e+01	5.6958	1.821636	0.000262	2.620267	0.443885	0.000026
 575	5.7113e+01	5.7082	1.840781	0.000192	1.924259	0.325978	0.000019
 576	5.7212e+01	5.7165	1.865629	0.000250	2.497442	0.423078	0.000025
 577	5.7312e+01	5.7262	1.890069	0.000246	2.456500	0.416142	0.000025
 578	5.7411e+01	5.7369	1.913288	0.000233	2.333675	0.395335	0.000023
 579	5.7511e+01	5.7464	1.938136	0.000250	2.497442	0.423078	0.000025
 580	5.7611e+01	5.7571	1.963391	0.000254	2.538384	0.430014	0.000025
 581	5.7710e+01	5.7623	1.983758	0.000205	2.047084	0.346785	0.000020
 582	5.7809e+01	5.7754	2.005755	0.000221	2.210850	0.374528	0.000022
 583	5.7909e+01	5.7862	2.026937	0.000213	2.128967	0.360657	0.000021
 584	5.8008e+01	5.7963	2.055043	0.000282	2.824976	0.478564	0.000028
 585	5.8108e+01	5.8068	2.074188	0.000192	1.924259	0.325978	0.000019
 586	5.8208e+01	5.8147	2.099036	0.000250	2.497442	0.423078	0.000025
 587	5.8307e+01	5.8271	2.123884	0.000250	2.497442	0.423078	0.000025
 588	5.8407e+01	5.8355	2.140992	0.000172	1.719550	0.291300	0.000017
 589	5.8506e+01	5.8459	2.167470	0.000266	2.661209	0.450821	0.000027
 590	5.8605e+01	5.8556	2.190281	0.000229	2.292734	0.388400	0.000023
 591	5.8705e+01	5.8652	2.213092	0.000229	2.292734	0.388400	0.000023
 592	5.8804e+01	5.8773	2.239162	0.000262	2.620267	0.443885	0.000026
 593	5.8904e+01	5.8863	2.263603	0.000246	2.456500	0.416142	0.000025
 594	5.9004e+01	5.8968	2.284784	0.000213	2.128967	0.360657	0.000021
 595	5.9103e+01	5.9057	2.311669	0.000270	2.702151	0.457757	0.000027
 596	5.9203e+01	5.9122	2.336517	0.000250	2.497442	0.423078	0.000025
 597	5.9302e+01	5.9267	2.357699	0.000213	2.128967	0.360657	0.000021
 598	5.9401e+01	5.9346	2.378473	0.000209	2.088025	0.353721	0.000021
 599	5.9501e+01	5.9458	2.406580	0.000282	2.824976	0.478564	0.000028
 600	5.9600e+01	5.9573	2.425318	0.000188	1.883317	0.319043	0.000019
 601	5.9700e+01	5.9658	2.452202	0.000270	2.702151	0.457757	0.000027
 602	5.9800e+01	5.9776	2.472162	0.000201	2.006142	0.339850	0.000020
 603	5.9899e+01	5.9866	2.498639	0.000266	2.661209	0.450821	0.000027
 604	5.9998e+01	5.9972	2.519821	0.000213	2.128967	0.360657	0.000021
 605	6.0098e+01	6.0059	2.541818	0.000221	2.210850	0.374528	0.000022
 606	6.0197e+01	6.0178	2.568702	0.000270	2.702151	0.457757	0.000027
 607	6.0297e+01	6.0249	2.593143	0.000246	2.456500	0.416142	0.000025
 608	6.0397e+01	6.0357	2.618398	0.000254	2.538384	0.430014	0.000025
 609	6.0496e+01	6.0451	2.649356	0.000311	3.111567	0.527114	0.000031
 610	6.0596e+01	6.0514	2.672167	0.000229	2.292734	0.388400	0.000023
 611	6.0695e+01	6.0630	2.698644	0.000266	2.661209	0.450821	0.000027
 612	6.0794e+01	6.0738	2.722678	0.000242	2.415559	0.409207	0.000024
 613	6.0894e+01	6.0857	2.747933	0.000254	2.538384	0.430014	0.000025
 614	6.0993e+01	6.0957	2.774003	0.000262	2.620267	0.443885	0.000026
 615	6.1093e+01	6.1047	2.800073	0.000262	2.620267	0.443885	0.000026
 616	6.1193e+01	6.1153	2.821662	0.000217	2.169909	0.367592	0.000022
 617	6.1292e+01	6.1242	2.850991	0.000295	2.947801	0.499371	0.000029
 618	6.1392e+01	6.1343	2.871765	0.000209	2.088025	0.353721	0.000021
 619	6.1491e+01	6.1446	2.896613	0.000250	2.497442	0.423078	0.000025
 620	6.1590e+01	6.1535	2.923905	0.000274	2.743092	0.464692	0.000027
 621	6.1690e+01	6.1646	2.949160	0.000254	2.538384	0.430014	0.000025
 622	6.1789e+01	6.1712	2.977267	0.000282	2.824976	0.478564	0.000028
 623	6.1889e+01	6.1823	2.999671	0.000225	2.251792	0.381464	0.000023
 624	6.1989e+01	6.1954	3.023296	0.000237	2.374617	0.402271	0.000024
 625	6.2088e+01	6.2034	3.046922	0.000237	2.374617	0.402271	0.000024
 626	6.2188e+01	6.2134	3.074214	0.000274	2.743092	0.464692	0.000027
 627	6.2287e+01	6.2246	3.100692	0.000266	2.661209	0.450821	0.000027
 628	6.2386e+01	6.2345	3.122281	0.000217	2.169909	0.367592	0.000022
 629	6.2486e+01	6.2470	3.140204	0.000180	1.801434	0.305171	0.000018
 630	6.2586e+01	6.2502	3.168310	0.000282	2.824976	0.478564	0.000028
 631	6.2685e+01	6.2653	3.189900	0.000217	2.169909	0.367592	0.000022
 632	6.2785e+01	6.2755	3.215562	0.000258	2.579326	0.436950	0.000026
 633	6.2884e+01	6.2817	3.237151	0.000217	2.169909	0.367592	0.000022
 634	6.2983e+01	6.2945	3.261592	0.000246	2.456500	0.416142	0.000025
 635	6.3083e+01	6.3030	3.283588	0.000221	2.210850	0.374528	0.000022
 636	6.3182e+01	6.3152	3.309658	0.000262	2.620267	0.443885	0.000026
 637	6.3282e+01	6.3244	3.331655	0.000221	2.210850	0.374528	0.000022
 638	6.3382e+01	6.3334	3.357725	0.000262	2.620267	0.443885	0.000026
 639	6.3481e+01	6.3456	3.382980	0.000254	2.538384	0.430014	0.000025
 640	6.3581e+01	6.3544	3.404976	0.000221	2.210850	0.374528	0.000022
 641	6.3680e+01	6.3639	3.430232	0.000254	2.538384	0.430014	0.000025
 642	6.3779e+01	6.3726	3.456709	0.000266	2.661209	0.450821	0.000027
 643	6.3879e+01	6.3849	3.479520	0.000229	2.292734	0.388400	0.000023
 644	6.3978e+01	6.3934	3.503146	0.000237	2.374617	0.402271	0.000024
 645	6.4078e+01	6.4024	3.525957	0.000229	2.292734	0.388400	0.000023
 646	6.4177e+01	6.4115	3.551620	0.000258	2.579326	0.436950	0.000026
 647	6.4277e+01	6.4228	3.573616	0.000221	2.210850	0.374528	0.000022
 648	6.4376e+01	6.4330	3.601723	0.000282	2.824976	0.478564	0.000028
 649	6.4476e+01	6.4419	3.624127	0.000225	2.251792	0.381464	0.000023
 650	6.4576e+01	6.4539	3.650197	0.000262	2.620267	0.443885	0.000026
 651	6.4675e+01	6.4624	3.674637	0.000246	2.456500	0.416142	0.000025
 652	6.4775e+01	6.4724	3.698263	0.000237	2.374617	0.402271	0.000024
 653	6.4874e+01	6.4823	3.721889	0.000237	2.374617	0.402271	0.000024
 654	6.4974e+01	6.4934	3.744700	0.000229	2.292734	0.388400	0.000023
 655	6.5073e+01	6.5031	3.767511	0.000229	2.292734	0.388400	0.000023
 656	6.5172e+01	6.5110	3.787064	0.000197	1.965200	0.332914	0.000020
 657	6.5272e+01	6.5217	3.812726	0.000258	2.579326	0.436950	0.000026
 658	6.5371e+01	6.5320	3.833908	0.000213	2.128967	0.360657	0.000021
 659	6.5471e+01	6.5413	3.857127	0.000233	2.333675	0.395335	0.000023
 660	6.5570e+01	6.5524	3.881160	0.000242	2.415559	0.409207	0.000024
 661	6.5670e+01	6.5610	3.902749	0.000217	2.169909	0.367592	0.000022
 662	6.5769e+01	6.5717	3.928004	0.000254	2.538384	0.430014	0.000025
 663	6.5869e+01	6.5836	3.943891	0.000160	1.596725	0.270493	0.000016
 664	6.5969e+01	6.5918	3.966294	0.000225	2.251792	0.381464	0.000023
 665	6.6068e+01	6.6044	3.990735	0.000246	2.456500	0.416142	0.000025
 666	6.6168e+01	6.6140	4.012731	0.000221	2.210850	0.374528	0.000022
 667	6.6267e+01	6.6211	4.032691	0.000201	2.006142	0.339850	0.000020
 668	6.6367e+01	6.6325	4.055095	0.000225	2.251792	0.381464	0.000023
 669	6.6466e+01	6.6418	4.078721	0.000237	2.374617	0.402271	0.000024
 670	6.6566e+01	6.6526	4.096644	0.000180	1.801434	0.305171	0.000018
 671	6.6665e+01	6.6633	4.121899	0.000254	2.538384	0.430014	0.000025
 672	6.6764e+01	6.6713	4.143081	0.000213	2.128967	0.360657	0.000021
 673	6.6864e+01	6.6817	4.166707	0.000237	2.374617	0.402271	0.000024
 674	6.6963e+01	6.6924	4.186259	0.000197	1.965200	0.332914	0.000020
 675	6.7063e+01	6.6999	4.205812	0.000197	1.965200	0.332914	0.000020
 676	6.7162e+01	6.7092	4.229438	0.000237	2.374617	0.402271	0.000024
 677	6.7262e+01	6.7211	4.247768	0.000184	1.842375	0.312107	0.000018
 678	6.7362e+01	6.7293	4.268950	0.000213	2.128967	0.360657	0.000021
 679	6.7461e+01	6.7410	4.291761	0.000229	2.292734	0.388400	0.000023
 680	6.7561e+01	6.7514	4.313758	0.000221	2.210850	0.374528	0.000022
 681	6.7660e+01	6.7627	4.333310	0.000197	1.965200	0.332914	0.000020
 682	6.7760e+01	6.7724	4.358973	0.000258	2.579326	0.436950	0.000026
 683	6.7859e+01	6.7831	4.378932	0.000201	2.006142	0.339850	0.000020
 684	6.7959e+01	6.7912	4.401336	0.000225	2.251792	0.381464	0.000023
 685	6.8058e+01	6.7982	4.421703	0.000205	2.047084	0.346785	0.000020
 686	6.8157e+01	6.8115	4.444107	0.000225	2.251792	0.381464	0.000023
 687	6.8257e+01	6.8233	4.462030	0.000180	1.801434	0.305171	0.000018
 688	6.8356e+01	6.8322	4.484841	0.000229	2.292734	0.388400	0.000023
 689	6.8456e+01	6.8402	4.506023	0.000213	2.128967	0.360657	0.000021
 690	6.8555e+01	6.8516	4.527612	0.000217	2.169909	0.367592	0.000022
 691	6.8655e+01	6.8580	4.550424	0.000229	2.292734	0.388400	0.000023
 692	6.8754e+01	6.8709	4.565495	0.000151	1.514842	0.256621	0.000015
 693	6.8854e+01	6.8810	4.583418	0.000180	1.801434	0.305171	0.000018
 694	6.8954e+01	6.8884	4.602971	0.000197	1.965200	0.332914	0.000020
 695	6.9053e+01	6.9013	4.622116	0.000192	1.924259	0.325978	0.000019
 696	6.9153e+01	6.9105	4.638817	0.000168	1.678609	0.284364	0.000017
 697	6.9252e+01	6.9227	4.660813	0.000221	2.210850	0.374528	0.000022
 698	6.9352e+01	6.9331	4.681181	0.000205	2.047084	0.346785	0.000020
 699	6.9451e+01	6.9410	4.702362	0.000213	2.128967	0.360657	0.000021
 700	6.9550e+01	6.9494	4.723952	0.000217	2.169909	0.367592	0.000022
 701	6.9650e+01	6.9587	4.741060	0.000172	1.719550	0.291300	0.000017
 702	6.9749e+01	6.9713	4.763056	0.000221	2.210850	0.374528	0.000022
 703	6.9849e+01	6.9801	4.778535	0.000156	1.555784	0.263557	0.000016
 704	6.9948e+01	6.9883	4.795644	0.000172	1.719550	0.291300	0.000017
 705	7.0048e+01	7.0010	4.818455	0.000229	2.292734	0.388400	0.000023
 706	7.0147e+01	7.0093	4.838007	0.000197	1.965200	0.332914	0.000020
 707	7.0247e+01	7.0197	4.857153	0.000192	1.924259	0.325978	0.000019
 708	7.0347e+01	7.0306	4.877520	0.000205	2.047084	0.346785	0.000020
 709	7.0446e+01	7.0390	4.899109	0.000217	2.169909	0.367592	0.000022
 710	7.0546e+01	7.0482	4.917439	0.000184	1.842375	0.312107	0.000018
 711	7.0645e+01	7.0583	4.941472	0.000242	2.415559	0.409207	0.000024
 712	7.0745e+01	7.0676	4.960618	0.000192	1.924259	0.325978	0.000019
 713	7.0844e+01	7.0801	4.981392	0.000209	2.088025	0.353721	0.000021
 714	7.0944e+01	7.0896	5.004611	0.000233	2.333675	0.395335	0.000023
 715	7.1043e+01	7.0996	5.025792	0.000213	2.128967	0.360657	0.000021
 716	7.1142e+01	7.1114	5.046160	0.000205	2.047084	0.346785	0.000020
 717	7.1242e+01	7.1182	5.065305	0.000192	1.924259	0.325978	0.000019
 718	7.1341e+01	7.1260	5.086079	0.000209	2.088025	0.353721	0.000021
 719	7.1441e+01	7.1404	5.110520	0.000246	2.456500	0.416142	0.000025
 720	7.1540e+01	7.1481	5.131294	0.000209	2.088025	0.353721	0.000021
 721	7.1640e+01	7.1572	5.151661	0.000205	2.047084	0.346785	0.000020
 722	7.1740e+01	7.1709	5.169584	0.000180	1.801434	0.305171	0.000018
 723	7.1839e+01	7.1806	5.189544	0.000201	2.006142	0.339850	0.000020
 724	7.1939e+01	7.1924	5.209911	0.000205	2.047084	0.346785	0.000020
 725	7.2038e+01	7.1985	5.226205	0.000164	1.637667	0.277428	0.000016
 726	7.2138e+01	7.2083	5.246979	0.000209	2.088025	0.353721	0.000021
 727	7.2237e+01	7.2185	5.266125	0.000192	1.924259	0.325978	0.000019
 728	7.2337e+01	7.2257	5.288528	0.000225	2.251792	0.381464	0.000023
 729	7.2436e+01	7.2388	5.310118	0.000217	2.169909	0.367592	0.000022
 730	7.2535e+01	7.2475	5.330077	0.000201	2.006142	0.339850	0.000020
 731	7.2635e+01	7.2598	5.347593	0.000176	1.760492	0.298235	0.000018
 732	7.2734e+01	7.2683	5.371626	0.000242	2.415559	0.409207	0.000024
 733	7.2834e+01	7.2789	5.389549	0.000180	1.801434	0.305171	0.000018
 734	7.2933e+01	7.2878	5.413175	0.000237	2.374617	0.402271	0.000024
 735	7.3033e+01	7.2974	5.435172	0.000221	2.210850	0.374528	0.000022
 736	7.3132e+01	7.3080	5.453502	0.000184	1.842375	0.312107	0.000018
 737	7.3232e+01	7.3201	5.474277	0.000209	2.088025	0.353721	0.000021
 738	7.3332e+01	7.3308	5.493422	0.000192	1.924259	0.325978	0.000019
 739	7.3431e+01	7.3389	5.517048	0.000237	2.374617	0.402271	0.000024
 740	7.3531e+01	7.3471	5.536600	0.000197	1.965200	0.332914	0.000020
 741	7.3630e+01	7.3566	5.564707	0.000282	2.824976	0.478564	0.000028
 742	7.3730e+01	7.3666	5.582630	0.000180	1.801434	0.305171	0.000018
 743	7.3829e+01	7.3779	5.605034	0.000225	2.251792	0.381464	0.000023
 744	7.3928e+01	7.3878	5.627437	0.000225	2.251792	0.381464	0.000023
 745	7.4028e+01	7.3976	5.652693	0.000254	2.538384	0.430014	0.000025
 746	7.4127e+01	7.4072	5.673874	0.000213	2.128967	0.360657	0.000021
 747	7.4227e+01	7.4212	5.700759	0.000270	2.702151	0.457757	0.000027
 748	7.4326e+01	7.4290	5.721941	0.000213	2.128967	0.360657	0.000021
 749	7.4426e+01	7.4380	5.747196	0.000254	2.538384	0.430014	0.000025
 750	7.4525e+01	7.4474	5.767563	0.000205	2.047084	0.346785	0.000020
 751	7.4625e+01	7.4566	5.790374	0.000229	2.292734	0.388400	0.000023
 752	7.4725e+01	7.4666	5.812371	0.000221	2.210850	0.374528	0.000022
 753	7.4824e+01	7.4773	5.835182	0.000229	2.292734	0.388400	0.000023
 754	7.4924e+01	7.4868	5.858401	0.000233	2.333675	0.395335	0.000023
 755	7.5023e+01	7.4981	5.882434	0.000242	2.415559	0.409207	0.000024
 756	7.5123e+01	7.5065	5.905245	0.000229	2.292734	0.388400	0.000023
 757	7.5222e+01	7.5142	5.925612	0.000205	2.047084	0.346785	0.000020
 758	7.5322e+01	7.5254	5.949238	0.000237	2.374617	0.402271	0.000024
 759	7.5421e+01	7.5378	5.973271	0.000242	2.415559	0.409207	0.000024
 760	7.5520e+01	7.5452	5.995268	0.000221	2.210850	0.374528	0.000022
 761	7.5620e+01	7.5566	6.016857	0.000217	2.169909	0.367592	0.000022
 762	7.5719e+01	7.5677	6.045778	0.000291	2.906859	0.492435	0.000029
 763	7.5819e+01	7.5761	6.064109	0.000184	1.842375	0.312107	0.000018
 764	7.5918e+01	7.5858	6.088142	0.000242	2.415559	0.409207	0.000024
 765	7.6018e+01	7.5957	6.112990	0.000250	2.497442	0.423078	0.000025
 766	7.6118e+01	7.6066	6.135801	0.000229	2.292734	0.388400	0.000023
 767	7.6217e+01	7.6177	6.158612	0.000229	2.292734	0.388400	0.000023
 768	7.6317e+01	7.6270	6.179387	0.000209	2.088025	0.353721	0.000021
 769	7.6416e+01	7.6364	6.203012	0.000237	2.374617	0.402271	0.000024
 770	7.6516e+01	7.6484	6.224602	0.000217	2.169909	0.367592	0.000022
 771	7.6615e+01	7.6575	6.250671	0.000262	2.620267	0.443885	0.000026
 772	7.6715e+01	7.6678	6.273890	0.000233	2.333675	0.395335	0.000023
 773	7.6814e+01	7.6783	6.296701	0.000229	2.292734	0.388400	0.000023
 774	7.6913e+01	7.6871	6.319512	0.000229	2.292734	0.388400	0.000023
 775	7.7013e+01	7.6965	6.347619	0.000282	2.824976	0.478564	0.000028
 776	7.7112e+01	7.7059	6.371652	0.000242	2.415559	0.409207	0.000024
 777	7.7212e+01	7.7174	6.401796	0.000303	3.029684	0.513242	0.000030
 778	7.7311e+01	7.7300	6.426236	0.000246	2.456500	0.416142	0.000025
 779	7.7411e+01	7.7355	6.452713	0.000266	2.661209	0.450821	0.000027
 780	7.7510e+01	7.7437	6.474303	0.000217	2.169909	0.367592	0.000022
 781	7.7610e+01	7.7555	6.501594	0.000274	2.743092	0.464692	0.000027
 782	7.7710e+01	7.7678	6.527257	0.000258	2.579326	0.436950	0.000026
 783	7.7809e+01	7.7789	6.550068	0.000229	2.292734	0.388400	0.000023
 784	7.7909e+01	7.7833	6.576953	0.000270	2.702151	0.457757	0.000027
 785	7.8008e+01	7.7963	6.600579	0.000237	2.374617	0.402271	0.000024
 786	7.8108e+01	7.8076	6.622983	0.000225	2.251792	0.381464	0.000023
 787	7.8207e+01	7.8184	6.649460	0.000266	2.661209	0.450821	0.000027
 788	7.8306e+01	7.8263	6.677159	0.000278	2.784034	0.471628	0.000028
 789	7.8406e+01	7.8374	6.701192	0.000242	2.415559	0.409207	0.000024
 790	7.8505e+01	7.8445	6.730521	0.000295	2.947801	0.499371	0.000029
 791	7.8605e+01	7.8581	6.754147	0.000237	2.374617	0.402271	0.000024
 792	7.8704e+01	7.8664	6.775329	0.000213	2.128967	0.360657	0.000021
 793	7.8804e+01	7.8767	6.801806	0.000266	2.661209	0.450821	0.000027
 794	7.8903e+01	7.8838	6.826246	0.000246	2.456500	0.416142	0.000025
 795	7.9003e+01	7.8947	6.847836	0.000217	2.169909	0.367592	0.000022
 796	7.9103e+01	7.9038	6.869832	0.000221	2.210850	0.374528	0.000022
 797	7.9202e+01	7.9128	6.893865	0.000242	2.415559	0.409207	0.000024
 798	7.9302e+01	7.9249	6.915862	0.000221	2.210850	0.374528	0.000022
 799	7.9401e+01	7.9363	6.939488	0.000237	2.374617	0.402271	0.000024
 800	7.9501e+01	7.9433	6.963928	0.000246	2.456500	0.416142	0.000025
 801	7.9600e+01	7.9571	6.988369	0.000246	2.456500	0.416142	0.000025
 802	7.9700e+01	7.9655	7.012402	0.000242	2.415559	0.409207	0.000024
 803	7.9799e+01	7.9742	7.036843	0.000246	2.456500	0.416142	0.000025
 804	7.9898e+01	7.9851	7.059654	0.000229	2.292734	0.388400	0.000023
 805	7.9998e+01	7.9925	7.083280	0.000237	2.374617	0.402271	0.000024
 806	8.0097e+01	8.0035	7.108128	0.000250	2.497442	0.423078	0.000025
 807	8.0197e+01	8.0157	7.135012	0.000270	2.702151	0.457757	0.000027
 808	8.0296e+01	8.0225	7.159045	0.000242	2.415559	0.409207	0.000024
 809	8.0396e+01	8.0361	7.186337	0.000274	2.743092	0.464692	0.000027
 810	8.0496e+01	8.0453	7.209556	0.000233	2.333675	0.395335	0.000023
 811	8.0595e+01	8.0562	7.231552	0.000221	2.210850	0.374528	0.000022
 812	8.0695e+01	8.0655	7.255586	0.000242	2.415559	0.409207	0.000024
 813	8.0794e+01	8.0740	7.281655	0.000262	2.620267	0.443885	0.000026
 814	8.0894e+01	8.0835	7.306911	0.000254	2.538384	0.430014	0.000025
 815	8.0993e+01	8.0941	7.330537	0.000237	2.374617	0.402271	0.000024
 816	8.1093e+01	8.1057	7.355384	0.000250	2.497442	0.423078	0.000025
 817	8.1192e+01	8.1161	7.377788	0.000225	2.251792	0.381464	0.000023
 818	8.1291e+01	8.1223	7.403044	0.000254	2.538384	0.430014	0.000025
 819	8.1391e+01	8.1365	7.424633	0.000217	2.169909	0.367592	0.000022
 820	8.1490e+01	8.1445	7.451110	0.000266	2.661209	0.450821	0.000027
 821	8.1590e+01	8.1523	7.478809	0.000278	2.784034	0.471628	0.000028
 822	8.1689e+01	8.1670	7.502435	0.000237	2.374617	0.402271	0.000024
 823	8.1789e+01	8.1750	7.521580	0.000192	1.924259	0.325978	0.000019
 824	8.1888e+01	8.1844	7.549280	0.000278	2.784034	0.471628	0.000028
 825	8.1988e+01	8.1945	7.567203	0.000180	1.801434	0.305171	0.000018
 826	8.2088e+01	8.2032	7.591643	0.000246	2.456500	0.416142	0.000025
 827	8.2187e+01	8.2132	7.614047	0.000225	2.251792	0.381464	0.000023
 828	8.2287e+01	8.2233	7.634821	0.000209	2.088025	0.353721	0.000021
 829	8.2386e+01	8.2330	7.660484	0.000258	2.579326	0.436950	0.000026
 830	8.2486e+01	8.2447	7.680851	0.000205	2.047084	0.346785	0.000020
 831	8.2585e+01	8.2525	7.702440	0.000217	2.169909	0.367592	0.000022
 832	8.2684e+01	8.2642	7.722400	0.000201	2.006142	0.339850	0.000020
 833	8.2784e+01	8.2725	7.748063	0.000258	2.579326	0.436950	0.000026
 834	8.2883e+01	8.2813	7.770467	0.000225	2.251792	0.381464	0.000023
 835	8.2983e+01	8.2919	7.792870	0.000225	2.251792	0.381464	0.000023
 836	8.3082e+01	8.3041	7.812015	0.000192	1.924259	0.325978	0.000019
 837	8.3182e+01	8.3138	7.838900	0.000270	2.702151	0.457757	0.000027
 838	8.3281e+01	8.3215	7.857638	0.000188	1.883317	0.319043	0.000019
 839	8.3381e+01	8.3338	7.884115	0.000266	2.661209	0.450821	0.000027
 840	8.3481e+01	8.3408	7.904482	0.000205	2.047084	0.346785	0.000020
 841	8.3580e+01	8.3545	7.925257	0.000209	2.088025	0.353721	0.000021
 842	8.3680e+01	8.3631	7.950919	0.000258	2.579326	0.436950	0.000026
 843	8.3779e+01	8.3736	7.969657	0.000188	1.883317	0.319043	0.000019
 844	8.3879e+01	8.3838	7.993690	0.000242	2.415559	0.409207	0.000024
 845	8.3978e+01	8.3936	8.014057	0.000205	2.047084	0.346785	0.000020
 846	8.4078e+01	8.4019	8.034017	0.000201	2.006142	0.339850	0.000020
 847	8.4177e+01	8.4134	8.057236	0.000233	2.333675	0.395335	0.000023
 848	8.4276e+01	8.4229	8.081676	0.000246	2.456500	0.416142	0.000025
 849	8.4376e+01	8.4345	8.105302	0.000237	2.374617	0.402271	0.000024
 850	8.4475e+01	8.4424	8.128113	0.000229	2.292734	0.388400	0.000023
 851	8.4575e+01	8.4509	8.147666	0.000197	1.965200	0.332914	0.000020
 852	8.4674e+01	8.4597	8.168848	0.000213	2.128967	0.360657	0.000021
 853	8.4774e+01	8.4739	8.194103	0.000254	2.538384	0.430014	0.000025
 854	8.4874e+01	8.4831	8.213655	0.000197	1.965200	0.332914	0.000020
 855	8.4973e+01	8.4903	8.237688	0.000242	2.415559	0.409207	0.000024
 856	8.5073e+01	8.5021	8.258463	0.000209	2.088025	0.353721	0.000021
 857	8.5172e+01	8.5129	8.278015	0.000197	1.965200	0.332914	0.000020
 858	8.5272e+01	8.5254	8.297160	0.000192	1.924259	0.325978	0.000019
 859	8.5371e+01	8.5303	8.318342	0.000213	2.128967	0.360657	0.000021
 860	8.5471e+01	8.5412	8.335858	0.000176	1.760492	0.298235	0.000018
 861	8.5570e+01	8.5551	8.356225	0.000205	2.047084	0.346785	0.000020
 862	8.5669e+01	8.5608	8.374556	0.000184	1.842375	0.312107	0.000018
 863	8.5769e+01	8.5735	8.398589	0.000242	2.415559	0.409207	0.000024
 864	8.5868e+01	8.5802	8.418141	0.000197	1.965200	0.332914	0.000020
 865	8.5968e+01	8.5923	8.437286	0.000192	1.924259	0.325978	0.000019
 866	8.6067e+01	8.6005	8.462134	0.000250	2.497442	0.423078	0.000025
 867	8.6167e+01	8.6133	8.482094	0.000201	2.006142	0.339850	0.000020
 868	8.6266e+01	8.6204	8.502461	0.000205	2.047084	0.346785	0.000020
 869	8.6366e+01	8.6323	8.525272	0.000229	2.292734	0.388400	0.000023
 870	8.6466e+01	8.6411	8.544825	0.000197	1.965200	0.332914	0.000020
 871	8.6565e+01	8.6505	8.564784	0.000201	2.006142	0.339850	0.000020
 872	8.6665e+01	8.6605	8.583115	0.000184	1.842375	0.312107	0.000018
 873	8.6764e+01	8.6719	8.603482	0.000205	2.047084	0.346785	0.000020
 874	8.6864e+01	8.6800	8.627923	0.000246	2.456500	0.416142	0.000025
 875	8.6963e+01	8.6914	8.647068	0.000192	1.924259	0.325978	0.000019
 876	8.7063e+01	8.7000	8.668657	0.000217	2.169909	0.367592	0.000022
 877	8.7162e+01	8.7138	8.692283	0.000237	2.374617	0.402271	0.000024
 878	8.7261e+01	8.7233	8.710613	0.000184	1.842375	0.312107	0.000018
 879	8.7361e+01	8.7319	8.735054	0.000246	2.456500	0.416142	0.000025
 880	8.7460e+01	8.7409	8.759087	0.000242	2.415559	0.409207	0.000024
 881	8.7560e+01	8.7537	8.780269	0.000213	2.128967	0.360657	0.000021
 882	8.7659e+01	8.7617	8.804302	0.000242	2.415559	0.409207	0.000024
 883	8.7759e+01	8.7744	8.826706	0.000225	2.251792	0.381464	0.000023
 884	8.7859e+01	8.7799	8.849924	0.000233	2.333675	0.395335	0.000023
 885	8.7958e+01	8.7903	8.868255	0.000184	1.842375	0.312107	0.000018
 886	8.8058e+01	8.7991	8.890659	0.000225	2.251792	0.381464	0.000023
 887	8.8157e+01	8.8111	8.916321	0.000258	2.579326	0.436950	0.000026
 888	8.8257e+01	8.8216	8.938725	0.000225	2.251792	0.381464	0.000023
 889	8.8356e+01	8.8281	8.952982	0.000143	1.432959	0.242750	0.000014
 890	8.8456e+01	8.8396	8.974978	0.000221	2.210850	0.374528	0.000022
 891	8.8555e+01	8.8510	8.996568	0.000217	2.169909	0.367592	0.000022
 892	8.8654e+01	8.8603	9.019379	0.000229	2.292734	0.388400	0.000023
 893	8.8754e+01	8.8672	9.039339	0.000201	2.006142	0.339850	0.000020
 894	8.8853e+01	8.8786	9.060113	0.000209	2.088025	0.353721	0.000021
 895	8.8953e+01	8.8905	9.081702	0.000217	2.169909	0.367592	0.000022
 896	8.9052e+01	8.9014	9.103699	0.000221	2.210850	0.374528	0.000022
 897	8.9152e+01	8.9103	9.126103	0.000225	2.251792	0.381464	0.000023
 898	8.9251e+01	8.9197	9.149728	0.000237	2.374617	0.402271	0.000024
 899	8.9351e+01	8.9272	9.169281	0.000197	1.965200	0.332914	0.000020
 900	8.9451e+01	8.9392	9.191685	0.000225	2.251792	0.381464	0.000023
 901	8.9550e+01	8.9488	9.213274	0.000217	2.169909	0.367592	0.000022
 902	8.9650e+01	8.9582	9.235270	0.000221	2.210850	0.374528	0.000022
 903	8.9749e+01	8.9688	9.256452	0.000213	2.128967	0.360657	0.000021
 904	8.9849e+01	8.9806	9.278449	0.000221	2.210850	0.374528	0.000022
 905	8.9948e+01	8.9886	9.302075	0.000237	2.374617	0.402271	0.000024
 906	9.0047e+01	9.0009	9.326108	0.000242	2.415559	0.409207	0.000024
 907	9.0147e+01	9.0078	9.350548	0.000246	2.456500	0.416142	0.000025
 908	9.0246e+01	9.0192	9.375396	0.000250	2.497442	0.423078	0.000025
 909	9.0346e+01	9.0274	9.395763	0.000205	2.047084	0.346785	0.000020
 910	9.0445e+01	9.0371	9.423463	0.000278	2.784034	0.471628	0.000028
 911	9.0545e+01	9.0479	9.446681	0.000233	2.333675	0.395335	0.000023
 912	9.0644e+01	9.0588	9.472751	0.000262	2.620267	0.443885	0.000026
 913	9.0744e+01	9.0683	9.496377	0.000237	2.374617	0.402271	0.000024
 914	9.0844e+01	9.0784	9.522039	0.000258	2.579326	0.436950	0.000026
 915	9.0943e+01	9.0887	9.546073	0.000242	2.415559	0.409207	0.000024
 916	9.1043e+01	9.0992	9.566440	0.000205	2.047084	0.346785	0.000020
 917	9.1142e+01	9.1114	9.593324	0.000270	2.702151	0.457757	0.000027
 918	9.1242e+01	9.1136	9.622653	0.000295	2.947801	0.499371	0.000029
 919	9.1341e+01	9.1281	9.642613	0.000201	2.006142	0.339850	0.000020
 920	9.1441e+01	9.1360	9.667461	0.000250	2.497442	0.423078	0.000025
 921	9.1540e+01	9.1435	9.693938	0.000266	2.661209	0.450821	0.000027
 922	9.1639e+01	9.1593	9.721637	0.000278	2.784034	0.471628	0.000028
 923	9.1739e+01	9.1682	9.746893	0.000254	2.538384	0.430014	0.000025
 924	9.1838e+01	9.1773	9.770926	0.000242	2.415559	0.409207	0.000024
 925	9.1938e+01	9.1872	9.793330	0.000225	2.251792	0.381464	0.000023
 926	9.2037e+01	9.1958	9.818992	0.000258	2.579326	0.436950	0.000026
 927	9.2137e+01	9.2066	9.846691	0.000278	2.784034	0.471628	0.000028
 928	9.2237e+01	9.2200	9.871947	0.000254	2.538384	0.430014	0.000025
 929	9.2336e+01	9.2267	9.898424	0.000266	2.661209	0.450821	0.000027
 930	9.2436e+01	9.2404	9.927345	0.000291	2.906859	0.492435	0.000029
 931	9.2535e+01	9.2463	9.954230	0.000270	2.702151	0.457757	0.000027
 932	9.2635e+01	9.2555	9.979078	0.000250	2.497442	0.423078	0.000025
 933	9.2734e+01	9.2695	10.007184	0.000282	2.824976	0.478564	0.000028
 934	9.2834e+01	9.2779	10.034069	0.000270	2.702151	0.457757	0.000027
 935	9.2933e+01	9.2871	10.058510	0.000246	2.456500	0.416142	0.000025
 936	9.3032e+01	9.2938	10.082950	0.000246	2.456500	0.416142	0.000025
 937	9.3132e+01	9.3079	10.109835	0.000270	2.702151	0.457757	0.000027
 938	9.3231e+01	9.3172	10.137534	0.000278	2.784034	0.471628	0.000028
 939	9.3331e+01	9.3281	10.161567	0.000242	2.415559	0.409207	0.000024
 940	9.3430e+01	9.3363	10.190489	0.000291	2.906859	0.492435	0.000029
 941	9.3530e+01	9.3469	10.216151	0.000258	2.579326	0.436950	0.000026
 942	9.3629e+01	9.3565	10.244258	0.000282	2.824976	0.478564	0.000028
 943	9.3729e+01	9.3701	10.275623	0.000315	3.152509	0.534049	0.000032
 944	9.3829e+01	9.3762	10.304952	0.000295	2.947801	0.499371	0.000029
 945	9.3928e+01	9.3877	10.334281	0.000295	2.947801	0.499371	0.000029
 946	9.4028e+01	9.3964	10.365646	0.000315	3.152509	0.534049	0.000032
 947	9.4127e+01	9.4071	10.390901	0.000254	2.538384	0.430014	0.000025
 948	9.4227e+01	9.4189	10.421452	0.000307	3.070626	0.520178	0.000031
 949	9.4326e+01	9.4275	10.448336	0.000270	2.702151	0.457757	0.000027
 950	9.4425e+01	9.4370	10.473999	0.000258	2.579326	0.436950	0.000026
 951	9.4525e+01	9.4467	10.500476	0.000266	2.661209	0.450821	0.000027
 952	9.4624e+01	9.4556	10.530212	0.000299	2.988742	0.506307	0.000030
 953	9.4724e+01	9.4637	10.556690	0.000266	2.661209	0.450821	0.000027
 954	9.4823e+01	9.4775	10.586426	0.000299	2.988742	0.506307	0.000030
 955	9.4923e+01	9.4829	10.613718	0.000274	2.743092	0.464692	0.000027
 956	9.5022e+01	9.4934	10.645898	0.000323	3.234392	0.547921	0.000032
 957	9.5122e+01	9.5056	10.674412	0.000287	2.865917	0.485500	0.000029
 958	9.5222e+01	9.5166	10.698037	0.000237	2.374617	0.402271	0.000024
 959	9.5321e+01	9.5267	10.730217	0.000323	3.234392	0.547921	0.000032
 960	9.5421e+01	9.5398	10.760361	0.000303	3.029684	0.513242	0.000030
 961	9.5520e+01	9.5449	10.783579	0.000233	2.333675	0.395335	0.000023
 962	9.5620e+01	9.5581	10.810464	0.000270	2.702151	0.457757	0.000027
 963	9.5719e+01	9.5682	10.839385	0.000291	2.906859	0.492435	0.000029
 964	9.5819e+01	9.5776	10.867492	0.000282	2.824976	0.478564	0.000028
 965	9.5918e+01	9.5868	10.890303	0.000229	2.292734	0.388400	0.000023
 966	9.6017e+01	9.5949	10.918002	0.000278	2.784034	0.471628	0.000028
 967	9.6117e+01	9.6045	10.946109	0.000282	2.824976	0.478564	0.000028
 968	9.6216e+01	9.6179	10.974216	0.000282	2.824976	0.478564	0.000028
 969	9.6316e+01	9.6240	11.000286	0.000262	2.620267	0.443885	0.000026
 970	9.6415e+01	9.6365	11.030836	0.000307	3.070626	0.520178	0.000031
 971	9.6515e+01	9.6460	11.058943	0.000282	2.824976	0.478564	0.000028
 972	9.6615e+01	9.6549	11.089086	0.000303	3.029684	0.513242	0.000030
 973	9.6714e+01	9.6634	11.118822	0.000299	2.988742	0.506307	0.000030
 974	9.6814e+01	9.6768	11.148966	0.000303	3.029684	0.513242	0.000030
 975	9.6913e+01	9.6851	11.176665	0.000278	2.784034	0.471628	0.000028
 976	9.7013e+01	9.6927	11.205586	0.000291	2.906859	0.492435	0.000029
 977	9.7112e+01	9.7079	11.233693	0.000282	2.824976	0.478564	0.000028
 978	9.7212e+01	9.7144	11.260985	0.000274	2.743092	0.464692	0.000027
 979	9.7311e+01	9.7280	11.290313	0.000295	2.947801	0.499371	0.000029
 980	9.7410e+01	9.7363	11.313532	0.000233	2.333675	0.395335	0.000023
 981	9.7510e+01	9.7467	11.340009	0.000266	2.661209	0.450821	0.000027
 982	9.7609e+01	9.7559	11.371375	0.000315	3.152509	0.534049	0.000032
 983	9.7709e+01	9.7663	11.403147	0.000319	3.193451	0.540985	0.000032
 984	9.7808e+01	9.7758	11.432069	0.000291	2.906859	0.492435	0.000029
 985	9.7908e+01	9.7881	11.458546	0.000266	2.661209	0.450821	0.000027
 986	9.8007e+01	9.7939	11.486245	0.000278	2.784034	0.471628	0.000028
 987	9.8107e+01	9.8038	11.516389	0.000303	3.029684	0.513242	0.000030
 988	9.8207e+01	9.8163	11.540829	0.000246	2.456500	0.416142	0.000025
 989	9.8306e+01	9.8250	11.569343	0.000287	2.865917	0.485500	0.000029
 990	9.8406e+01	9.8352	11.595413	0.000262	2.620267	0.443885	0.000026
 991	9.8505e+01	9.8462	11.626778	0.000315	3.152509	0.534049	0.000032
 992	9.8605e+01	9.8535	11.651219	0.000246	2.456500	0.416142	0.000025
 993	9.8704e+01	9.8645	11.674438	0.000233	2.333675	0.395335	0.000023
 994	9.8803e+01	9.8756	11.704988	0.000307	3.070626	0.520178	0.000031
 995	9.8903e+01	9.8853	11.731873	0.000270	2.702151	0.457757	0.000027
 996	9.9002e+01	9.8950	11.755906	0.000242	2.415559	0.409207	0.000024
 997	9.9102e+01	9.9026	11.785642	0.000299	2.988742	0.506307	0.000030
 998	9.9201e+01	9.9121	11.810897	0.000254	2.538384	0.430014	0.000025
 999	9.9301e+01	9.9225	11.836153	0.000254	2.538384	0.430014	0.000025
1000	9.9400e+01	9.9323	11.861815	0.000258	2.579326	0.436950	0.000026
1001	9.9500e+01	9.9463	11.890329	0.000287	2.865917	0.485500	0.000029
1002	9.9600e+01	9.9573	11.918843	0.000287	2.865917	0.485500	0.000029
1003	9.9699e+01	9.9641	11.944506	0.000258	2.579326	0.436950	0.000026
1004	9.9799e+01	9.9780	11.973020	0.000287	2.865917	0.485500	0.000029
1005	9.9898e+01	9.9854	11.997460	0.000246	2.456500	0.416142	0.000025
1006	9.9998e+01	9.9951	12.028011	0.000307	3.070626	0.520178	0.000031
1007	1.0010e+02	9.9843	12.021493	0.000066	0.655067	0.110971	-0.000007
1008	1.0020e+02	9.9774	12.012125	0.000094	0.941659	0.159521	-0.000009
1009	1.0030e+02	9.9640	12.006014	0.000061	0.614125	0.104036	-0.000006
1010	1.0040e+02	9.9563	11.997460	0.000086	0.859775	0.145650	-0.000009
1011	1.0050e+02	9.9438	11.990535	0.000070	0.696008	0.117907	-0.000007
1012	1.0059e+02	9.9348	11.982388	0.000082	0.818833	0.138714	-0.000008
1013	1.0069e+02	9.9268	11.969761	0.000127	1.269192	0.215007	-0.000013
1014	1.0079e+02	9.9131	11.960392	0.000094	0.941659	0.159521	-0.000009
1015	1.0089e+02	9.9014	11.953467	0.000070	0.696008	0.117907	-0.000007
1016	1.0099e+02	9.8940	11.943691	0.000098	0.982600	0.166457	-0.000010
1017	1.0109e+02	9.8830	11.933915	0.000098	0.982600	0.166457	-0.000010
1018	1.0119e+02	9.8743	11.924546	0.000094	0.941659	0.159521	-0.000009
1019	1.0129e+02	9.8646	11.912326	0.000123	1.228250	0.208071	-0.000012
1020	1.0139e+02	9.8560	11.905808	0.000066	0.655067	0.110971	-0.000007
1021	1.0149e+02	9.8477	11.895625	0.000102	1.023542	0.173393	-0.000010
1022	1.0159e+02	9.8340	11.886256	0.000094	0.941659	0.159521	-0.000009
1023	1.0169e+02	9.8242	11.874850	0.000115	1.146367	0.194200	-0.000011
1024	1.0179e+02	9.8176	11.864666	0.000102	1.023542	0.173393	-0.000010
1025	1.0189e+02	9.8056	11.849595	0.000151	1.514842	0.256621	-0.000015
1026	1.0199e+02	9.7964	11.841041	0.000086	0.859775	0.145650	-0.000009
1027	1.0209e+02	9.7856	11.825154	0.000160	1.596725	0.270493	-0.000016
1028	1.0219e+02	9.7743	11.812934	0.000123	1.228250	0.208071	-0.000012
1029	1.0229e+02	9.7659	11.800306	0.000127	1.269192	0.215007	-0.000013
1030	1.0239e+02	9.7549	11.786864	0.000135	1.351075	0.228878	-0.000014
1031	1.0248e+02	9.7440	11.776273	0.000106	1.064484	0.180328	-0.000011
1032	1.0258e+02	9.7352	11.763646	0.000127	1.269192	0.215007	-0.000013
1033	1.0268e+02	9.7241	11.751018	0.000127	1.269192	0.215007	-0.000013
1034	1.0278e+02	9.7134	11.738390	0.000127	1.269192	0.215007	-0.000013
1035	1.0288e+02	9.7034	11.728207	0.000102	1.023542	0.173393	-0.000010
1036	1.0298e+02	9.6937	11.714764	0.000135	1.351075	0.228878	-0.000014
1037	1.0308e+02	9.6877	11.697249	0.000176	1.760492	0.298235	-0.000018
1038	1.0318e+02	9.6759	11.686250	0.000111	1.105425	0.187264	-0.000011
1039	1.0328e+02	9.6641	11.672401	0.000139	1.392017	0.235814	-0.000014
1040	1.0338e+02	9.6558	11.658551	0.000139	1.392017	0.235814	-0.000014
1041	1.0348e+02	9.6451	11.644702	0.000139	1.392017	0.235814	-0.000014
1042	1.0358e+02	9.6345	11.628815	0.000160	1.596725	0.270493	-0.000016
1043	1.0368e+02	9.6244	11.615373	0.000135	1.351075	0.228878	-0.000014
1044	1.0378e+02	9.6143	11.602745	0.000127	1.269192	0.215007	-0.000013
1045	1.0388e+02	9.6056	11.592154	0.000106	1.064484	0.180328	-0.000011
1046	1.0398e+02	9.5969	11.577490	0.000147	1.473900	0.249685	-0.000015
1047	1.0408e+02	9.5862	11.569750	0.000078	0.777892	0.131778	-0.000008
1048	1.0418e+02	9.5811	11.553457	0.000164	1.637667	0.277428	-0.000016
1049	1.0428e+02	9.5686	11.542866	0.000106	1.064484	0.180328	-0.000011
1050	1.0438e+02	9.5590	11.531460	0.000115	1.146367	0.194200	-0.000011
1051	1.0447e+02	9.5459	11.518425	0.000131	1.310134	0.221943	-0.000013
1052	1.0457e+02	9.5354	11.501724	0.000168	1.678609	0.284364	-0.000017
1053	1.0467e+02	9.5251	11.490726	0.000111	1.105425	0.187264	-0.000011
1054	1.0477e+02	9.5173	11.474025	0.000168	1.678609	0.284364	-0.000017
1055	1.0487e+02	9.5069	11.463841	0.000102	1.023542	0.173393	-0.000010
1056	1.0497e+02	9.4971	11.447955	0.000160	1.596725	0.270493	-0.000016
1057	1.0507e+02	9.4851	11.429625	0.000184	1.842375	0.312107	-0.000018
1058	1.0517e+02	9.4749	11.417404	0.000123	1.228250	0.208071	-0.000012
1059	1.0527e+02	9.4643	11.400296	0.000172	1.719550	0.291300	-0.000017
1060	1.0537e+02	9.4589	11.388076	0.000123	1.228250	0.208071	-0.000012
1061	1.0547e+02	9.4494	11.374226	0.000139	1.392017	0.235814	-0.000014
1062	1.0557e+02	9.4373	11.356303	0.000180	1.801434	0.305171	-0.000018
1063	1.0567e+02	9.4268	11.341231	0.000151	1.514842	0.256621	-0.000015
1064	1.0577e+02	9.4196	11.333492	0.000078	0.777892	0.131778	-0.000008
1065	1.0587e+02	9.4093	11.318420	0.000151	1.514842	0.256621	-0.000015
1066	1.0597e+02	9.4003	11.301312	0.000172	1.719550	0.291300	-0.000017
1067	1.0607e+02	9.3885	11.290721	0.000106	1.064484	0.180328	-0.000011
1068	1.0617e+02	9.3750	11.271983	0.000188	1.883317	0.319043	-0.000019
1069	1.0627e+02	9.3658	11.257726	0.000143	1.432959	0.242750	-0.000014
1070	1.0637e+02	9.3558	11.243469	0.000143	1.432959	0.242750	-0.000014
1071	1.0647e+02	9.3463	11.228805	0.000147	1.473900	0.249685	-0.000015
1072	1.0656e+02	9.3365	11.212918	0.000160	1.596725	0.270493	-0.000016
1073	1.0666e+02	9.3265	11.202328	0.000106	1.064484	0.180328	-0.000011
1074	1.0676e+02	9.3160	11.184812	0.000176	1.760492	0.298235	-0.000018
1075	1.0686e+02	9.3073	11.171777	0.000131	1.310134	0.221943	-0.000013
1076	1.0696e+02	9.3000	11.161186	0.000106	1.064484	0.180328	-0.000011
1077	1.0706e+02	9.2881	11.144078	0.000172	1.719550	0.291300	-0.000017
1078	1.0716e+02	9.2801	11.135523	0.000086	0.859775	0.145650	-0.000009
1079	1.0726e+02	9.2669	11.119230	0.000164	1.637667	0.277428	-0.000016
1080	1.0736e+02	9.2568	11.104973	0.000143	1.432959	0.242750	-0.000014
1081	1.0746e+02	9.2460	11.091938	0.000131	1.310134	0.221943	-0.000013
1082	1.0756e+02	9.2374	11.080939	0.000111	1.105425	0.187264	-0.000011
1083	1.0766e+02	9.2269	11.066275	0.000147	1.473900	0.249685	-0.000015
1084	1.0776e+02	9.2191	11.052833	0.000135	1.351075	0.228878	-0.000014
1085	1.0786e+02	9.2091	11.043464	0.000094	0.941659	0.159521	-0.000009
1086	1.0796e+02	9.1980	11.026763	0.000168	1.678609	0.284364	-0.000017
1087	1.0806e+02	9.1871	11.016172	0.000106	1.064484	0.180328	-0.000011
1088	1.0816e+02	9.1782	11.001915	0.000143	1.432959	0.242750	-0.000014
1089	1.0826e+02	9.1672	10.990102	0.000119	1.187309	0.201136	-0.000012
1090	1.0836e+02	9.1586	10.973401	0.000168	1.678609	0.284364	-0.000017
1091	1.0845e+02	9.1474	10.964439	0.000090	0.900717	0.152586	-0.000009
1092	1.0855e+02	9.1360	10.950590	0.000139	1.392017	0.235814	-0.000014
1093	1.0865e+02	9.1263	10.937148	0.000135	1.351075	0.228878	-0.000014
1094	1.0875e+02	9.1193	10.918817	0.000184	1.842375	0.312107	-0.000018
1095	1.0885e+02	9.1083	10.910670	0.000082	0.818833	0.138714	-0.000008
1096	1.0895e+02	9.0967	10.899672	0.000111	1.105425	0.187264	-0.000011
1097	1.0905e+02	9.0894	10.884600	0.000151	1.514842	0.256621	-0.000015
1098	1.0915e+02	9.0771	10.872380	0.000123	1.228250	0.208071	-0.000012
1099	1.0925e+02	9.0684	10.858123	0.000143	1.432959	0.242750	-0.000014
1100	1.0935e+02	9.0610	10.844273	0.000139	1.392017	0.235814	-0.000014
1101	1.0945e+02	9.0479	10.832460	0.000119	1.187309	0.201136	-0.000012
1102	1.0955e+02	9.0430	10.816574	0.000160	1.596725	0.270493	-0.000016
1103	1.0965e+02	9.0292	10.803946	0.000127	1.269192	0.215007	-0.000013
1104	1.0975e+02	9.0168	10.789282	0.000147	1.473900	0.249685	-0.000015
1105	1.0985e+02	9.0088	10.778691	0.000106	1.064484	0.180328	-0.000011
1106	1.0995e+02	8.9990	10.765249	0.000135	1.351075	0.228878	-0.000014
1107	1.1005e+02	8.9893	10.750992	0.000143	1.432959	0.242750	-0.000014
1108	1.1015e+02	8.9783	10.733476	0.000176	1.760492	0.298235	-0.000018
1109	1.1025e+02	8.9652	10.725329	0.000082	0.818833	0.138714	-0.000008
1110	1.1035e+02	8.9572	10.712702	0.000127	1.269192	0.215007	-0.000013
1111	1.1044e+02	8.9498	10.700481	0.000123	1.228250	0.208071	-0.000012
1112	1.1054e+02	8.9371	10.686632	0.000139	1.392017	0.235814	-0.000014
1113	1.1064e+02	8.9289	10.678485	0.000082	0.818833	0.138714	-0.000008
1114	1.1074e+02	8.9204	10.666265	0.000123	1.228250	0.208071	-0.000012
1115	1.1084e+02	8.9120	10.649971	0.000164	1.637667	0.277428	-0.000016
1116	1.1094e+02	8.8989	10.639380	0.000106	1.064484	0.180328	-0.000011
1117	1.1104e+02	8.8900	10.630011	0.000094	0.941659	0.159521	-0.000009
1118	1.1114e+02	8.8799	10.619420	0.000106	1.064484	0.180328	-0.000011
1119	1.1124e+02	8.8697	10.602312	0.000172	1.719550	0.291300	-0.000017
1120	1.1134e+02	8.8599	10.587240	0.000151	1.514842	0.256621	-0.000015
1121	1.1144e+02	8.8480	10.577057	0.000102	1.023542	0.173393	-0.000010
1122	1.1154e+02	8.8382	10.566058	0.000111	1.105425	0.187264	-0.000011
1123	1.1164e+02	8.8297	10.553431	0.000127	1.269192	0.215007	-0.000013
1124	1.1174e+02	8.8189	10.542025	0.000115	1.146367	0.194200	-0.000011
1125	1.1184e+02	8.8119	10.529805	0.000123	1.228250	0.208071	-0.000012
1126	1.1194e+02	8.8013	10.517585	0.000123	1.228250	0.208071	-0.000012
1127	1.1204e+02	8.7891	10.509030	0.000086	0.859775	0.145650	-0.000009
1128	1.1214e+02	8.7807	10.492737	0.000164	1.637667	0.277428	-0.000016
1129	1.1224e+02	8.7709	10.478480	0.000143	1.432959	0.242750	-0.000014
1130	1.1234e+02	8.7632	10.466667	0.000119	1.187309	0.201136	-0.000012
1131	1.1244e+02	8.7507	10.453225	0.000135	1.351075	0.228878	-0.000014
1132	1.1253e+02	8.7396	10.435301	0.000180	1.801434	0.305171	-0.000018
1133	1.1263e+02	8.7305	10.422267	0.000131	1.310134	0.221943	-0.000013
1134	1.1273e+02	8.7207	10.404343	0.000180	1.801434	0.305171	-0.000018
1135	1.1283e+02	8.7098	10.392938	0.000115	1.146367	0.194200	-0.000011
1136	1.1293e+02	8.7021	10.377051	0.000160	1.596725	0.270493	-0.000016
1137	1.1303e+02	8.6914	10.363609	0.000135	1.351075	0.228878	-0.000014
1138	1.1313e+02	8.6829	10.346093	0.000176	1.760492	0.298235	-0.000018
1139	1.1323e+02	8.6719	10.332651	0.000135	1.351075	0.228878	-0.000014
1140	1.1333e+02	8.6616	10.321246	0.000115	1.146367	0.194200	-0.000011
1141	1.1343e+02	8.6517	10.309840	0.000115	1.146367	0.194200	-0.000011
1142	1.1353e+02	8.6408	10.294361	0.000156	1.555784	0.263557	-0.000016
1143	1.1363e+02	8.6316	10.279697	0.000147	1.473900	0.249685	-0.000015
1144	1.1373e+02	8.6187	10.266254	0.000135	1.351075	0.228878	-0.000014
1145	1.1383e+02	8.6118	10.251183	0.000151	1.514842	0.256621	-0.000015
1146	1.1393e+02	8.6029	10.242221	0.000090	0.900717	0.152586	-0.000009
1147	1.1403e+02	8.5918	10.225520	0.000168	1.678609	0.284364	-0.000017
1148	1.1413e+02	8.5828	10.212485	0.000131	1.310134	0.221943	-0.000013
1149	1.1423e+02	8.5703	10.199043	0.000135	1.351075	0.228878	-0.000014
1150	1.1433e+02	8.5629	10.185600	0.000135	1.351075	0.228878	-0.000014
1151	1.1442e+02	8.5511	10.171751	0.000139	1.392017	0.235814	-0.000014
1152	1.1452e+02	8.5426	10.161160	0.000106	1.064484	0.180328	-0.000011
1153	1.1462e+02	8.5346	10.144459	0.000168	1.678609	0.284364	-0.000017
1154	1.1472e+02	8.5249	10.129795	0.000147	1.473900	0.249685	-0.000015
1155	1.1482e+02	8.5115	10.117982	0.000119	1.187309	0.201136	-0.000012
1156	1.1492e+02	8.5034	10.102095	0.000160	1.596725	0.270493	-0.000016
1157	1.1502e+02	8.4912	10.086209	0.000160	1.596725	0.270493	-0.000016
1158	1.1512e+02	8.4827	10.067879	0.000184	1.842375	0.312107	-0.000018
1159	1.1522e+02	8.4702	10.051585	0.000164	1.637667	0.277428	-0.000016
1160	1.1532e+02	8.4622	10.035291	0.000164	1.637667	0.277428	-0.000016
1161	1.1542e+02	8.4542	10.022256	0.000131	1.310134	0.221943	-0.000013
1162	1.1552e+02	8.4410	10.004740	0.000176	1.760492	0.298235	-0.000018
1163	1.1562e+02	8.4327	9.990483	0.000143	1.432959	0.242750	-0.000014
1164	1.1572e+02	8.4229	9.974190	0.000164	1.637667	0.277428	-0.000016
1165	1.1582e+02	8.4126	9.957489	0.000168	1.678609	0.284364	-0.000017
1166	1.1592e+02	8.4045	9.942417	0.000151	1.514842	0.256621	-0.000015
1167	1.1602e+02	8.3942	9.922865	0.000197	1.965200	0.332914	-0.000020
1168	1.1612e+02	8.3826	9.908200	0.000147	1.473900	0.249685	-0.000015
1169	1.1622e+02	8.3730	9.885796	0.000225	2.251792	0.381464	-0.000023
1170	1.1632e+02	8.3643	9.875205	0.000106	1.064484	0.180328	-0.000011
1171	1.1642e+02	8.3532	9.856468	0.000188	1.883317	0.319043	-0.000019
1172	1.1651e+02	8.3424	9.840581	0.000160	1.596725	0.270493	-0.000016
1173	1.1661e+02	8.3325	9.822251	0.000184	1.842375	0.312107	-0.000018
1174	1.1671e+02	8.3260	9.807587	0.000147	1.473900	0.249685	-0.000015
1175	1.1681e+02	8.3130	9.790886	0.000168	1.678609	0.284364	-0.000017
1176	1.1691e+02	8.3028	9.773370	0.000176	1.760492	0.298235	-0.000018
1177	1.1701e+02	8.2943	9.750966	0.000225	2.251792	0.381464	-0.000023
1178	1.1711e+02	8.2841	9.737931	0.000131	1.310134	0.221943	-0.000013
1179	1.1721e+02	8.2748	9.721230	0.000168	1.678609	0.284364	-0.000017
1180	1.1731e+02	8.2661	9.703307	0.000180	1.801434	0.305171	-0.000018
1181	1.1741e+02	8.2545	9.684569	0.000188	1.883317	0.319043	-0.000019
1182	1.1751e+02	8.2449	9.667053	0.000176	1.760492	0.298235	-0.000018
1183	1.1761e+02	8.2349	9.654833	0.000123	1.228250	0.208071	-0.000012
1184	1.1771e+02	8.2257	9.632429	0.000225	2.251792	0.381464	-0.000023
1185	1.1781e+02	8.2166	9.616543	0.000160	1.596725	0.270493	-0.000016
1186	1.1791e+02	8.2037	9.601064	0.000156	1.555784	0.263557	-0.000016
1187	1.1801e+02	8.1956	9.580289	0.000209	2.088025	0.353721	-0.000021
1188	1.1811e+02	8.1822	9.566847	0.000135	1.351075	0.228878	-0.000014
1189	1.1821e+02	8.1761	9.546887	0.000201	2.006142	0.339850	-0.000020
1190	1.1831e+02	8.1610	9.526928	0.000201	2.006142	0.339850	-0.000020
1191	1.1841e+02	8.1523	9.509412	0.000176	1.760492	0.298235	-0.000018
1192	1.1850e+02	8.1416	9.492711	0.000168	1.678609	0.284364	-0.000017
1193	1.1860e+02	8.1358	9.477232	0.000156	1.555784	0.263557	-0.000016
1194	1.1870e+02	8.1204	9.455643	0.000217	2.169909	0.367592	-0.000022
1195	1.1880e+02	8.1152	9.439349	0.000164	1.637667	0.277428	-0.000016
1196	1.1890e+02	8.1039	9.414094	0.000254	2.538384	0.430014	-0.000025
1197	1.1900e+02	8.0959	9.394541	0.000197	1.965200	0.332914	-0.000020
1198	1.1910e+02	8.0828	9.373767	0.000209	2.088025	0.353721	-0.000021
1199	1.1920e+02	8.0743	9.355436	0.000184	1.842375	0.312107	-0.000018
1200	1.1930e+02	8.0652	9.340365	0.000151	1.514842	0.256621	-0.000015
1201	1.1940e+02	8.0544	9.317146	0.000233	2.333675	0.395335	-0.000023
1202	1.1950e+02	8.0453	9.304111	0.000131	1.310134	0.221943	-0.000013
1203	1.1960e+02	8.0347	9.280893	0.000233	2.333675	0.395335	-0.000023
1204	1.1970e+02	8.0267	9.265006	0.000160	1.596725	0.270493	-0.000016
1205	1.1980e+02	8.0139	9.243010	0.000221	2.210850	0.374528	-0.000022
1206	1.1990e+02	8.0073	9.218977	0.000242	2.415559	0.409207	-0.000024
1207	1.2000e+02	7.9954	9.203905	0.000151	1.514842	0.256621	-0.000015
1208	1.2010e+02	7.9865	9.182723	0.000213	2.128967	0.360657	-0.000021
1209	1.2020e+02	7.9762	9.161949	0.000209	2.088025	0.353721	-0.000021
1210	1.2030e+02	7.9655	9.142396	0.000197	1.965200	0.332914	-0.000020
1211	1.2039e+02	7.9552	9.125695	0.000168	1.678609	0.284364	-0.000017
1212	1.2049e+02	7.9412	9.106143	0.000197	1.965200	0.332914	-0.000020
1213	1.2059e+02	7.9342	9.087812	0.000184	1.842375	0.312107	-0.000018
1214	1.2069e+02	7.9259	9.066223	0.000217	2.169909	0.367592	-0.000022
1215	1.2079e+02	7.9144	9.054410	0.000119	1.187309	0.201136	-0.000012
1216	1.2089e+02	7.9055	9.036080	0.000184	1.842375	0.312107	-0.000018
1217	1.2099e+02	7.8979	9.016527	0.000197	1.965200	0.332914	-0.000020
1218	1.2109e+02	7.8857	8.998197	0.000184	1.842375	0.312107	-0.000018
1219	1.2119e+02	7.8767	8.977015	0.000213	2.128967	0.360657	-0.000021
1220	1.2129e+02	7.8662	8.959499	0.000176	1.760492	0.298235	-0.000018
1221	1.2139e+02	7.8549	8.941984	0.000176	1.760492	0.298235	-0.000018
1222	1.2149e+02	7.8455	8.923653	0.000184	1.842375	0.312107	-0.000018
1223	1.2159e+02	7.8370	8.903693	0.000201	2.006142	0.339850	-0.000020
1224	1.2169e+02	7.8227	8.882919	0.000209	2.088025	0.353721	-0.000021
1225	1.2179e+02	7.8168	8.864589	0.000184	1.842375	0.312107	-0.000018
1226	1.2189e+02	7.8062	8.843407	0.000213	2.128967	0.360657	-0.000021
1227	1.2199e+02	7.7943	8.821818	0.000217	2.169909	0.367592	-0.000022
1228	1.2209e+02	7.7866	8.805524	0.000164	1.637667	0.277428	-0.000016
1229	1.2219e+02	7.7750	8.786786	0.000188	1.883317	0.319043	-0.000019
1230	1.2229e+02	7.7663	8.768863	0.000180	1.801434	0.305171	-0.000018
1231	1.2239e+02	7.7547	8.746052	0.000229	2.292734	0.388400	-0.000023
1232	1.2248e+02	7.7457	8.726499	0.000197	1.965200	0.332914	-0.000020
1233	1.2258e+02	7.7372	8.710206	0.000164	1.637667	0.277428	-0.000016
1234	1.2268e+02	7.7268	8.687802	0.000225	2.251792	0.381464	-0.000023
1235	1.2278e+02	7.7168	8.671508	0.000164	1.637667	0.277428	-0.000016
1236	1.2288e+02	7.7066	8.650326	0.000213	2.128967	0.360657	-0.000021
1237	1.2298e+02	7.6962	8.629959	0.000205	2.047084	0.346785	-0.000020
1238	1.2308e+02	7.6846	8.612851	0.000172	1.719550	0.291300	-0.000017
1239	1.2318e+02	7.6794	8.591262	0.000217	2.169909	0.367592	-0.000022
1240	1.2328e+02	7.6644	8.575375	0.000160	1.596725	0.270493	-0.000016
1241	1.2338e+02	7.6558	8.557045	0.000184	1.842375	0.312107	-0.000018
1242	1.2348e+02	7.6434	8.537493	0.000197	1.965200	0.332914	-0.000020
1243	1.2358e+02	7.6367	8.519977	0.000176	1.760492	0.298235	-0.000018
1244	1.2368e+02	7.6263	8.503683	0.000164	1.637667	0.277428	-0.000016
1245	1.2378e+02	7.6176	8.489019	0.000147	1.473900	0.249685	-0.000015
1246	1.2388e+02	7.6051	8.471503	0.000176	1.760492	0.298235	-0.000018
1247	1.2398e+02	7.5985	8.450729	0.000209	2.088025	0.353721	-0.000021
1248	1.2408e+02	7.5861	8.434435	0.000164	1.637667	0.277428	-0.000016
1249	1.2418e+02	7.5734	8.419771	0.000147	1.473900	0.249685	-0.000015
1250	1.2428e+02	7.5656	8.406328	0.000135	1.351075	0.228878	-0.000014
1251	1.2438e+02	7.5565	8.386776	0.000197	1.965200	0.332914	-0.000020
1252	1.2447e+02	7.5481	8.371704	0.000151	1.514842	0.256621	-0.000015
1253	1.2457e+02	7.5363	8.355818	0.000160	1.596725	0.270493	-0.000016
1254	1.2467e+02	7.5256	8.336673	0.000192	1.924259	0.325978	-0.000019
1255	1.2477e+02	7.5179	8.322416	0.000143	1.432959	0.242750	-0.000014
1256	1.2487e+02	7.5061	8.304085	0.000184	1.842375	0.312107	-0.000018
1257	1.2497e+02	7.5000	8.287384	0.000168	1.678609	0.284364	-0.000017
1258	1.2507e+02	7.4904	8.267424	0.000201	2.006142	0.339850	-0.000020
1259	1.2517e+02	7.4773	8.252760	0.000147	1.473900	0.249685	-0.000015
1260	1.2527e+02	7.4700	8.235244	0.000176	1.760492	0.298235	-0.000018
1261	1.2537e+02	7.4580	8.217729	0.000176	1.760492	0.298235	-0.000018
1262	1.2547e+02	7.4477	8.198176	0.000197	1.965200	0.332914	-0.000020
1263	1.2557e+02	7.4397	8.182697	0.000156	1.555784	0.263557	-0.000016
1264	1.2567e+02	7.4303	8.168033	0.000147	1.473900	0.249685	-0.000015
1265	1.2577e+02	7.4197	8.147666	0.000205	2.047084	0.346785	-0.000020
1266	1.2587e+02	7.4073	8.132594	0.000151	1.514842	0.256621	-0.000015
1267	1.2597e+02	7.3999	8.116708	0.000160	1.596725	0.270493	-0.000016
1268	1.2607e+02	7.3879	8.100007	0.000168	1.678609	0.284364	-0.000017
1269	1.2617e+02	7.3772	8.084935	0.000151	1.514842	0.256621	-0.000015
1270	1.2627e+02	7.3672	8.066605	0.000184	1.842375	0.312107	-0.000018
1271	1.2636e+02	7.3598	8.049496	0.000172	1.719550	0.291300	-0.000017
1272	1.2646e+02	7.3490	8.026685	0.000229	2.292734	0.388400	-0.000023
1273	1.2656e+02	7.3394	8.012835	0.000139	1.392017	0.235814	-0.000014
1274	1.2666e+02	7.3289	7.996949	0.000160	1.596725	0.270493	-0.000016
1275	1.2676e+02	7.3175	7.978211	0.000188	1.883317	0.319043	-0.000019
1276	1.2686e+02	7.3093	7.960695	0.000176	1.760492	0.298235	-0.000018
1277	1.2696e+02	7.2964	7.946846	0.000139	1.392017	0.235814	-0.000014
1278	1.2706e+02	7.2884	7.931774	0.000151	1.514842	0.256621	-0.000015
1279	1.2716e+02	7.2771	7.920776	0.000111	1.105425	0.187264	-0.000011
1280	1.2726e+02	7.2693	7.906926	0.000139	1.392017	0.235814	-0.000014
1281	1.2736e+02	7.2601	7.890633	0.000164	1.637667	0.277428	-0.000016
1282	1.2746e+02	7.2488	7.873932	0.000168	1.678609	0.284364	-0.000017
1283	1.2756e+02	7.2397	7.861711	0.000123	1.228250	0.208071	-0.000012
1284	1.2766e+02	7.2291	7.844603	0.000172	1.719550	0.291300	-0.000017
1285	1.2776e+02	7.2185	7.827902	0.000168	1.678609	0.284364	-0.000017
1286	1.2786e+02	7.2091	7.813645	0.000143	1.432959	0.242750	-0.000014
1287	1.2796e+02	7.1989	7.796129	0.000176	1.760492	0.298235	-0.000018
1288	1.2806e+02	7.1920	7.784316	0.000119	1.187309	0.201136	-0.000012
1289	1.2816e+02	7.1777	7.767615	0.000168	1.678609	0.284364	-0.000017
1290	1.2826e+02	7.1661	7.751321	0.000164	1.637667	0.277428	-0.000016
1291	1.2835e+02	7.1586	7.735842	0.000156	1.555784	0.263557	-0.000016
1292	1.2845e+02	7.1468	7.719141	0.000168	1.678609	0.284364	-0.000017
1293	1.2855e+02	7.1377	7.705699	0.000135	1.351075	0.228878	-0.000014
1294	1.2865e+02	7.1289	7.690627	0.000151	1.514842	0.256621	-0.000015
1295	1.2875e+02	7.1191	7.673112	0.000176	1.760492	0.298235	-0.000018
1296	1.2885e+02	7.1075	7.658447	0.000147	1.473900	0.249685	-0.000015
1297	1.2895e+02	7.0998	7.638080	0.000205	2.047084	0.346785	-0.000020
1298	1.2905e+02	7.0882	7.620157	0.000180	1.801434	0.305171	-0.000018
1299	1.2915e+02	7.0796	7.606307	0.000139	1.392017	0.235814	-0.000014
1300	1.2925e+02	7.0715	7.586755	0.000197	1.965200	0.332914	-0.000020
1301	1.2935e+02	7.0594	7.567610	0.000192	1.924259	0.325978	-0.000019
1302	1.2945e+02	7.0495	7.550909	0.000168	1.678609	0.284364	-0.000017
1303	1.2955e+02	7.0390	7.535023	0.000160	1.596725	0.270493	-0.000016
1304	1.2965e+02	7.0281	7.515063	0.000201	2.006142	0.339850	-0.000020
1305	1.2975e+02	7.0190	7.500806	0.000143	1.432959	0.242750	-0.000014
1306	1.2985e+02	7.0093	7.482883	0.000180	1.801434	0.305171	-0.000018
1307	1.2995e+02	7.0004	7.467404	0.000156	1.555784	0.263557	-0.000016
1308	1.3005e+02	6.9900	7.447037	0.000205	2.047084	0.346785	-0.000020
1309	1.3015e+02	6.9788	7.432780	0.000143	1.432959	0.242750	-0.000014
1310	1.3025e+02	6.9688	7.417708	0.000151	1.514842	0.256621	-0.000015
1311	1.3034e+02	6.9604	7.396933	0.000209	2.088025	0.353721	-0.000021
1312	1.3044e+02	6.9496	7.385935	0.000111	1.105425	0.187264	-0.000011
1313	1.3054e+02	6.9402	7.370456	0.000156	1.555784	0.263557	-0.000016
1314	1.3064e+02	6.9289	7.350496	0.000201	2.006142	0.339850	-0.000020
1315	1.3074e+02	6.9190	7.334610	0.000160	1.596725	0.270493	-0.000016
1316	1.3084e+02	6.9082	7.320353	0.000143	1.432959	0.242750	-0.000014
1317	1.3094e+02	6.9021	7.298356	0.000221	2.210850	0.374528	-0.000022
1318	1.3104e+02	6.8887	7.284100	0.000143	1.432959	0.242750	-0.000014
1319	1.3114e+02	6.8810	7.270657	0.000135	1.351075	0.228878	-0.000014
1320	1.3124e+02	6.8690	7.251919	0.000188	1.883317	0.319043	-0.000019
1321	1.3134e+02	6.8626	7.237662	0.000143	1.432959	0.242750	-0.000014
1322	1.3144e+02	6.8517	7.216888	0.000209	2.088025	0.353721	-0.000021
1323	1.3154e+02	6.8409	7.205890	0.000111	1.105425	0.187264	-0.000011
1324	1.3164e+02	6.8292	7.183893	0.000221	2.210850	0.374528	-0.000022
1325	1.3174e+02	6.8211	7.166378	0.000176	1.760492	0.298235	-0.000018
1326	1.3184e+02	6.8099	7.143159	0.000233	2.333675	0.395335	-0.000023
1327	1.3194e+02	6.8005	7.128902	0.000143	1.432959	0.242750	-0.000014
1328	1.3204e+02	6.7924	7.109757	0.000192	1.924259	0.325978	-0.000019
1329	1.3214e+02	6.7797	7.090204	0.000197	1.965200	0.332914	-0.000020
1330	1.3224e+02	6.7732	7.073503	0.000168	1.678609	0.284364	-0.000017
1331	1.3234e+02	6.7628	7.055173	0.000184	1.842375	0.312107	-0.000018
1332	1.3243e+02	6.7525	7.036028	0.000192	1.924259	0.325978	-0.000019
1333	1.3253e+02	6.7394	7.015253	0.000209	2.088025	0.353721	-0.000021
1334	1.3263e+02	6.7312	6.997738	0.000176	1.760492	0.298235	-0.000018
1335	1.3273e+02	6.7216	6.978185	0.000197	1.965200	0.332914	-0.000020
1336	1.3283e+02	6.7117	6.955781	0.000225	2.251792	0.381464	-0.000023
1337	1.3293e+02	6.7042	6.937858	0.000180	1.801434	0.305171	-0.000018
1338	1.3303e+02	6.6911	6.919121	0.000188	1.883317	0.319043	-0.000019
1339	1.3313e+02	6.6817	6.901605	0.000176	1.760492	0.298235	-0.000018
1340	1.3323e+02	6.6707	6.881645	0.000201	2.006142	0.339850	-0.000020
1341	1.3333e+02	6.6627	6.860463	0.000213	2.128967	0.360657	-0.000021
1342	1.3343e+02	6.6499	6.841318	0.000192	1.924259	0.325978	-0.000019
1343	1.3353e+02	6.6453	6.824210	0.000172	1.719550	0.291300	-0.000017
1344	1.3363e+02	6.6323	6.803435	0.000209	2.088025	0.353721	-0.000021
1345	1.3373e+02	6.6215	6.785105	0.000184	1.842375	0.312107	-0.000018
1346	1.3383e+02	6.6127	6.767182	0.000180	1.801434	0.305171	-0.000018
1347	1.3393e+02	6.6037	6.744371	0.000229	2.292734	0.388400	-0.000023
1348	1.3403e+02	6.5918	6.729706	0.000147	1.473900	0.249685	-0.000015
1349	1.3413e+02	6.5820	6.707710	0.000221	2.210850	0.374528	-0.000022
1350	1.3423e+02	6.5728	6.688972	0.000188	1.883317	0.319043	-0.000019
1351	1.3432e+02	6.5641	6.666161	0.000229	2.292734	0.388400	-0.000023
1352	1.3442e+02	6.5511	6.644979	0.000213	2.128967	0.360657	-0.000021
1353	1.3452e+02	6.5435	6.626649	0.000184	1.842375	0.312107	-0.000018
1354	1.3462e+02	6.5308	6.606689	0.000201	2.006142	0.339850	-0.000020
1355	1.3472e+02	6.5218	6.588358	0.000184	1.842375	0.312107	-0.000018
1356	1.3482e+02	6.5116	6.567584	0.000209	2.088025	0.353721	-0.000021
1357	1.3492e+02	6.5012	6.548439	0.000192	1.924259	0.325978	-0.000019
1358	1.3502e+02	6.4900	6.529701	0.000188	1.883317	0.319043	-0.000019
1359	1.3512e+02	6.4844	6.506890	0.000229	2.292734	0.388400	-0.000023
1360	1.3522e+02	6.4724	6.489374	0.000176	1.760492	0.298235	-0.000018
1361	1.3532e+02	6.4607	6.464934	0.000246	2.456500	0.416142	-0.000025
1362	1.3542e+02	6.4530	6.443344	0.000217	2.169909	0.367592	-0.000022
1363	1.3552e+02	6.4437	6.419719	0.000237	2.374617	0.402271	-0.000024
1364	1.3562e+02	6.4320	6.398537	0.000213	2.128967	0.360657	-0.000021
1365	1.3572e+02	6.4197	6.376540	0.000221	2.210850	0.374528	-0.000022
1366	1.3582e+02	6.4127	6.356581	0.000201	2.006142	0.339850	-0.000020
1367	1.3592e+02	6.4022	6.333362	0.000233	2.333675	0.395335	-0.000023
1368	1.3602e+02	6.3943	6.312588	0.000209	2.088025	0.353721	-0.000021
1369	1.3612e+02	6.3869	6.289776	0.000229	2.292734	0.388400	-0.000023
1370	1.3622e+02	6.3726	6.270224	0.000197	1.965200	0.332914	-0.000020
1371	1.3631e+02	6.3615	6.249449	0.000209	2.088025	0.353721	-0.000021
1372	1.3641e+02	6.3529	6.227046	0.000225	2.251792	0.381464	-0.000023
1373	1.3651e+02	6.3452	6.206678	0.000205	2.047084	0.346785	-0.000020
1374	1.3661e+02	6.3343	6.183053	0.000237	2.374617	0.402271	-0.000024
1375	1.3671e+02	6.3235	6.162278	0.000209	2.088025	0.353721	-0.000021
1376	1.3681e+02	6.3135	6.138652	0.000237	2.374617	0.402271	-0.000024
1377	1.3691e+02	6.3029	6.114212	0.000246	2.456500	0.416142	-0.000025
1378	1.3701e+02	6.2942	6.096289	0.000180	1.801434	0.305171	-0.000018
1379	1.3711e+02	6.2847	6.076329	0.000201	2.006142	0.339850	-0.000020
1380	1.3721e+02	6.2727	6.054332	0.000221	2.210850	0.374528	-0.000022
1381	1.3731e+02	6.2641	6.037224	0.000172	1.719550	0.291300	-0.000017
1382	1.3741e+02	6.2530	6.015227	0.000221	2.210850	0.374528	-0.000022
1383	1.3751e+02	6.2452	5.994453	0.000209	2.088025	0.353721	-0.000021
1384	1.3761e+02	6.2334	5.974493	0.000201	2.006142	0.339850	-0.000020
1385	1.3771e+02	6.2243	5.956163	0.000184	1.842375	0.312107	-0.000018
1386	1.3781e+02	6.2165	5.935796	0.000205	2.047084	0.346785	-0.000020
1387	1.3791e+02	6.2049	5.912984	0.000229	2.292734	0.388400	-0.000023
1388	1.3801e+02	6.1965	5.897098	0.000160	1.596725	0.270493	-0.000016
1389	1.3811e+02	6.1845	5.872250	0.000250	2.497442	0.423078	-0.000025
1390	1.3821e+02	6.1755	5.850254	0.000221	2.210850	0.374528	-0.000022
1391	1.3831e+02	6.1653	5.829479	0.000209	2.088025	0.353721	-0.000021
1392	1.3840e+02	6.1543	5.805853	0.000237	2.374617	0.402271	-0.000024
1393	1.3850e+02	6.1428	5.782635	0.000233	2.333675	0.395335	-0.000023
1394	1.3860e+02	6.1351	5.761046	0.000217	2.169909	0.367592	-0.000022
1395	1.3870e+02	6.1250	5.742308	0.000188	1.883317	0.319043	-0.000019
1396	1.3880e+02	6.1144	5.716238	0.000262	2.620267	0.443885	-0.000026
1397	1.3890e+02	6.1037	5.697908	0.000184	1.842375	0.312107	-0.000018
1398	1.3900e+02	6.0946	5.675504	0.000225	2.251792	0.381464	-0.000023
1399	1.3910e+02	6.0860	5.654322	0.000213	2.128967	0.360657	-0.000021
1400	1.3920e+02	6.0759	5.637621	0.000168	1.678609	0.284364	-0.000017
1401	1.3930e+02	6.0648	5.616032	0.000217	2.169909	0.367592	-0.000022
1402	1.3940e+02	6.0564	5.591591	0.000246	2.456500	0.416142	-0.000025
1403	1.3950e+02	6.0467	5.567965	0.000237	2.374617	0.402271	-0.000024
1404	1.3960e+02	6.0356	5.545561	0.000225	2.251792	0.381464	-0.000023
1405	1.3970e+02	6.0258	5.526009	0.000197	1.965200	0.332914	-0.000020
1406	1.3980e+02	6.0169	5.505642	0.000205	2.047084	0.346785	-0.000020
1407	1.3990e+02	6.0051	5.487719	0.000180	1.801434	0.305171	-0.000018
1408	1.4000e+02	5.9985	5.464093	0.000237	2.374617	0.402271	-0.000024
1409	1.4010e+02	5.9896	5.444133	0.000201	2.006142	0.339850	-0.000020
1410	1.4020e+02	5.9771	5.423359	0.000209	2.088025	0.353721	-0.000021
1411	1.4029e+02	5.9666	5.402584	0.000209	2.088025	0.353721	-0.000021
1412	1.4039e+02	5.9562	5.387513	0.000151	1.514842	0.256621	-0.000015
1413	1.4049e+02	5.9461	5.366331	0.000213	2.128967	0.360657	-0.000021
1414	1.4059e+02	5.9379	5.344742	0.000217	2.169909	0.367592	-0.000022
1415	1.4069e+02	5.9267	5.327226	0.000176	1.760492	0.298235	-0.000018
1416	1.4079e+02	5.9156	5.309710	0.000176	1.760492	0.298235	-0.000018
1417	1.4089e+02	5.9052	5.289750	0.000201	2.006142	0.339850	-0.000020
1418	1.4099e+02	5.8960	5.273864	0.000160	1.596725	0.270493	-0.000016
1419	1.4109e+02	5.8892	5.249831	0.000242	2.415559	0.409207	-0.000024
1420	1.4119e+02	5.8749	5.232722	0.000172	1.719550	0.291300	-0.000017
1421	1.4129e+02	5.8646	5.213170	0.000197	1.965200	0.332914	-0.000020
1422	1.4139e+02	5.8553	5.192803	0.000205	2.047084	0.346785	-0.000020
1423	1.4149e+02	5.8459	5.172843	0.000201	2.006142	0.339850	-0.000020
1424	1.4159e+02	5.8379	5.152883	0.000201	2.006142	0.339850	-0.000020
1425	1.4169e+02	5.8270	5.136182	0.000168	1.678609	0.284364	-0.000017
1426	1.4179e+02	5.8179	5.117037	0.000192	1.924259	0.325978	-0.000019
1427	1.4189e+02	5.8065	5.093819	0.000233	2.333675	0.395335	-0.000023
1428	1.4199e+02	5.7963	5.076303	0.000176	1.760492	0.298235	-0.000018
1429	1.4209e+02	5.7864	5.060824	0.000156	1.555784	0.263557	-0.000016
1430	1.4219e+02	5.7749	5.038827	0.000221	2.210850	0.374528	-0.000022
1431	1.4228e+02	5.7697	5.021719	0.000172	1.719550	0.291300	-0.000017
1432	1.4238e+02	5.7549	5.004203	0.000176	1.760492	0.298235	-0.000018
1433	1.4248e+02	5.7442	4.983836	0.000205	2.047084	0.346785	-0.000020
1434	1.4258e+02	5.7377	4.963469	0.000205	2.047084	0.346785	-0.000020
1435	1.4268e+02	5.7271	4.943917	0.000197	1.965200	0.332914	-0.000020
1436	1.4278e+02	5.7171	4.926401	0.000176	1.760492	0.298235	-0.000018
1437	1.4288e+02	5.7066	4.904404	0.000221	2.210850	0.374528	-0.000022
1438	1.4298e+02	5.6959	4.886889	0.000176	1.760492	0.298235	-0.000018
1439	1.4308e+02	5.6875	4.868151	0.000188	1.883317	0.319043	-0.000019
1440	1.4318e+02	5.6771	4.846969	0.000213	2.128967	0.360657	-0.000021
1441	1.4328e+02	5.6660	4.826195	0.000209	2.088025	0.353721	-0.000021
1442	1.4338e+02	5.6573	4.808271	0.000180	1.801434	0.305171	-0.000018
1443	1.4348e+02	5.6472	4.791978	0.000164	1.637667	0.277428	-0.000016
1444	1.4358e+02	5.6388	4.774869	0.000172	1.719550	0.291300	-0.000017
1445	1.4368e+02	5.6261	4.756946	0.000180	1.801434	0.305171	-0.000018
1446	1.4378e+02	5.6176	4.739838	0.000172	1.719550	0.291300	-0.000017
1447	1.4388e+02	5.6074	4.723137	0.000168	1.678609	0.284364	-0.000017
1448	1.4398e+02	5.5996	4.708880	0.000143	1.432959	0.242750	-0.000014
1449	1.4408e+02	5.5890	4.689327	0.000197	1.965200	0.332914	-0.000020
1450	1.4418e+02	5.5769	4.676700	0.000127	1.269192	0.215007	-0.000013
1451	1.4428e+02	5.5682	4.652667	0.000242	2.415559	0.409207	-0.000024
1452	1.4437e+02	5.5589	4.635558	0.000172	1.719550	0.291300	-0.000017
1453	1.4447e+02	5.5492	4.620894	0.000147	1.473900	0.249685	-0.000015
1454	1.4457e+02	5.5401	4.600527	0.000205	2.047084	0.346785	-0.000020
1455	1.4467e+02	5.5291	4.582196	0.000184	1.842375	0.312107	-0.000018
1456	1.4477e+02	5.5193	4.563866	0.000184	1.842375	0.312107	-0.000018
1457	1.4487e+02	5.5108	4.544314	0.000197	1.965200	0.332914	-0.000020
1458	1.4497e+02	5.4981	4.530871	0.000135	1.351075	0.228878	-0.000014
1459	1.4507e+02	5.4897	4.514577	0.000164	1.637667	0.277428	-0.000016
1460	1.4517e+02	5.4775	4.498691	0.000160	1.596725	0.270493	-0.000016
1461	1.4527e+02	5.4681	4.479546	0.000192	1.924259	0.325978	-0.000019
1462	1.4537e+02	5.4596	4.456735	0.000229	2.292734	0.388400	-0.000023
1463	1.4547e+02	5.4510	4.444107	0.000127	1.269192	0.215007	-0.000013
1464	1.4557e+02	5.4380	4.422925	0.000213	2.128967	0.360657	-0.000021
1465	1.4567e+02	5.4261	4.402558	0.000205	2.047084	0.346785	-0.000020
1466	1.4577e+02	5.4184	4.381376	0.000213	2.128967	0.360657	-0.000021
1467	1.4587e+02	5.4080	4.363453	0.000180	1.801434	0.305171	-0.000018
1468	1.4597e+02	5.3973	4.345938	0.000176	1.760492	0.298235	-0.000018
1469	1.4607e+02	5.3878	4.322312	0.000237	2.374617	0.402271	-0.000024
1470	1.4617e+02	5.3765	4.305611	0.000168	1.678609	0.284364	-0.000017
1471	1.4626e+02	5.3698	4.286466	0.000192	1.924259	0.325978	-0.000019
1472	1.4636e+02	5.3579	4.266506	0.000201	2.006142	0.339850	-0.000020
1473	1.4646e+02	5.3480	4.248990	0.000176	1.760492	0.298235	-0.000018
1474	1.4656e+02	5.3387	4.230660	0.000184	1.842375	0.312107	-0.000018
1475	1.4666e+02	5.3293	4.214366	0.000164	1.637667	0.277428	-0.000016
1476	1.4676e+02	5.3197	4.193592	0.000209	2.088025	0.353721	-0.000021
1477	1.4686e+02	5.3085	4.175261	0.000184	1.842375	0.312107	-0.000018
1478	1.4696e+02	5.2970	4.158153	0.000172	1.719550	0.291300	-0.000017
1479	1.4706e+02	5.2851	4.139822	0.000184	1.842375	0.312107	-0.000018
1480	1.4716e+02	5.2796	4.118641	0.000213	2.128967	0.360657	-0.000021
1481	1.4726e+02	5.2676	4.101125	0.000176	1.760492	0.298235	-0.000018
1482	1.4736e+02	5.2588	4.079943	0.000213	2.128967	0.360657	-0.000021
1483	1.4746e+02	5.2477	4.059576	0.000205	2.047084	0.346785	-0.000020
1484	1.4756e+02	5.2396	4.042060	0.000176	1.760492	0.298235	-0.000018
1485	1.4766e+02	5.2290	4.025766	0.000164	1.637667	0.277428	-0.000016
1486	1.4776e+02	5.2175	4.005807	0.000201	2.006142	0.339850	-0.000020
1487	1.4786e+02	5.2094	3.987476	0.000184	1.842375	0.312107	-0.000018
1488	1.4796e+02	5.1993	3.973627	0.000139	1.392017	0.235814	-0.000014
1489	1.4806e+02	5.1887	3.951630	0.000221	2.210850	0.374528	-0.000022
1490	1.4816e+02	5.1785	3.933707	0.000180	1.801434	0.305171	-0.000018
1491	1.4825e+02	5.1687	3.912118	0.000217	2.169909	0.367592	-0.000022
1492	1.4835e+02	5.1627	3.893787	0.000184	1.842375	0.312107	-0.000018
1493	1.4845e+02	5.1492	3.871384	0.000225	2.251792	0.381464	-0.000023
1494	1.4855e+02	5.1402	3.853868	0.000176	1.760492	0.298235	-0.000018
1495	1.4865e+02	5.1296	3.833093	0.000209	2.088025	0.353721	-0.000021
1496	1.4875e+02	5.1165	3.812319	0.000209	2.088025	0.353721	-0.000021
1497	1.4885e+02	5.1099	3.790322	0.000221	2.210850	0.374528	-0.000022
1498	1.4895e+02	5.0972	3.771585	0.000188	1.883317	0.319043	-0.000019
1499	1.4905e+02	5.0896	3.750810	0.000209	2.088025	0.353721	-0.000021
1500	1.4915e+02	5.0777	3.727999	0.000229	2.292734	0.388400	-0.000023
1501	1.4925e+02	5.0695	3.707632	0.000205	2.047084	0.346785	-0.000020
1502	1.4935e+02	5.0603	3.688894	0.000188	1.883317	0.319043	-0.000019
1503	1.4945e+02	5.0506	3.666083	0.000229	2.292734	0.388400	-0.000023
1504	1.4955e+02	5.0405	3.646123	0.000201	2.006142	0.339850	-0.000020
1505	1.4965e+02	5.0323	3.624941	0.000213	2.128967	0.360657	-0.000021
1506	1.4975e+02	5.0199	3.604574	0.000205	2.047084	0.346785	-0.000020
1507	1.4985e+02	5.0111	3.578097	0.000266	2.661209	0.450821	-0.000027
1508	1.4995e+02	5.0002	3.558137	0.000201	2.006142	0.339850	-0.000020
1509	1.5005e+02	4.9905	3.538177	0.000201	2.006142	0.339850	-0.000020
1510	1.5015e+02	4.9776	3.517810	0.000205	2.047084	0.346785	-0.000020
1511	1.5025e+02	4.9691	3.498665	0.000192	1.924259	0.325978	-0.000019
1512	1.5034e+02	4.9605	3.474632	0.000242	2.415559	0.409207	-0.000024
1513	1.5044e+02	4.9510	3.455080	0.000197	1.965200	0.332914	-0.000020
1514	1.5054e+02	4.9432	3.433083	0.000221	2.210850	0.374528	-0.000022
1515	1.5064e+02	4.9283	3.409864	0.000233	2.333675	0.395335	-0.000023
1516	1.5074e+02	4.9207	3.387053	0.000229	2.292734	0.388400	-0.000023
1517	1.5084e+02	4.9097	3.367094	0.000201	2.006142	0.339850	-0.000020
1518	1.5094e+02	4.8998	3.345097	0.000221	2.210850	0.374528	-0.000022
1519	1.5104e+02	4.8928	3.323508	0.000217	2.169909	0.367592	-0.000022
1520	1.5114e+02	4.8804	3.303548	0.000201	2.006142	0.339850	-0.000020
1521	1.5124e+02	4.8701	3.276663	0.000270	2.702151	0.457757	-0.000027
1522	1.5134e+02	4.8602	3.257111	0.000197	1.965200	0.332914	-0.000020
1523	1.5144e+02	4.8512	3.238373	0.000188	1.883317	0.319043	-0.000019
1524	1.5154e+02	4.8420	3.214340	0.000242	2.415559	0.409207	-0.000024
1525	1.5164e+02	4.8298	3.194380	0.000201	2.006142	0.339850	-0.000020
1526	1.5174e+02	4.8219	3.168718	0.000258	2.579326	0.436950	-0.000026
1527	1.5184e+02	4.8096	3.146721	0.000221	2.210850	0.374528	-0.000022
1528	1.5194e+02	4.8022	3.121059	0.000258	2.579326	0.436950	-0.000026
1529	1.5204e+02	4.7924	3.097433	0.000237	2.374617	0.402271	-0.000024
1530	1.5214e+02	4.7790	3.075436	0.000221	2.210850	0.374528	-0.000022
1531	1.5224e+02	4.7721	3.048959	0.000266	2.661209	0.450821	-0.000027
1532	1.5233e+02	4.7623	3.025333	0.000237	2.374617	0.402271	-0.000024
1533	1.5243e+02	4.7500	3.002929	0.000225	2.251792	0.381464	-0.000023
1534	1.5253e+02	4.7417	2.979711	0.000233	2.333675	0.395335	-0.000023
1535	1.5263e+02	4.7320	2.956492	0.000233	2.333675	0.395335	-0.000023
1536	1.5273e+02	4.7207	2.932052	0.000246	2.456500	0.416142	-0.000025
1537	1.5283e+02	4.7129	2.910463	0.000217	2.169909	0.367592	-0.000022
1538	1.5293e+02	4.7033	2.886429	0.000242	2.415559	0.409207	-0.000024
1539	1.5303e+02	4.6931	2.859952	0.000266	2.661209	0.450821	-0.000027
1540	1.5313e+02	4.6838	2.837956	0.000221	2.210850	0.374528	-0.000022
1541	1.5323e+02	4.6702	2.816366	0.000217	2.169909	0.367592	-0.000022
1542	1.5333e+02	4.6606	2.791926	0.000246	2.456500	0.416142	-0.000025
1543	1.5343e+02	4.6535	2.765856	0.000262	2.620267	0.443885	-0.000026
1544	1.5353e+02	4.6410	2.743452	0.000225	2.251792	0.381464	-0.000023
1545	1.5363e+02	4.6315	2.720641	0.000229	2.292734	0.388400	-0.000023
1546	1.5373e+02	4.6213	2.695793	0.000250	2.497442	0.423078	-0.000025
1547	1.5383e+02	4.6120	2.674204	0.000217	2.169909	0.367592	-0.000022
1548	1.5393e+02	4.5995	2.649763	0.000246	2.456500	0.416142	-0.000025
1549	1.5403e+02	4.5907	2.626545	0.000233	2.333675	0.395335	-0.000023
1550	1.5413e+02	4.5827	2.603326	0.000233	2.333675	0.395335	-0.000023
1551	1.5422e+02	4.5715	2.582959	0.000205	2.047084	0.346785	-0.000020
1552	1.5432e+02	4.5632	2.561777	0.000213	2.128967	0.360657	-0.000021
1553	1.5442e+02	4.5519	2.538151	0.000237	2.374617	0.402271	-0.000024
1554	1.5452e+02	4.5437	2.517784	0.000205	2.047084	0.346785	-0.000020
1555	1.5462e+02	4.5325	2.492936	0.000250	2.497442	0.423078	-0.000025
1556	1.5472e+02	4.5237	2.469311	0.000237	2.374617	0.402271	-0.000024
1557	1.5482e+02	4.5122	2.449351	0.000201	2.006142	0.339850	-0.000020
1558	1.5492e+02	4.5028	2.424910	0.000246	2.456500	0.416142	-0.000025
1559	1.5502e+02	4.4918	2.398433	0.000266	2.661209	0.450821	-0.000027
1560	1.5512e+02	4.4808	2.375214	0.000233	2.333675	0.395335	-0.000023
1561	1.5522e+02	4.4733	2.350774	0.000246	2.456500	0.416142	-0.000025
1562	1.5532e+02	4.4611	2.326333	0.000246	2.456500	0.416142	-0.000025
1563	1.5542e+02	4.4518	2.303115	0.000233	2.333675	0.395335	-0.000023
1564	1.5552e+02	4.4424	2.278674	0.000246	2.456500	0.416142	-0.000025
1565	1.5562e+02	4.4350	2.254234	0.000246	2.456500	0.416142	-0.000025
1566	1.5572e+02	4.4241	2.233459	0.000209	2.088025	0.353721	-0.000021
1567	1.5582e+02	4.4128	2.212277	0.000213	2.128967	0.360657	-0.000021
1568	1.5592e+02	4.4041	2.188652	0.000237	2.374617	0.402271	-0.000024
1569	1.5602e+02	4.3934	2.164618	0.000242	2.415559	0.409207	-0.000024
1570	1.5612e+02	4.3819	2.140992	0.000237	2.374617	0.402271	-0.000024
1571	1.5622e+02	4.3764	2.118996	0.000221	2.210850	0.374528	-0.000022
1572	1.5631e+02	4.3633	2.087631	0.000315	3.152509	0.534049	-0.000032
1573	1.5641e+02	4.3540	2.070930	0.000168	1.678609	0.284364	-0.000017
1574	1.5651e+02	4.3437	2.047304	0.000237	2.374617	0.402271	-0.000024
1575	1.5661e+02	4.3331	2.017160	0.000303	3.029684	0.513242	-0.000030
1576	1.5671e+02	4.3249	2.002089	0.000151	1.514842	0.256621	-0.000015
1577	1.5681e+02	4.3144	1.977241	0.000250	2.497442	0.423078	-0.000025
1578	1.5691e+02	4.3023	1.956059	0.000213	2.128967	0.360657	-0.000021
1579	1.5701e+02	4.2954	1.939765	0.000164	1.637667	0.277428	-0.000016
1580	1.5711e+02	4.2849	1.911251	0.000287	2.865917	0.485500	-0.000029
1581	1.5721e+02	4.2750	1.894143	0.000172	1.719550	0.291300	-0.000017
1582	1.5731e+02	4.2643	1.872961	0.000213	2.128967	0.360657	-0.000021
1583	1.5741e+02	4.2551	1.850150	0.000229	2.292734	0.388400	-0.000023
1584	1.5751e+02	4.2452	1.831819	0.000184	1.842375	0.312107	-0.000018
1585	1.5761e+02	4.2358	1.806972	0.000250	2.497442	0.423078	-0.000025
1586	1.5771e+02	4.2223	1.787012	0.000201	2.006142	0.339850	-0.000020
1587	1.5781e+02	4.2144	1.765015	0.000221	2.210850	0.374528	-0.000022
1588	1.5791e+02	4.2068	1.747092	0.000180	1.801434	0.305171	-0.000018
1589	1.5801e+02	4.1936	1.727132	0.000201	2.006142	0.339850	-0.000020
1590	1.5811e+02	4.1853	1.702285	0.000250	2.497442	0.423078	-0.000025
1591	1.5821e+02	4.1753	1.682325	0.000201	2.006142	0.339850	-0.000020
1592	1.5830e+02	4.1644	1.657477	0.000250	2.497442	0.423078	-0.000025
1593	1.5840e+02	4.1521	1.640776	0.000168	1.678609	0.284364	-0.000017
1594	1.5850e+02	4.1453	1.617150	0.000237	2.374617	0.402271	-0.000024
1595	1.5860e+02	4.1372	1.593117	0.000242	2.415559	0.409207	-0.000024
1596	1.5870e+02	4.1265	1.575601	0.000176	1.760492	0.298235	-0.000018
1597	1.5880e+02	4.1159	1.553604	0.000221	2.210850	0.374528	-0.000022
1598	1.5890e+02	4.1048	1.531608	0.000221	2.210850	0.374528	-0.000022
1599	1.5900e+02	4.0944	1.510019	0.000217	2.169909	0.367592	-0.000022
1600	1.5910e+02	4.0844	1.491281	0.000188	1.883317	0.319043	-0.000019
1601	1.5920e+02	4.0754	1.472136	0.000192	1.924259	0.325978	-0.000019
1602	1.5930e+02	4.0640	1.449325	0.000229	2.292734	0.388400	-0.000023
1603	1.5940e+02	4.0565	1.428550	0.000209	2.088025	0.353721	-0.000021
1604	1.5950e+02	4.0450	1.406961	0.000217	2.169909	0.367592	-0.000022
1605	1.5960e+02	4.0347	1.383743	0.000233	2.333675	0.395335	-0.000023
1606	1.5970e+02	4.0267	1.363376	0.000205	2.047084	0.346785	-0.000020
1607	1.5980e+02	4.0165	1.339342	0.000242	2.415559	0.409207	-0.000024
1608	1.5990e+02	4.0049	1.321827	0.000176	1.760492	0.298235	-0.000018
1609	1.6000e+02	3.9956	1.301867	0.000201	2.006142	0.339850	-0.000020
1610	1.6010e+02	3.9848	1.278241	0.000237	2.374617	0.402271	-0.000024
1611	1.6019e+02	3.9754	1.258281	0.000201	2.006142	0.339850	-0.000020
1612	1.6029e+02	3.9676	1.240765	0.000176	1.760492	0.298235	-0.000018
1613	1.6039e+02	3.9557	1.222842	0.000180	1.801434	0.305171	-0.000018
1614	1.6049e+02	3.9462	1.202475	0.000205	2.047084	0.346785	-0.000020
1615	1.6059e+02	3.9368	1.185367	0.000172	1.719550	0.291300	-0.000017
1616	1.6069e+02	3.9262	1.165000	0.000205	2.047084	0.346785	-0.000020
1617	1.6079e+02	3.9147	1.145855	0.000192	1.924259	0.325978	-0.000019
1618	1.6089e+02	3.9044	1.128746	0.000172	1.719550	0.291300	-0.000017
1619	1.6099e+02	3.8973	1.107564	0.000213	2.128967	0.360657	-0.000021
1620	1.6109e+02	3.8860	1.086383	0.000213	2.128967	0.360657	-0.000021
1621	1.6119e+02	3.8767	1.067237	0.000192	1.924259	0.325978	-0.000019
1622	1.6129e+02	3.8641	1.046870	0.000205	2.047084	0.346785	-0.000020
1623	1.6139e+02	3.8560	1.028133	0.000188	1.883317	0.319043	-0.000019
1624	1.6149e+02	3.8459	1.006951	0.000213	2.128967	0.360657	-0.000021
1625	1.6159e+02	3.8354	0.986991	0.000201	2.006142	0.339850	-0.000020
1626	1.6169e+02	3.8249	0.971919	0.000151	1.514842	0.256621	-0.000015
1627	1.6179e+02	3.8154	0.949923	0.000221	2.210850	0.374528	-0.000022
1628	1.6189e+02	3.8078	0.930778	0.000192	1.924259	0.325978	-0.000019
1629	1.6199e+02	3.7954	0.911633	0.000192	1.924259	0.325978	-0.000019
1630	1.6209e+02	3.7856	0.892488	0.000192	1.924259	0.325978	-0.000019
1631	1.6219e+02	3.7772	0.873750	0.000188	1.883317	0.319043	-0.000019
1632	1.6228e+02	3.7658	0.849309	0.000246	2.456500	0.416142	-0.000025
1633	1.6238e+02	3.7552	0.827313	0.000221	2.210850	0.374528	-0.000022
1634	1.6248e+02	3.7447	0.804094	0.000233	2.333675	0.395335	-0.000023
1635	1.6258e+02	3.7376	0.782098	0.000221	2.210850	0.374528	-0.000022
1636	1.6268e+02	3.7273	0.763767	0.000184	1.842375	0.312107	-0.000018
1637	1.6278e+02	3.7147	0.742178	0.000217	2.169909	0.367592	-0.000022
1638	1.6288e+02	3.7057	0.720996	0.000213	2.128967	0.360657	-0.000021
1639	1.6298e+02	3.6954	0.696556	0.000246	2.456500	0.416142	-0.000025
1640	1.6308e+02	3.6872	0.677411	0.000192	1.924259	0.325978	-0.000019
1641	1.6318e+02	3.6789	0.658673	0.000188	1.883317	0.319043	-0.000019
1642	1.6328e+02	3.6678	0.635862	0.000229	2.292734	0.388400	-0.000023
1643	1.6338e+02	3.6582	0.619161	0.000168	1.678609	0.284364	-0.000017
1644	1.6348e+02	3.6467	0.596349	0.000229	2.292734	0.388400	-0.000023
1645	1.6358e+02	3.6352	0.578426	0.000180	1.801434	0.305171	-0.000018
1646	1.6368e+02	3.6280	0.558467	0.000201	2.006142	0.339850	-0.000020
1647	1.6378e+02	3.6166	0.536877	0.000217	2.169909	0.367592	-0.000022
1648	1.6388e+02	3.6076	0.513659	0.000233	2.333675	0.395335	-0.000023
1649	1.6398e+02	3.5979	0.492884	0.000209	2.088025	0.353721	-0.000021
1650	1.6408e+02	3.5870	0.470888	0.000221	2.210850	0.374528	-0.000022
1651	1.6418e+02	3.5763	0.452150	0.000188	1.883317	0.319043	-0.000019
1652	1.6427e+02	3.5699	0.431783	0.000205	2.047084	0.346785	-0.000020
1653	1.6437e+02	3.5574	0.409379	0.000225	2.251792	0.381464	-0.000023
1654	1.6447e+02	3.5497	0.388605	0.000209	2.088025	0.353721	-0.000021
1655	1.6457e+02	3.5392	0.369867	0.000188	1.883317	0.319043	-0.000019
1656	1.6467e+02	3.5282	0.349907	0.000201	2.006142	0.339850	-0.000020
1657	1.6477e+02	3.5178	0.327503	0.000225	2.251792	0.381464	-0.000023
1658	1.6487e+02	3.5078	0.307951	0.000197	1.965200	0.332914	-0.000020
1659	1.6497e+02	3.4991	0.284325	0.000237	2.374617	0.402271	-0.000024
1660	1.6507e+02	3.4876	0.263143	0.000213	2.128967	0.360657	-0.000021
1661	1.6517e+02	3.4798	0.241961	0.000213	2.128967	0.360657	-0.000021
1662	1.6527e+02	3.4696	0.219965	0.000221	2.210850	0.374528	-0.000022
1663	1.6537e+02	3.4583	0.193488	0.000266	2.661209	0.450821	-0.000027
1664	1.6547e+02	3.4492	0.173121	0.000205	2.047084	0.346785	-0.000020
1665	1.6557e+02	3.4380	0.148273	0.000250	2.497442	0.423078	-0.000025
1666	1.6567e+02	3.4283	0.127906	0.000205	2.047084	0.346785	-0.000020
1667	1.6577e+02	3.4175	0.102650	0.000254	2.538384	0.430014	-0.000025
1668	1.6587e+02	3.4078	0.082283	0.000205	2.047084	0.346785	-0.000020
1669	1.6597e+02	3.3960	0.058657	0.000237	2.374617	0.402271	-0.000024
1670	1.6607e+02	3.3843	0.030958	0.000278	2.784034	0.471628	-0.000028
1671	1.6616e+02	3.3778	0.012220	0.000188	1.883317	0.319043	-0.000019
1672	1.6626e+02	3.3675	-0.009776	0.000221	2.210850	0.374528	-0.000022
1673	1.6636e+02	3.3611	-0.037883	0.000282	2.824976	0.478564	-0.000028
1674	1.6646e+02	3.3507	-0.060287	0.000225	2.251792	0.381464	-0.000023
1675	1.6656e+02	3.3402	-0.083505	0.000233	2.333675	0.395335	-0.000023
1676	1.6666e+02	3.3284	-0.106724	0.000233	2.333675	0.395335	-0.000023
1677	1.6676e+02	3.3195	-0.125869	0.000192	1.924259	0.325978	-0.000019
1678	1.6686e+02	3.3119	-0.151531	0.000258	2.579326	0.436950	-0.000026
1679	1.6696e+02	3.2972	-0.174343	0.000229	2.292734	0.388400	-0.000023
1680	1.6706e+02	3.2899	-0.197154	0.000229	2.292734	0.388400	-0.000023
1681	1.6716e+02	3.2781	-0.222002	0.000250	2.497442	0.423078	-0.000025
1682	1.6726e+02	3.2674	-0.248479	0.000266	2.661209	0.450821	-0.000027
1683	1.6736e+02	3.2603	-0.272105	0.000237	2.374617	0.402271	-0.000024
1684	1.6746e+02	3.2471	-0.294509	0.000225	2.251792	0.381464	-0.000023
1685	1.6756e+02	3.2458	-0.319764	0.000254	2.538384	0.430014	-0.000025
1686	1.6766e+02	3.2292	-0.345019	0.000254	2.538384	0.430014	-0.000025
1687	1.6776e+02	3.2183	-0.365794	0.000209	2.088025	0.353721	-0.000021
1688	1.6786e+02	3.2105	-0.389012	0.000233	2.333675	0.395335	-0.000023
1689	1.6796e+02	3.1996	-0.416304	0.000274	2.743092	0.464692	-0.000027
1690	1.6806e+02	3.1895	-0.437486	0.000213	2.128967	0.360657	-0.000021
1691	1.6816e+02	3.1802	-0.458668	0.000213	2.128967	0.360657	-0.000021
1692	1.6825e+02	3.1667	-0.490848	0.000323	3.234392	0.547921	-0.000032
1693	1.6835e+02	3.1588	-0.512437	0.000217	2.169909	0.367592	-0.000022
1694	1.6845e+02	3.1468	-0.534433	0.000221	2.210850	0.374528	-0.000022
1695	1.6855e+02	3.1393	-0.560503	0.000262	2.620267	0.443885	-0.000026
1696	1.6865e+02	3.1302	-0.588203	0.000278	2.784034	0.471628	-0.000028
1697	1.6875e+02	3.1199	-0.610606	0.000225	2.251792	0.381464	-0.000023
1698	1.6885e+02	3.1115	-0.641157	0.000307	3.070626	0.520178	-0.000031
1699	1.6895e+02	3.0984	-0.663561	0.000225	2.251792	0.381464	-0.000023
1700	1.6905e+02	3.0900	-0.690038	0.000266	2.661209	0.450821	-0.000027
1701	1.6915e+02	3.0791	-0.715701	0.000258	2.579326	0.436950	-0.000026
1702	1.6925e+02	3.0698	-0.742178	0.000266	2.661209	0.450821	-0.000027
1703	1.6935e+02	3.0619	-0.768655	0.000266	2.661209	0.450821	-0.000027
1704	1.6945e+02	3.0516	-0.795947	0.000274	2.743092	0.464692	-0.000027
1705	1.6955e+02	3.0433	-0.819981	0.000242	2.415559	0.409207	-0.000024
1706	1.6965e+02	3.0304	-0.845236	0.000254	2.538384	0.430014	-0.000025
1707	1.6975e+02	3.0173	-0.866825	0.000217	2.169909	0.367592	-0.000022
1708	1.6985e+02	3.0121	-0.892488	0.000258	2.579326	0.436950	-0.000026
1709	1.6995e+02	2.9984	-0.919779	0.000274	2.743092	0.464692	-0.000027
1710	1.7005e+02	2.9882	-0.948293	0.000287	2.865917	0.485500	-0.000029
1711	1.7015e+02	2.9800	-0.978029	0.000299	2.988742	0.506307	-0.000030
1712	1.7024e+02	2.9710	-1.001248	0.000233	2.333675	0.395335	-0.000023
1713	1.7034e+02	2.9625	-1.026503	0.000254	2.538384	0.430014	-0.000025
1714	1.7044e+02	2.9493	-1.053795	0.000274	2.743092	0.464692	-0.000027
1715	1.7054e+02	2.9389	-1.076606	0.000229	2.292734	0.388400	-0.000023
1716	1.7064e+02	2.9331	-1.101047	0.000246	2.456500	0.416142	-0.000025
1717	1.7074e+02	2.9234	-1.127117	0.000262	2.620267	0.443885	-0.000026
1718	1.7084e+02	2.9105	-1.150743	0.000237	2.374617	0.402271	-0.000024
1719	1.7094e+02	2.9019	-1.172739	0.000221	2.210850	0.374528	-0.000022
1720	1.7104e+02	2.8909	-1.201661	0.000291	2.906859	0.492435	-0.000029
1721	1.7114e+02	2.8809	-1.223250	0.000217	2.169909	0.367592	-0.000022
1722	1.7124e+02	2.8692	-1.246468	0.000233	2.333675	0.395335	-0.000023
1723	1.7134e+02	2.8603	-1.275390	0.000291	2.906859	0.492435	-0.000029
1724	1.7144e+02	2.8478	-1.298201	0.000229	2.292734	0.388400	-0.000023
1725	1.7154e+02	2.8428	-1.324678	0.000266	2.661209	0.450821	-0.000027
1726	1.7164e+02	2.8353	-1.351155	0.000266	2.661209	0.450821	-0.000027
1727	1.7174e+02	2.8210	-1.377633	0.000266	2.661209	0.450821	-0.000027
1728	1.7184e+02	2.8107	-1.398407	0.000209	2.088025	0.353721	-0.000021
1729	1.7194e+02	2.8034	-1.428143	0.000299	2.988742	0.506307	-0.000030
1730	1.7204e+02	2.7941	-1.455842	0.000278	2.784034	0.471628	-0.000028
1731	1.7213e+02	2.7827	-1.481505	0.000258	2.579326	0.436950	-0.000026
1732	1.7223e+02	2.7708	-1.505131	0.000237	2.374617	0.402271	-0.000024
1733	1.7233e+02	2.7636	-1.531201	0.000262	2.620267	0.443885	-0.000026
1734	1.7243e+02	2.7512	-1.554012	0.000229	2.292734	0.388400	-0.000023
1735	1.7253e+02	2.7416	-1.581711	0.000278	2.784034	0.471628	-0.000028
1736	1.7263e+02	2.7334	-1.603708	0.000221	2.210850	0.374528	-0.000022
1737	1.7273e+02	2.7245	-1.633444	0.000299	2.988742	0.506307	-0.000030
1738	1.7283e+02	2.7116	-1.661550	0.000282	2.824976	0.478564	-0.000028
1739	1.7293e+02	2.7042	-1.682325	0.000209	2.088025	0.353721	-0.000021
1740	1.7303e+02	2.6946	-1.710839	0.000287	2.865917	0.485500	-0.000029
1741	1.7313e+02	2.6829	-1.733243	0.000225	2.251792	0.381464	-0.000023
1742	1.7323e+02	2.6738	-1.761757	0.000287	2.865917	0.485500	-0.000029
1743	1.7333e+02	2.6585	-1.784568	0.000229	2.292734	0.388400	-0.000023
1744	1.7343e+02	2.6525	-1.809416	0.000250	2.497442	0.423078	-0.000025
1745	1.7353e+02	2.6382	-1.832227	0.000229	2.292734	0.388400	-0.000023
1746	1.7363e+02	2.6318	-1.857482	0.000254	2.538384	0.430014	-0.000025
1747	1.7373e+02	2.6215	-1.881923	0.000246	2.456500	0.416142	-0.000025
1748	1.7383e+02	2.6133	-1.906770	0.000250	2.497442	0.423078	-0.000025
1749	1.7393e+02	2.6029	-1.926730	0.000201	2.006142	0.339850	-0.000020
1750	1.7403e+02	2.5903	-1.948319	0.000217	2.169909	0.367592	-0.000022
1751	1.7413e+02	2.5831	-1.974797	0.000266	2.661209	0.450821	-0.000027
1752	1.7422e+02	2.5703	-1.995571	0.000209	2.088025	0.353721	-0.000021
1753	1.7432e+02	2.5605	-2.013494	0.000180	1.801434	0.305171	-0.000018
1754	1.7442e+02	2.5492	-2.042416	0.000291	2.906859	0.492435	-0.000029
1755	1.7452e+02	2.5405	-2.062783	0.000205	2.047084	0.346785	-0.000020
1756	1.7462e+02	2.5314	-2.087223	0.000246	2.456500	0.416142	-0.000025
1757	1.7472e+02	2.5210	-2.110442	0.000233	2.333675	0.395335	-0.000023
1758	1.7482e+02	2.5109	-2.134882	0.000246	2.456500	0.416142	-0.000025
1759	1.7492e+02	2.5045	-2.158916	0.000242	2.415559	0.409207	-0.000024
1760	1.7502e+02	2.4941	-2.180505	0.000217	2.169909	0.367592	-0.000022
1761	1.7512e+02	2.4846	-2.203723	0.000233	2.333675	0.395335	-0.000023
1762	1.7522e+02	2.4724	-2.228571	0.000250	2.497442	0.423078	-0.000025
1763	1.7532e+02	2.4632	-2.253826	0.000254	2.538384	0.430014	-0.000025
1764	1.7542e+02	2.4524	-2.274601	0.000209	2.088025	0.353721	-0.000021
1765	1.7552e+02	2.4439	-2.300263	0.000258	2.579326	0.436950	-0.000026
1766	1.7562e+02	2.4348	-2.320223	0.000201	2.006142	0.339850	-0.000020
1767	1.7572e+02	2.4242	-2.345071	0.000250	2.497442	0.423078	-0.000025
1768	1.7582e+02	2.4144	-2.365846	0.000209	2.088025	0.353721	-0.000021
1769	1.7592e+02	2.4015	-2.391101	0.000254	2.538384	0.430014	-0.000025
1770	1.7602e+02	2.3927	-2.413097	0.000221	2.210850	0.374528	-0.000022
1771	1.7612e+02	2.3836	-2.435908	0.000229	2.292734	0.388400	-0.000023
1772	1.7621e+02	2.3728	-2.461571	0.000258	2.579326	0.436950	-0.000026
1773	1.7631e+02	2.3640	-2.484790	0.000233	2.333675	0.395335	-0.000023
1774	1.7641e+02	2.3525	-2.509230	0.000246	2.456500	0.416142	-0.000025
1775	1.7651e+02	2.3444	-2.533263	0.000242	2.415559	0.409207	-0.000024
1776	1.7661e+02	2.3346	-2.557704	0.000246	2.456500	0.416142	-0.000025
1777	1.7671e+02	2.3241	-2.577256	0.000197	1.965200	0.332914	-0.000020
1778	1.7681e+02	2.3159	-2.602512	0.000254	2.538384	0.430014	-0.000025
1779	1.7691e+02	2.3038	-2.623693	0.000213	2.128967	0.360657	-0.000021
1780	1.7701e+02	2.2911	-2.642024	0.000184	1.842375	0.312107	-0.000018
1781	1.7711e+02	2.2834	-2.664835	0.000229	2.292734	0.388400	-0.000023
1782	1.7721e+02	2.2773	-2.686831	0.000221	2.210850	0.374528	-0.000022
1783	1.7731e+02	2.2625	-2.708421	0.000217	2.169909	0.367592	-0.000022
1784	1.7741e+02	2.2552	-2.725936	0.000176	1.760492	0.298235	-0.000018
1785	1.7751e+02	2.2449	-2.747118	0.000213	2.128967	0.360657	-0.000021
1786	1.7761e+02	2.2334	-2.770337	0.000233	2.333675	0.395335	-0.000023
1787	1.7771e+02	2.2231	-2.793555	0.000233	2.333675	0.395335	-0.000023
1788	1.7781e+02	2.2132	-2.814330	0.000209	2.088025	0.353721	-0.000021
1789	1.7791e+02	2.2049	-2.839585	0.000254	2.538384	0.430014	-0.000025
1790	1.7801e+02	2.1938	-2.861989	0.000225	2.251792	0.381464	-0.000023
1791	1.7810e+02	2.1869	-2.881541	0.000197	1.965200	0.332914	-0.000020
1792	1.7820e+02	2.1772	-2.903538	0.000221	2.210850	0.374528	-0.000022
1793	1.7830e+02	2.1643	-2.923497	0.000201	2.006142	0.339850	-0.000020
1794	1.7840e+02	2.1545	-2.944679	0.000213	2.128967	0.360657	-0.000021
1795	1.7850e+02	2.1437	-2.970749	0.000262	2.620267	0.443885	-0.000026
1796	1.7860e+02	2.1348	-2.989894	0.000192	1.924259	0.325978	-0.000019
1797	1.7870e+02	2.1224	-3.010669	0.000209	2.088025	0.353721	-0.000021
1798	1.7880e+02	2.1162	-3.035109	0.000246	2.456500	0.416142	-0.000025
1799	1.7890e+02	2.1039	-3.059143	0.000242	2.415559	0.409207	-0.000024
1800	1.7900e+02	2.0966	-3.081546	0.000225	2.251792	0.381464	-0.000023
1801	1.7910e+02	2.0834	-3.105580	0.000242	2.415559	0.409207	-0.000024
1802	1.7920e+02	2.0728	-3.130428	0.000250	2.497442	0.423078	-0.000025
1803	1.7930e+02	2.0646	-3.154461	0.000242	2.415559	0.409207	-0.000024
1804	1.7940e+02	2.0543	-3.174828	0.000205	2.047084	0.346785	-0.000020
1805	1.7950e+02	2.0477	-3.204157	0.000295	2.947801	0.499371	-0.000029
1806	1.7960e+02	2.0376	-3.224931	0.000209	2.088025	0.353721	-0.000021
1807	1.7970e+02	2.0247	-3.251001	0.000262	2.620267	0.443885	-0.000026
1808	1.7980e+02	2.0129	-3.274627	0.000237	2.374617	0.402271	-0.000024
1809	1.7990e+02	2.0038	-3.296623	0.000221	2.210850	0.374528	-0.000022
1810	1.8000e+02	1.9941	-3.317805	0.000213	2.128967	0.360657	-0.000021
1811	1.8009e+02	1.9865	-3.339802	0.000221	2.210850	0.374528	-0.000022
1812	1.8019e+02	1.9751	-3.359354	0.000197	1.965200	0.332914	-0.000020
1813	1.8029e+02	1.9660	-3.385831	0.000266	2.661209	0.450821	-0.000027
1814	1.8039e+02	1.9556	-3.408235	0.000225	2.251792	0.381464	-0.000023
1815	1.8049e+02	1.9447	-3.427380	0.000192	1.924259	0.325978	-0.000019
1816	1.8059e+02	1.9412	-3.453857	0.000266	2.661209	0.450821	-0.000027
1817	1.8069e+02	1.9247	-3.477891	0.000242	2.415559	0.409207	-0.000024
1818	1.8079e+02	1.9135	-3.501517	0.000237	2.374617	0.402271	-0.000024
1819	1.8089e+02	1.9039	-3.526364	0.000250	2.497442	0.423078	-0.000025
1820	1.8099e+02	1.8969	-3.547546	0.000213	2.128967	0.360657	-0.000021
1821	1.8109e+02	1.8896	-3.566284	0.000188	1.883317	0.319043	-0.000019
1822	1.8119e+02	1.8759	-3.593983	0.000278	2.784034	0.471628	-0.000028
1823	1.8129e+02	1.8652	-3.613943	0.000201	2.006142	0.339850	-0.000020
1824	1.8139e+02	1.8576	-3.637976	0.000242	2.415559	0.409207	-0.000024
1825	1.8149e+02	1.8458	-3.662417	0.000246	2.456500	0.416142	-0.000025
1826	1.8159e+02	1.8380	-3.681969	0.000197	1.965200	0.332914	-0.000020
1827	1.8169e+02	1.8239	-3.710483	0.000287	2.865917	0.485500	-0.000029
1828	1.8179e+02	1.8141	-3.732480	0.000221	2.210850	0.374528	-0.000022
1829	1.8189e+02	1.8053	-3.760179	0.000278	2.784034	0.471628	-0.000028
1830	1.8199e+02	1.7976	-3.783398	0.000233	2.333675	0.395335	-0.000023
1831	1.8209e+02	1.7860	-3.807431	0.000242	2.415559	0.409207	-0.000024
1832	1.8218e+02	1.7750	-3.831464	0.000242	2.415559	0.409207	-0.000024
1833	1.8228e+02	1.7648	-3.857941	0.000266	2.661209	0.450821	-0.000027
1834	1.8238e+02	1.7570	-3.885641	0.000278	2.784034	0.471628	-0.000028
1835	1.8248e+02	1.7464	-3.910896	0.000254	2.538384	0.430014	-0.000025
1836	1.8258e+02	1.7376	-3.932485	0.000217	2.169909	0.367592	-0.000022
1837	1.8268e+02	1.7266	-3.962628	0.000303	3.029684	0.513242	-0.000030
1838	1.8278e+02	1.7177	-3.988698	0.000262	2.620267	0.443885	-0.000026
1839	1.8288e+02	1.7057	-4.011917	0.000233	2.333675	0.395335	-0.000023
1840	1.8298e+02	1.6972	-4.039616	0.000278	2.784034	0.471628	-0.000028
1841	1.8308e+02	1.6871	-4.062835	0.000233	2.333675	0.395335	-0.000023
1842	1.8318e+02	1.6758	-4.090127	0.000274	2.743092	0.464692	-0.000027
1843	1.8328e+02	1.6664	-4.117011	0.000270	2.702151	0.457757	-0.000027
1844	1.8338e+02	1.6576	-4.141044	0.000242	2.415559	0.409207	-0.000024
1845	1.8348e+02	1.6463	-4.163856	0.000229	2.292734	0.388400	-0.000023
1846	1.8358e+02	1.6380	-4.191148	0.000274	2.743092	0.464692	-0.000027
1847	1.8368e+02	1.6276	-4.220476	0.000295	2.947801	0.499371	-0.000029
1848	1.8378e+02	1.6175	-4.243287	0.000229	2.292734	0.388400	-0.000023
1849	1.8388e+02	1.6071	-4.269357	0.000262	2.620267	0.443885	-0.000026
1850	1.8398e+02	1.5953	-4.296649	0.000274	2.743092	0.464692	-0.000027
1851	1.8407e+02	1.5881	-4.322719	0.000262	2.620267	0.443885	-0.000026
1852	1.8417e+02	1.5779	-4.349604	0.000270	2.702151	0.457757	-0.000027
1853	1.8427e+02	1.5673	-4.375674	0.000262	2.620267	0.443885	-0.000026
1854	1.8437e+02	1.5572	-4.403780	0.000282	2.824976	0.478564	-0.000028
1855	1.8447e+02	1.5479	-4.430258	0.000266	2.661209	0.450821	-0.000027
1856	1.8457e+02	1.5347	-4.458364	0.000282	2.824976	0.478564	-0.000028
1857	1.8467e+02	1.5268	-4.479139	0.000209	2.088025	0.353721	-0.000021
1858	1.8477e+02	1.5193	-4.510504	0.000315	3.152509	0.534049	-0.000032
1859	1.8487e+02	1.5092	-4.535352	0.000250	2.497442	0.423078	-0.000025
1860	1.8497e+02	1.4980	-4.556534	0.000213	2.128967	0.360657	-0.000021
1861	1.8507e+02	1.4885	-4.587084	0.000307	3.070626	0.520178	-0.000031
1862	1.8517e+02	1.4767	-4.616006	0.000291	2.906859	0.492435	-0.000029
1863	1.8527e+02	1.4708	-4.643705	0.000278	2.784034	0.471628	-0.000028
1864	1.8537e+02	1.4599	-4.669775	0.000262	2.620267	0.443885	-0.000026
1865	1.8547e+02	1.4482	-4.701140	0.000315	3.152509	0.534049	-0.000032
1866	1.8557e+02	1.4372	-4.728025	0.000270	2.702151	0.457757	-0.000027
1867	1.8567e+02	1.4265	-4.757761	0.000299	2.988742	0.506307	-0.000030
1868	1.8577e+02	1.4165	-4.784238	0.000266	2.661209	0.450821	-0.000027
1869	1.8587e+02	1.4056	-4.813160	0.000291	2.906859	0.492435	-0.000029
1870	1.8597e+02	1.3981	-4.842488	0.000295	2.947801	0.499371	-0.000029
1871	1.8606e+02	1.3876	-4.868966	0.000266	2.661209	0.450821	-0.000027
1872	1.8616e+02	1.3759	-4.893813	0.000250	2.497442	0.423078	-0.000025
1873	1.8626e+02	1.3685	-4.922735	0.000291	2.906859	0.492435	-0.000029
1874	1.8636e+02	1.3574	-4.949619	0.000270	2.702151	0.457757	-0.000027
1875	1.8646e+02	1.3496	-4.976911	0.000274	2.743092	0.464692	-0.000027
1876	1.8656e+02	1.3390	-5.007462	0.000307	3.070626	0.520178	-0.000031
1877	1.8666e+02	1.3264	-5.038420	0.000311	3.111567	0.527114	-0.000031
1878	1.8676e+02	1.3203	-5.067749	0.000295	2.947801	0.499371	-0.000029
1879	1.8686e+02	1.3096	-5.097485	0.000299	2.988742	0.506307	-0.000030
1880	1.8696e+02	1.2959	-5.122333	0.000250	2.497442	0.423078	-0.000025
1881	1.8706e+02	1.2928	-5.151254	0.000291	2.906859	0.492435	-0.000029
1882	1.8716e+02	1.2771	-5.180175	0.000291	2.906859	0.492435	-0.000029
1883	1.8726e+02	1.2674	-5.205838	0.000258	2.579326	0.436950	-0.000026
1884	1.8736e+02	1.2608	-5.232315	0.000266	2.661209	0.450821	-0.000027
1885	1.8746e+02	1.2516	-5.255126	0.000229	2.292734	0.388400	-0.000023
1886	1.8756e+02	1.2402	-5.280381	0.000254	2.538384	0.430014	-0.000025
1887	1.8766e+02	1.2283	-5.312154	0.000319	3.193451	0.540985	-0.000032
1888	1.8776e+02	1.2196	-5.336595	0.000246	2.456500	0.416142	-0.000025
1889	1.8786e+02	1.2101	-5.358999	0.000225	2.251792	0.381464	-0.000023
1890	1.8796e+02	1.1979	-5.389142	0.000303	3.029684	0.513242	-0.000030
1891	1.8806e+02	1.1913	-5.414397	0.000254	2.538384	0.430014	-0.000025
1892	1.8815e+02	1.1806	-5.443319	0.000291	2.906859	0.492435	-0.000029
1893	1.8825e+02	1.1684	-5.473055	0.000299	2.988742	0.506307	-0.000030
1894	1.8835e+02	1.1613	-5.504420	0.000315	3.152509	0.534049	-0.000032
1895	1.8845e+02	1.1522	-5.529675	0.000254	2.538384	0.430014	-0.000025
1896	1.8855e+02	1.1425	-5.560226	0.000307	3.070626	0.520178	-0.000031
1897	1.8865e+02	1.1292	-5.589147	0.000291	2.906859	0.492435	-0.000029
1898	1.8875e+02	1.1198	-5.615624	0.000266	2.661209	0.450821	-0.000027
1899	1.8885e+02	1.1111	-5.642509	0.000270	2.702151	0.457757	-0.000027
1900	1.8895e+02	1.1007	-5.671023	0.000287	2.865917	0.485500	-0.000029
1901	1.8905e+02	1.0900	-5.700759	0.000299	2.988742	0.506307	-0.000030
1902	1.8915e+02	1.0798	-5.726422	0.000258	2.579326	0.436950	-0.000026
1903	1.8925e+02	1.0693	-5.750455	0.000242	2.415559	0.409207	-0.000024
1904	1.8935e+02	1.0593	-5.783450	0.000332	3.316276	0.561792	-0.000033
1905	1.8945e+02	1.0513	-5.809927	0.000266	2.661209	0.450821	-0.000027
1906	1.8955e+02	1.0416	-5.839255	0.000295	2.947801	0.499371	-0.000029
1907	1.8965e+02	1.0294	-5.867769	0.000287	2.865917	0.485500	-0.000029
1908	1.8975e+02	1.0202	-5.893839	0.000262	2.620267	0.443885	-0.000026
1909	1.8985e+02	1.0096	-5.923983	0.000303	3.029684	0.513242	-0.000030
1910	1.8995e+02	1.0056	-5.949645	0.000258	2.579326	0.436950	-0.000026
1911	1.9004e+02	0.9900	-5.978974	0.000295	2.947801	0.499371	-0.000029
1912	1.9014e+02	0.9809	-6.002600	0.000237	2.374617	0.402271	-0.000024
1913	1.9024e+02	0.9679	-6.031114	0.000287	2.865917	0.485500	-0.000029
1914	1.9034e+02	0.9601	-6.055554	0.000246	2.456500	0.416142	-0.000025
1915	1.9044e+02	0.9494	-6.077551	0.000221	2.210850	0.374528	-0.000022
1916	1.9054e+02	0.9404	-6.104028	0.000266	2.661209	0.450821	-0.000027
1917	1.9064e+02	0.9336	-6.130505	0.000266	2.661209	0.450821	-0.000027
1918	1.9074e+02	0.9200	-6.158612	0.000282	2.824976	0.478564	-0.000028
1919	1.9084e+02	0.9127	-6.181831	0.000233	2.333675	0.395335	-0.000023
1920	1.9094e+02	0.9039	-6.205049	0.000233	2.333675	0.395335	-0.000023
1921	1.9104e+02	0.8930	-6.235192	0.000303	3.029684	0.513242	-0.000030
1922	1.9114e+02	0.8791	-6.259633	0.000246	2.456500	0.416142	-0.000025
1923	1.9124e+02	0.8720	-6.281629	0.000221	2.210850	0.374528	-0.000022
1924	1.9134e+02	0.8601	-6.307699	0.000262	2.620267	0.443885	-0.000026
1925	1.9144e+02	0.8519	-6.335399	0.000278	2.784034	0.471628	-0.000028
1926	1.9154e+02	0.8418	-6.359025	0.000237	2.374617	0.402271	-0.000024
1927	1.9164e+02	0.8336	-6.386724	0.000278	2.784034	0.471628	-0.000028
1928	1.9174e+02	0.8198	-6.412794	0.000262	2.620267	0.443885	-0.000026
1929	1.9184e+02	0.8116	-6.441308	0.000287	2.865917	0.485500	-0.000029
1930	1.9194e+02	0.8009	-6.460046	0.000188	1.883317	0.319043	-0.000019
1931	1.9203e+02	0.7923	-6.491818	0.000319	3.193451	0.540985	-0.000032
1932	1.9213e+02	0.7815	-6.513815	0.000221	2.210850	0.374528	-0.000022
1933	1.9223e+02	0.7692	-6.539885	0.000262	2.620267	0.443885	-0.000026
1934	1.9233e+02	0.7593	-6.563511	0.000237	2.374617	0.402271	-0.000024
1935	1.9243e+02	0.7506	-6.591617	0.000282	2.824976	0.478564	-0.000028
1936	1.9253e+02	0.7417	-6.616058	0.000246	2.456500	0.416142	-0.000025
1937	1.9263e+02	0.7339	-6.644164	0.000282	2.824976	0.478564	-0.000028
1938	1.9273e+02	0.7254	-6.671049	0.000270	2.702151	0.457757	-0.000027
1939	1.9283e+02	0.7129	-6.692638	0.000217	2.169909	0.367592	-0.000022
1940	1.9293e+02	0.7015	-6.720745	0.000282	2.824976	0.478564	-0.000028
1941	1.9303e+02	0.6927	-6.746815	0.000262	2.620267	0.443885	-0.000026
1942	1.9313e+02	0.6829	-6.773699	0.000270	2.702151	0.457757	-0.000027
1943	1.9323e+02	0.6724	-6.798547	0.000250	2.497442	0.423078	-0.000025
1944	1.9333e+02	0.6677	-6.823802	0.000254	2.538384	0.430014	-0.000025
1945	1.9343e+02	0.6505	-6.848243	0.000246	2.456500	0.416142	-0.000025
1946	1.9353e+02	0.6428	-6.870239	0.000221	2.210850	0.374528	-0.000022
1947	1.9363e+02	0.6306	-6.892643	0.000225	2.251792	0.381464	-0.000023
1948	1.9373e+02	0.6225	-6.918306	0.000258	2.579326	0.436950	-0.000026
1949	1.9383e+02	0.6143	-6.943154	0.000250	2.497442	0.423078	-0.000025
1950	1.9393e+02	0.6043	-6.967594	0.000246	2.456500	0.416142	-0.000025
1951	1.9403e+02	0.5912	-6.986332	0.000188	1.883317	0.319043	-0.000019
1952	1.9412e+02	0.5853	-7.009958	0.000237	2.374617	0.402271	-0.000024
1953	1.9422e+02	0.5715	-7.037657	0.000278	2.784034	0.471628	-0.000028
1954	1.9432e+02	0.5627	-7.059654	0.000221	2.210850	0.374528	-0.000022
1955	1.9442e+02	0.5516	-7.083280	0.000237	2.374617	0.402271	-0.000024
1956	1.9452e+02	0.5442	-7.110979	0.000278	2.784034	0.471628	-0.000028
1957	1.9462e+02	0.5342	-7.132568	0.000217	2.169909	0.367592	-0.000022
1958	1.9472e+02	0.5227	-7.156194	0.000237	2.374617	0.402271	-0.000024
1959	1.9482e+02	0.5152	-7.182671	0.000266	2.661209	0.450821	-0.000027
1960	1.9492e+02	0.5012	-7.205482	0.000229	2.292734	0.388400	-0.000023
1961	1.9502e+02	0.4919	-7.227479	0.000221	2.210850	0.374528	-0.000022
1962	1.9512e+02	0.4850	-7.251105	0.000237	2.374617	0.402271	-0.000024
1963	1.9522e+02	0.4752	-7.273916	0.000229	2.292734	0.388400	-0.000023
1964	1.9532e+02	0.4639	-7.295912	0.000221	2.210850	0.374528	-0.000022
1965	1.9542e+02	0.4505	-7.324019	0.000282	2.824976	0.478564	-0.000028
1966	1.9552e+02	0.4427	-7.350496	0.000266	2.661209	0.450821	-0.000027
1967	1.9562e+02	0.4318	-7.379418	0.000291	2.906859	0.492435	-0.000029
1968	1.9572e+02	0.4226	-7.401822	0.000225	2.251792	0.381464	-0.000023
1969	1.9582e+02	0.4126	-7.431150	0.000295	2.947801	0.499371	-0.000029
1970	1.9592e+02	0.3991	-7.451925	0.000209	2.088025	0.353721	-0.000021
1971	1.9601e+02	0.3941	-7.479217	0.000274	2.743092	0.464692	-0.000027
1972	1.9611e+02	0.3819	-7.506509	0.000274	2.743092	0.464692	-0.000027
1973	1.9621e+02	0.3719	-7.538281	0.000319	3.193451	0.540985	-0.000032
1974	1.9631e+02	0.3632	-7.556612	0.000184	1.842375	0.312107	-0.000018
1975	1.9641e+02	0.3540	-7.584311	0.000278	2.784034	0.471628	-0.000028
1976	1.9651e+02	0.3456	-7.608752	0.000246	2.456500	0.416142	-0.000025
1977	1.9661e+02	0.3335	-7.634007	0.000254	2.538384	0.430014	-0.000025
1978	1.9671e+02	0.3225	-7.660077	0.000262	2.620267	0.443885	-0.000026
1979	1.9681e+02	0.3138	-7.684517	0.000246	2.456500	0.416142	-0.000025
1980	1.9691e+02	0.3047	-7.707736	0.000233	2.333675	0.395335	-0.000023
1981	1.9701e+02	0.2938	-7.730547	0.000229	2.292734	0.388400	-0.000023
1982	1.9711e+02	0.2863	-7.758654	0.000282	2.824976	0.478564	-0.000028
1983	1.9721e+02	0.2744	-7.782279	0.000237	2.374617	0.402271	-0.000024
1984	1.9731e+02	0.2647	-7.806313	0.000242	2.415559	0.409207	-0.000024
1985	1.9741e+02	0.2567	-7.834012	0.000278	2.784034	0.471628	-0.000028
1986	1.9751e+02	0.2457	-7.858453	0.000246	2.456500	0.416142	-0.000025
1987	1.9761e+02	0.2339	-7.882893	0.000246	2.456500	0.416142	-0.000025
1988	1.9771e+02	0.2238	-7.906926	0.000242	2.415559	0.409207	-0.000024
1989	1.9781e+02	0.2151	-7.932589	0.000258	2.579326	0.436950	-0.000026
1990	1.9791e+02	0.2069	-7.956622	0.000242	2.415559	0.409207	-0.000024
1991	1.9800e+02	0.1956	-7.981063	0.000246	2.456500	0.416142	-0.000025
1992	1.9810e+02	0.1849	-8.007947	0.000270	2.702151	0.457757	-0.000027
1993	1.9820e+02	0.1730	-8.037276	0.000295	2.947801	0.499371	-0.000029
1994	1.9830e+02	0.1630	-8.056014	0.000188	1.883317	0.319043	-0.000019
1995	1.9840e+02	0.1555	-8.083713	0.000278	2.784034	0.471628	-0.000028
1996	1.9850e+02	0.1435	-8.114671	0.000311	3.111567	0.527114	-0.000031
1997	1.9860e+02	0.1338	-8.139519	0.000250	2.497442	0.423078	-0.000025
1998	1.9870e+02	0.1241	-8.166403	0.000270	2.702151	0.457757	-0.000027
1999	1.9880e+02	0.1178	-8.195732	0.000295	2.947801	0.499371	-0.000029
2000	1.9890e+02	0.1049	-8.218951	0.000233	2.333675	0.395335	-0.000023
2001	1.9900e+02	0.0940	-8.249909	0.000311	3.111567	0.527114	-0.000031
2002	1.9910e+02	0.0867	-8.275979	0.000262	2.620267	0.443885	-0.000026
2003	1.9920e+02	0.0725	-8.304085	0.000282	2.824976	0.478564	-0.000028
2004	1.9930e+02	0.0645	-8.333007	0.000291	2.906859	0.492435	-0.000029
2005	1.9940e+02	0.0552	-8.360299	0.000274	2.743092	0.464692	-0.000027
2006	1.9950e+02	0.0443	-8.384332	0.000242	2.415559	0.409207	-0.000024
2007	1.9960e+02	0.0330	-8.412846	0.000287	2.865917	0.485500	-0.000029
2008	1.9970e+02	0.0259	-8.441360	0.000287	2.865917	0.485500	-0.000029
2009	1.9980e+02	0.0165	-8.472725	0.000315	3.152509	0.534049	-0.000032
2010	1.9990e+02	0.0066	-8.494722	0.000221	2.210850	0.374528	-0.000022
2011	2.0000e+02	-0.0052	-8.522828	0.000221	2.210850	0.374528	-0.000028

PMax (uC/cm2):	2.41e+01
Pr (uC/cm2):	3.50e+00
-Pr (uC/cm2):	0.00e+00
PLoss (uC/cm2):	0.00e+00
C (Max-Eff) (nF):	2.41e-01
K (Eff):	4.08e+02
Vert. (+/-Pr) Shift (uC/cm2):	1.75e+00
Offset (uC/cm2):	1.20e+01

A (Loop Area - uC/cm2·Volts):	-3.50e-02



Hysteresis Version: 5.48.1 - Radiant Technologies, Inc., 1999 - 9/12/24

