»»»»»»»»»»»»»»»»»»»»»»»»»»»»»»»»»»»» Hysteresis ««««««««««««««««««««««««««««««««««««
»»»  Executed Version:	5.48.1
»»»  Vision Version:	5.48.4 (R)
»»»  Vision Compiled:	9/18/24
»»»  Driver Version:	5.47.0
»»»  Windows Version:	Windows 8 or 8.1
»»»  Processor Information:	x86 (AMD or Intel) - 32 Processors
»»»  Tester Name:	PMF21124-494 (100V)
»»»  Tester S/N:	PMF21124-494
»»»  Internal Amp Type:	100V RevK 270k
»»»  Internal Amp S/N:	iAB2-596/K     
»»»  Execution Count:	1
»»»»»»»»»»»»»»»»»»»»»»»»»»»»»»»»»»»»»»»»»»««««««««««««««««««««««««««««««««««««««««««

Stored:	6/26/2025 - 16:57:25
Configured:	06/26/25 10:24:47 AM
Executed:	06/26/25 04:56:51 PM

»»»»»»»»»»»»»»»»»»»»»»»»»»»»»»»»»»» Sample Info ««««««««««««««««««««««««««««««««««««
Sample Name:	
Lot Name:	
Wafer Name:	
Die Row/Column:	0/0
Capacitor Number:	0
Sample Area (cm2):	1.00e-04
Sample Thickness (microns):	1.50e-01

Amplifier:	Internal

»»»»»»»»»»»»»»»»»»»»»»»»»»»»»»»»»»» Tester Info «««««««««««««««««««««««««««««««««««
Tester Name:	PMF21124-494 (100V)
Tester Serial Number:	PMF21124-494
Return Signal Amp. Level:	1.9 [Index: 2]

»»»»»»»»»»»»»»»»»»»»»»»»»»»»»»»» Hysteresis Info ««««««««««««««««««««««««««««««««««
Task Name:	Hyst-562
Volts:	10.00
Field:	666.67 (kV/cm)
DCBias:	0.00
DCField:	0.00 (kV/cm)
Hysteresis Period (ms):	2.00e+02
Preset:	Enabled
Preset Delay (ms):	1.00e+03
Profile:	Standard Monopolar

»»»»»»»»»»»»»»»»»»»»»»»»»»»»»»»»»»»»»» Data «««««««««««««««««««««««««««««««««««««««
Points:	2011

Valid Data

Point	Time (ms)	Drive Voltage	Measured Polarization (uC/cm2)	Capacitance (uF)	Normalized Capacitance (uF/cm2)	Dielectric Constant	Instantaneous Current (mA)
   1	0.0000e+00	-0.0043	-11.193570	0.000254	2.538703	0.430068	0.000025
   2	9.9500e-02	0.0040	-11.168314	0.000254	2.538703	0.430068	0.000025
   3	1.9900e-01	0.0153	-11.148762	0.000197	1.965448	0.332956	0.000020
   4	2.9850e-01	0.0239	-11.122692	0.000262	2.620597	0.443941	0.000026
   5	3.9800e-01	0.0345	-11.098251	0.000246	2.456810	0.416195	0.000025
   6	4.9750e-01	0.0468	-11.075848	0.000225	2.252076	0.381512	0.000023
   7	5.9700e-01	0.0540	-11.052222	0.000237	2.374916	0.402322	0.000024
   8	6.9650e-01	0.0655	-11.026152	0.000262	2.620597	0.443941	0.000026
   9	7.9600e-01	0.0770	-11.002119	0.000242	2.415863	0.409258	0.000024
  10	8.9550e-01	0.0835	-10.977271	0.000250	2.497757	0.423131	0.000025
  11	9.9500e-01	0.0943	-10.953238	0.000242	2.415863	0.409258	0.000024
  12	1.0945e+00	0.1038	-10.924316	0.000291	2.907225	0.492497	0.000029
  13	1.1940e+00	0.1162	-10.904356	0.000201	2.006395	0.339892	0.000020
  14	1.2935e+00	0.1252	-10.875842	0.000287	2.866278	0.485561	0.000029
  15	1.3930e+00	0.1333	-10.851402	0.000246	2.456810	0.416195	0.000025
  16	1.4925e+00	0.1457	-10.824517	0.000270	2.702491	0.457814	0.000027
  17	1.5920e+00	0.1537	-10.800077	0.000246	2.456810	0.416195	0.000025
  18	1.6915e+00	0.1648	-10.771155	0.000291	2.907225	0.492497	0.000029
  19	1.7910e+00	0.1769	-10.750381	0.000209	2.088288	0.353766	0.000021
  20	1.8905e+00	0.1850	-10.725126	0.000254	2.538703	0.430068	0.000025
  21	1.9900e+00	0.1931	-10.696612	0.000287	2.866278	0.485561	0.000029
  22	2.0895e+00	0.2025	-10.671764	0.000250	2.497757	0.423131	0.000025
  23	2.1890e+00	0.2155	-10.645287	0.000266	2.661544	0.450878	0.000027
  24	2.2885e+00	0.2232	-10.618809	0.000266	2.661544	0.450878	0.000027
  25	2.3880e+00	0.2349	-10.593554	0.000254	2.538703	0.430068	0.000025
  26	2.4875e+00	0.2438	-10.568299	0.000254	2.538703	0.430068	0.000025
  27	2.5870e+00	0.2533	-10.541822	0.000266	2.661544	0.450878	0.000027
  28	2.6865e+00	0.2632	-10.510049	0.000319	3.193853	0.541053	0.000032
  29	2.7860e+00	0.2734	-10.486830	0.000233	2.333969	0.395385	0.000023
  30	2.8855e+00	0.2859	-10.459131	0.000278	2.784384	0.471687	0.000028
  31	2.9850e+00	0.2943	-10.429395	0.000299	2.989119	0.506370	0.000030
  32	3.0845e+00	0.3043	-10.403325	0.000262	2.620597	0.443941	0.000026
  33	3.1840e+00	0.3130	-10.378070	0.000254	2.538703	0.430068	0.000025
  34	3.2835e+00	0.3239	-10.350778	0.000274	2.743438	0.464751	0.000027
  35	3.3830e+00	0.3339	-10.323893	0.000270	2.702491	0.457814	0.000027
  36	3.4825e+00	0.3447	-10.297416	0.000266	2.661544	0.450878	0.000027
  37	3.5820e+00	0.3511	-10.267273	0.000303	3.030065	0.513307	0.000030
  38	3.6815e+00	0.3645	-10.243239	0.000242	2.415863	0.409258	0.000024
  39	3.7810e+00	0.3729	-10.215540	0.000278	2.784384	0.471687	0.000028
  40	3.8805e+00	0.3842	-10.184989	0.000307	3.071012	0.520244	0.000031
  41	3.9800e+00	0.3931	-10.159327	0.000258	2.579650	0.437005	0.000026
  42	4.0795e+00	0.4034	-10.129591	0.000299	2.989119	0.506370	0.000030
  43	4.1790e+00	0.4142	-10.101077	0.000287	2.866278	0.485561	0.000029
  44	4.2785e+00	0.4218	-10.078266	0.000229	2.293022	0.388449	0.000023
  45	4.3780e+00	0.4337	-10.050566	0.000278	2.784384	0.471687	0.000028
  46	4.4775e+00	0.4445	-10.022052	0.000287	2.866278	0.485561	0.000029
  47	4.5770e+00	0.4516	-9.994353	0.000278	2.784384	0.471687	0.000028
  48	4.6765e+00	0.4648	-9.967061	0.000274	2.743438	0.464751	0.000027
  49	4.7760e+00	0.4739	-9.942213	0.000250	2.497757	0.423131	0.000025
  50	4.8755e+00	0.4847	-9.917773	0.000246	2.456810	0.416195	0.000025
  51	4.9750e+00	0.4933	-9.894147	0.000237	2.374916	0.402322	0.000024
  52	5.0745e+00	0.5040	-9.862782	0.000315	3.152906	0.534117	0.000032
  53	5.1740e+00	0.5138	-9.842007	0.000209	2.088288	0.353766	0.000021
  54	5.2735e+00	0.5239	-9.814308	0.000278	2.784384	0.471687	0.000028
  55	5.3730e+00	0.5338	-9.787423	0.000270	2.702491	0.457814	0.000027
  56	5.4725e+00	0.5437	-9.762575	0.000250	2.497757	0.423131	0.000025
  57	5.5720e+00	0.5508	-9.737320	0.000254	2.538703	0.430068	0.000025
  58	5.6715e+00	0.5653	-9.711657	0.000258	2.579650	0.437005	0.000026
  59	5.7710e+00	0.5711	-9.685180	0.000266	2.661544	0.450878	0.000027
  60	5.8705e+00	0.5824	-9.657481	0.000278	2.784384	0.471687	0.000028
  61	5.9700e+00	0.5907	-9.635484	0.000221	2.211129	0.374575	0.000022
  62	6.0695e+00	0.6016	-9.609822	0.000258	2.579650	0.437005	0.000026
  63	6.1690e+00	0.6136	-9.583752	0.000262	2.620597	0.443941	0.000026
  64	6.2685e+00	0.6284	-9.559311	0.000246	2.456810	0.416195	0.000025
  65	6.3680e+00	0.6320	-9.533649	0.000258	2.579650	0.437005	0.000026
  66	6.4675e+00	0.6429	-9.508394	0.000254	2.538703	0.430068	0.000025
  67	6.5670e+00	0.6534	-9.482731	0.000258	2.579650	0.437005	0.000026
  68	6.6665e+00	0.6628	-9.457476	0.000254	2.538703	0.430068	0.000025
  69	6.7660e+00	0.6713	-9.432220	0.000254	2.538703	0.430068	0.000025
  70	6.8655e+00	0.6829	-9.410631	0.000217	2.170182	0.367639	0.000022
  71	6.9650e+00	0.6915	-9.381710	0.000291	2.907225	0.492497	0.000029
  72	7.0645e+00	0.7011	-9.355640	0.000262	2.620597	0.443941	0.000026
  73	7.1640e+00	0.7151	-9.326311	0.000295	2.948172	0.499434	0.000029
  74	7.2635e+00	0.7205	-9.299834	0.000266	2.661544	0.450878	0.000027
  75	7.3630e+00	0.7319	-9.272950	0.000270	2.702491	0.457814	0.000027
  76	7.4625e+00	0.7452	-9.244843	0.000283	2.825331	0.478624	0.000028
  77	7.5620e+00	0.7515	-9.223254	0.000217	2.170182	0.367639	0.000022
  78	7.6615e+00	0.7617	-9.197591	0.000258	2.579650	0.437005	0.000026
  79	7.7610e+00	0.7732	-9.166633	0.000311	3.111959	0.527180	0.000031
  80	7.8605e+00	0.7812	-9.146673	0.000201	2.006395	0.339892	0.000020
  81	7.9600e+00	0.7893	-9.115715	0.000311	3.111959	0.527180	0.000031
  82	8.0595e+00	0.8026	-9.093719	0.000221	2.211129	0.374575	0.000022
  83	8.1590e+00	0.8105	-9.063575	0.000303	3.030065	0.513307	0.000030
  84	8.2585e+00	0.8227	-9.035469	0.000283	2.825331	0.478624	0.000028
  85	8.3580e+00	0.8311	-9.011843	0.000237	2.374916	0.402322	0.000024
  86	8.4575e+00	0.8391	-8.984144	0.000278	2.784384	0.471687	0.000028
  87	8.5570e+00	0.8501	-8.958074	0.000262	2.620597	0.443941	0.000026
  88	8.6565e+00	0.8617	-8.930782	0.000274	2.743438	0.464751	0.000027
  89	8.7560e+00	0.8694	-8.906341	0.000246	2.456810	0.416195	0.000025
  90	8.8555e+00	0.8839	-8.878235	0.000283	2.825331	0.478624	0.000028
  91	8.9550e+00	0.8914	-8.856645	0.000217	2.170182	0.367639	0.000022
  92	9.0545e+00	0.9011	-8.832205	0.000246	2.456810	0.416195	0.000025
  93	9.1540e+00	0.9118	-8.807764	0.000246	2.456810	0.416195	0.000025
  94	9.2535e+00	0.9208	-8.780880	0.000270	2.702491	0.457814	0.000027
  95	9.3530e+00	0.9300	-8.756847	0.000242	2.415863	0.409258	0.000024
  96	9.4525e+00	0.9407	-8.731999	0.000250	2.497757	0.423131	0.000025
  97	9.5520e+00	0.9499	-8.708373	0.000237	2.374916	0.402322	0.000024
  98	9.6515e+00	0.9619	-8.685969	0.000225	2.252076	0.381512	0.000023
  99	9.7510e+00	0.9702	-8.658270	0.000278	2.784384	0.471687	0.000028
 100	9.8505e+00	0.9797	-8.635051	0.000233	2.333969	0.395385	0.000023
 101	9.9500e+00	0.9868	-8.611018	0.000242	2.415863	0.409258	0.000024
 102	1.0050e+01	1.0023	-8.589429	0.000217	2.170182	0.367639	0.000022
 103	1.0149e+01	1.0123	-8.560915	0.000287	2.866278	0.485561	0.000029
 104	1.0248e+01	1.0190	-8.538511	0.000225	2.252076	0.381512	0.000023
 105	1.0348e+01	1.0300	-8.517329	0.000213	2.129235	0.360702	0.000021
 106	1.0447e+01	1.0415	-8.488408	0.000291	2.907225	0.492497	0.000029
 107	1.0547e+01	1.0503	-8.464375	0.000242	2.415863	0.409258	0.000024
 108	1.0646e+01	1.0596	-8.444007	0.000205	2.047341	0.346829	0.000020
 109	1.0746e+01	1.0712	-8.419160	0.000250	2.497757	0.423131	0.000025
 110	1.0845e+01	1.0782	-8.397163	0.000221	2.211129	0.374575	0.000022
 111	1.0945e+01	1.0885	-8.375167	0.000221	2.211129	0.374575	0.000022
 112	1.1044e+01	1.0983	-8.352763	0.000225	2.252076	0.381512	0.000023
 113	1.1144e+01	1.1082	-8.327915	0.000250	2.497757	0.423131	0.000025
 114	1.1243e+01	1.1195	-8.306326	0.000217	2.170182	0.367639	0.000022
 115	1.1343e+01	1.1282	-8.283107	0.000233	2.333969	0.395385	0.000023
 116	1.1443e+01	1.1436	-8.261518	0.000217	2.170182	0.367639	0.000022
 117	1.1542e+01	1.1513	-8.236670	0.000250	2.497757	0.423131	0.000025
 118	1.1642e+01	1.1610	-8.217118	0.000197	1.965448	0.332956	0.000020
 119	1.1741e+01	1.1680	-8.193084	0.000242	2.415863	0.409258	0.000024
 120	1.1841e+01	1.1810	-8.172717	0.000205	2.047341	0.346829	0.000020
 121	1.1940e+01	1.1891	-8.145833	0.000270	2.702491	0.457814	0.000027
 122	1.2040e+01	1.1982	-8.127502	0.000184	1.842607	0.312146	0.000018
 123	1.2139e+01	1.2099	-8.102247	0.000254	2.538703	0.430068	0.000025
 124	1.2239e+01	1.2212	-8.083509	0.000188	1.883554	0.319083	0.000019
 125	1.2338e+01	1.2296	-8.059069	0.000246	2.456810	0.416195	0.000025
 126	1.2438e+01	1.2392	-8.037887	0.000213	2.129235	0.360702	0.000021
 127	1.2537e+01	1.2492	-8.013039	0.000250	2.497757	0.423131	0.000025
 128	1.2636e+01	1.2607	-7.994709	0.000184	1.842607	0.312146	0.000018
 129	1.2736e+01	1.2677	-7.975563	0.000192	1.924501	0.326019	0.000019
 130	1.2835e+01	1.2821	-7.950308	0.000254	2.538703	0.430068	0.000025
 131	1.2935e+01	1.2908	-7.925460	0.000250	2.497757	0.423131	0.000025
 132	1.3034e+01	1.3020	-7.905501	0.000201	2.006395	0.339892	0.000020
 133	1.3134e+01	1.3049	-7.881467	0.000242	2.415863	0.409258	0.000024
 134	1.3233e+01	1.3181	-7.854175	0.000274	2.743438	0.464751	0.000027
 135	1.3333e+01	1.3287	-7.831772	0.000225	2.252076	0.381512	0.000023
 136	1.3432e+01	1.3389	-7.807738	0.000242	2.415863	0.409258	0.000024
 137	1.3532e+01	1.3471	-7.781668	0.000262	2.620597	0.443941	0.000026
 138	1.3632e+01	1.3594	-7.756821	0.000250	2.497757	0.423131	0.000025
 139	1.3731e+01	1.3677	-7.734417	0.000225	2.252076	0.381512	0.000023
 140	1.3831e+01	1.3780	-7.712013	0.000225	2.252076	0.381512	0.000023
 141	1.3930e+01	1.3876	-7.688794	0.000233	2.333969	0.395385	0.000023
 142	1.4030e+01	1.3979	-7.664354	0.000246	2.456810	0.416195	0.000025
 143	1.4129e+01	1.4084	-7.641543	0.000229	2.293022	0.388449	0.000023
 144	1.4229e+01	1.4181	-7.616695	0.000250	2.497757	0.423131	0.000025
 145	1.4328e+01	1.4275	-7.590625	0.000262	2.620597	0.443941	0.000026
 146	1.4428e+01	1.4376	-7.568221	0.000225	2.252076	0.381512	0.000023
 147	1.4527e+01	1.4453	-7.546632	0.000217	2.170182	0.367639	0.000022
 148	1.4627e+01	1.4577	-7.516488	0.000303	3.030065	0.513307	0.000030
 149	1.4726e+01	1.4682	-7.498973	0.000176	1.760714	0.298273	0.000018
 150	1.4825e+01	1.4766	-7.470866	0.000283	2.825331	0.478624	0.000028
 151	1.4925e+01	1.4857	-7.447240	0.000237	2.374916	0.402322	0.000024
 152	1.5024e+01	1.4983	-7.424429	0.000229	2.293022	0.388449	0.000023
 153	1.5124e+01	1.5075	-7.404062	0.000205	2.047341	0.346829	0.000020
 154	1.5223e+01	1.5160	-7.372289	0.000319	3.193853	0.541053	0.000032
 155	1.5323e+01	1.5250	-7.355181	0.000172	1.719767	0.291336	0.000017
 156	1.5422e+01	1.5359	-7.329518	0.000258	2.579650	0.437005	0.000026
 157	1.5522e+01	1.5477	-7.311188	0.000184	1.842607	0.312146	0.000018
 158	1.5621e+01	1.5578	-7.285525	0.000258	2.579650	0.437005	0.000026
 159	1.5721e+01	1.5682	-7.261085	0.000246	2.456810	0.416195	0.000025
 160	1.5820e+01	1.5760	-7.238681	0.000225	2.252076	0.381512	0.000023
 161	1.5920e+01	1.5872	-7.215870	0.000229	2.293022	0.388449	0.000023
 162	1.6020e+01	1.5990	-7.192244	0.000237	2.374916	0.402322	0.000024
 163	1.6119e+01	1.6074	-7.172691	0.000197	1.965448	0.332956	0.000020
 164	1.6218e+01	1.6186	-7.144585	0.000283	2.825331	0.478624	0.000028
 165	1.6318e+01	1.6261	-7.119329	0.000254	2.538703	0.430068	0.000025
 166	1.6418e+01	1.6385	-7.097333	0.000221	2.211129	0.374575	0.000022
 167	1.6517e+01	1.6454	-7.072485	0.000250	2.497757	0.423131	0.000025
 168	1.6616e+01	1.6625	-7.049267	0.000233	2.333969	0.395385	0.000023
 169	1.6716e+01	1.6676	-7.030529	0.000188	1.883554	0.319083	0.000019
 170	1.6816e+01	1.6769	-7.004866	0.000258	2.579650	0.437005	0.000026
 171	1.6915e+01	1.6853	-6.983684	0.000213	2.129235	0.360702	0.000021
 172	1.7015e+01	1.6961	-6.962910	0.000209	2.088288	0.353766	0.000021
 173	1.7114e+01	1.7065	-6.938877	0.000242	2.415863	0.409258	0.000024
 174	1.7213e+01	1.7126	-6.917695	0.000213	2.129235	0.360702	0.000021
 175	1.7313e+01	1.7274	-6.890810	0.000270	2.702491	0.457814	0.000027
 176	1.7413e+01	1.7378	-6.865555	0.000254	2.538703	0.430068	0.000025
 177	1.7512e+01	1.7456	-6.843151	0.000225	2.252076	0.381512	0.000023
 178	1.7611e+01	1.7548	-6.817489	0.000258	2.579650	0.437005	0.000026
 179	1.7711e+01	1.7667	-6.792641	0.000250	2.497757	0.423131	0.000025
 180	1.7811e+01	1.7744	-6.762090	0.000307	3.071012	0.520244	0.000031
 181	1.7910e+01	1.7869	-6.741723	0.000205	2.047341	0.346829	0.000020
 182	1.8009e+01	1.7945	-6.717282	0.000246	2.456810	0.416195	0.000025
 183	1.8109e+01	1.8082	-6.694879	0.000225	2.252076	0.381512	0.000023
 184	1.8209e+01	1.8172	-6.668809	0.000262	2.620597	0.443941	0.000026
 185	1.8308e+01	1.8268	-6.643553	0.000254	2.538703	0.430068	0.000025
 186	1.8407e+01	1.8368	-6.619927	0.000237	2.374916	0.402322	0.000024
 187	1.8507e+01	1.8452	-6.595487	0.000246	2.456810	0.416195	0.000025
 188	1.8607e+01	1.8542	-6.570639	0.000250	2.497757	0.423131	0.000025
 189	1.8706e+01	1.8672	-6.547828	0.000229	2.293022	0.388449	0.000023
 190	1.8805e+01	1.8755	-6.518907	0.000291	2.907225	0.492497	0.000029
 191	1.8905e+01	1.8863	-6.494059	0.000250	2.497757	0.423131	0.000025
 192	1.9005e+01	1.8975	-6.472469	0.000217	2.170182	0.367639	0.000022
 193	1.9104e+01	1.9061	-6.445992	0.000266	2.661544	0.450878	0.000027
 194	1.9203e+01	1.9138	-6.421144	0.000250	2.497757	0.423131	0.000025
 195	1.9303e+01	1.9255	-6.390594	0.000307	3.071012	0.520244	0.000031
 196	1.9402e+01	1.9351	-6.362487	0.000283	2.825331	0.478624	0.000028
 197	1.9502e+01	1.9480	-6.342527	0.000201	2.006395	0.339892	0.000020
 198	1.9602e+01	1.9570	-6.311162	0.000315	3.152906	0.534117	0.000032
 199	1.9701e+01	1.9678	-6.285907	0.000254	2.538703	0.430068	0.000025
 200	1.9800e+01	1.9775	-6.257800	0.000283	2.825331	0.478624	0.000028
 201	1.9900e+01	1.9862	-6.233767	0.000242	2.415863	0.409258	0.000024
 202	2.0000e+01	1.9926	-6.204845	0.000291	2.907225	0.492497	0.000029
 203	2.0099e+01	2.0074	-6.180405	0.000246	2.456810	0.416195	0.000025
 204	2.0198e+01	2.0177	-6.153928	0.000266	2.661544	0.450878	0.000027
 205	2.0298e+01	2.0264	-6.125414	0.000287	2.866278	0.485561	0.000029
 206	2.0398e+01	2.0355	-6.099344	0.000262	2.620597	0.443941	0.000026
 207	2.0497e+01	2.0453	-6.072866	0.000266	2.661544	0.450878	0.000027
 208	2.0596e+01	2.0547	-6.044760	0.000283	2.825331	0.478624	0.000028
 209	2.0696e+01	2.0644	-6.018690	0.000262	2.620597	0.443941	0.000026
 210	2.0796e+01	2.0756	-5.990176	0.000287	2.866278	0.485561	0.000029
 211	2.0895e+01	2.0864	-5.966957	0.000233	2.333969	0.395385	0.000023
 212	2.0994e+01	2.0948	-5.941702	0.000254	2.538703	0.430068	0.000025
 213	2.1094e+01	2.1055	-5.913188	0.000287	2.866278	0.485561	0.000029
 214	2.1194e+01	2.1156	-5.885489	0.000278	2.784384	0.471687	0.000028
 215	2.1293e+01	2.1257	-5.859826	0.000258	2.579650	0.437005	0.000026
 216	2.1392e+01	2.1346	-5.835386	0.000246	2.456810	0.416195	0.000025
 217	2.1492e+01	2.1446	-5.810945	0.000246	2.456810	0.416195	0.000025
 218	2.1591e+01	2.1556	-5.786097	0.000250	2.497757	0.423131	0.000025
 219	2.1691e+01	2.1661	-5.760435	0.000258	2.579650	0.437005	0.000026
 220	2.1791e+01	2.1760	-5.733143	0.000274	2.743438	0.464751	0.000027
 221	2.1890e+01	2.1848	-5.710332	0.000229	2.293022	0.388449	0.000023
 222	2.1989e+01	2.1941	-5.688742	0.000217	2.170182	0.367639	0.000022
 223	2.2089e+01	2.2045	-5.661858	0.000270	2.702491	0.457814	0.000027
 224	2.2189e+01	2.2137	-5.637010	0.000250	2.497757	0.423131	0.000025
 225	2.2288e+01	2.2259	-5.612977	0.000242	2.415863	0.409258	0.000024
 226	2.2387e+01	2.2342	-5.584870	0.000283	2.825331	0.478624	0.000028
 227	2.2487e+01	2.2454	-5.564096	0.000209	2.088288	0.353766	0.000021
 228	2.2587e+01	2.2550	-5.540470	0.000237	2.374916	0.402322	0.000024
 229	2.2686e+01	2.2643	-5.512770	0.000278	2.784384	0.471687	0.000028
 230	2.2785e+01	2.2768	-5.489145	0.000237	2.374916	0.402322	0.000024
 231	2.2885e+01	2.2816	-5.465519	0.000237	2.374916	0.402322	0.000024
 232	2.2985e+01	2.2933	-5.440263	0.000254	2.538703	0.430068	0.000025
 233	2.3084e+01	2.3064	-5.413379	0.000270	2.702491	0.457814	0.000027
 234	2.3183e+01	2.3146	-5.391382	0.000221	2.211129	0.374575	0.000022
 235	2.3283e+01	2.3244	-5.366534	0.000250	2.497757	0.423131	0.000025
 236	2.3383e+01	2.3335	-5.338020	0.000287	2.866278	0.485561	0.000029
 237	2.3482e+01	2.3450	-5.316839	0.000213	2.129235	0.360702	0.000021
 238	2.3581e+01	2.3530	-5.290361	0.000266	2.661544	0.450878	0.000027
 239	2.3681e+01	2.3655	-5.265513	0.000250	2.497757	0.423131	0.000025
 240	2.3780e+01	2.3765	-5.241073	0.000246	2.456810	0.416195	0.000025
 241	2.3880e+01	2.3843	-5.215818	0.000254	2.538703	0.430068	0.000025
 242	2.3980e+01	2.3942	-5.186082	0.000299	2.989119	0.506370	0.000030
 243	2.4079e+01	2.4033	-5.160419	0.000258	2.579650	0.437005	0.000026
 244	2.4178e+01	2.4129	-5.134349	0.000262	2.620597	0.443941	0.000026
 245	2.4278e+01	2.4245	-5.110316	0.000242	2.415863	0.409258	0.000024
 246	2.4378e+01	2.4305	-5.084653	0.000258	2.579650	0.437005	0.000026
 247	2.4477e+01	2.4429	-5.061028	0.000237	2.374916	0.402322	0.000024
 248	2.4576e+01	2.4514	-5.038216	0.000229	2.293022	0.388449	0.000023
 249	2.4676e+01	2.4645	-5.012554	0.000258	2.579650	0.437005	0.000026
 250	2.4776e+01	2.4738	-4.987706	0.000250	2.497757	0.423131	0.000025
 251	2.4875e+01	2.4821	-4.959192	0.000287	2.866278	0.485561	0.000029
 252	2.4974e+01	2.4928	-4.929863	0.000295	2.948172	0.499434	0.000029
 253	2.5074e+01	2.4994	-4.910311	0.000197	1.965448	0.332956	0.000020
 254	2.5174e+01	2.5140	-4.884648	0.000258	2.579650	0.437005	0.000026
 255	2.5273e+01	2.5217	-4.858171	0.000266	2.661544	0.450878	0.000027
 256	2.5372e+01	2.5338	-4.832916	0.000254	2.538703	0.430068	0.000025
 257	2.5472e+01	2.5414	-4.808475	0.000246	2.456810	0.416195	0.000025
 258	2.5572e+01	2.5509	-4.782813	0.000258	2.579650	0.437005	0.000026
 259	2.5671e+01	2.5639	-4.757557	0.000254	2.538703	0.430068	0.000025
 260	2.5770e+01	2.5712	-4.733931	0.000237	2.374916	0.402322	0.000024
 261	2.5870e+01	2.5849	-4.712342	0.000217	2.170182	0.367639	0.000022
 262	2.5970e+01	2.5919	-4.688309	0.000242	2.415863	0.409258	0.000024
 263	2.6069e+01	2.6020	-4.665091	0.000233	2.333969	0.395385	0.000023
 264	2.6169e+01	2.6113	-4.643501	0.000217	2.170182	0.367639	0.000022
 265	2.6268e+01	2.6231	-4.618654	0.000250	2.497757	0.423131	0.000025
 266	2.6367e+01	2.6331	-4.598286	0.000205	2.047341	0.346829	0.000020
 267	2.6467e+01	2.6424	-4.572624	0.000258	2.579650	0.437005	0.000026
 268	2.6567e+01	2.6508	-4.547776	0.000250	2.497757	0.423131	0.000025
 269	2.6666e+01	2.6614	-4.526187	0.000217	2.170182	0.367639	0.000022
 270	2.6765e+01	2.6699	-4.501339	0.000250	2.497757	0.423131	0.000025
 271	2.6865e+01	2.6849	-4.476084	0.000254	2.538703	0.430068	0.000025
 272	2.6965e+01	2.6897	-4.454494	0.000217	2.170182	0.367639	0.000022
 273	2.7064e+01	2.7036	-4.432091	0.000225	2.252076	0.381512	0.000023
 274	2.7163e+01	2.7129	-4.408872	0.000233	2.333969	0.395385	0.000023
 275	2.7263e+01	2.7221	-4.384839	0.000242	2.415863	0.409258	0.000024
 276	2.7363e+01	2.7316	-4.363250	0.000217	2.170182	0.367639	0.000022
 277	2.7462e+01	2.7412	-4.337995	0.000254	2.538703	0.430068	0.000025
 278	2.7561e+01	2.7503	-4.317627	0.000205	2.047341	0.346829	0.000020
 279	2.7661e+01	2.7628	-4.297668	0.000201	2.006395	0.339892	0.000020
 280	2.7761e+01	2.7677	-4.275671	0.000221	2.211129	0.374575	0.000022
 281	2.7860e+01	2.7848	-4.254082	0.000217	2.170182	0.367639	0.000022
 282	2.7959e+01	2.7915	-4.234937	0.000192	1.924501	0.326019	0.000019
 283	2.8059e+01	2.8014	-4.208052	0.000270	2.702491	0.457814	0.000027
 284	2.8159e+01	2.8123	-4.190944	0.000172	1.719767	0.291336	0.000017
 285	2.8258e+01	2.8203	-4.165689	0.000254	2.538703	0.430068	0.000025
 286	2.8358e+01	2.8295	-4.147358	0.000184	1.842607	0.312146	0.000018
 287	2.8457e+01	2.8418	-4.123732	0.000237	2.374916	0.402322	0.000024
 288	2.8556e+01	2.8531	-4.102551	0.000213	2.129235	0.360702	0.000021
 289	2.8656e+01	2.8620	-4.082591	0.000201	2.006395	0.339892	0.000020
 290	2.8756e+01	2.8721	-4.057743	0.000250	2.497757	0.423131	0.000025
 291	2.8855e+01	2.8825	-4.037783	0.000201	2.006395	0.339892	0.000020
 292	2.8954e+01	2.8902	-4.019860	0.000180	1.801661	0.305210	0.000018
 293	2.9054e+01	2.9023	-3.995419	0.000246	2.456810	0.416195	0.000025
 294	2.9154e+01	2.9122	-3.976682	0.000188	1.883554	0.319083	0.000019
 295	2.9253e+01	2.9216	-3.956722	0.000201	2.006395	0.339892	0.000020
 296	2.9352e+01	2.9296	-3.930245	0.000266	2.661544	0.450878	0.000027
 297	2.9452e+01	2.9435	-3.913544	0.000168	1.678820	0.284400	0.000017
 298	2.9552e+01	2.9512	-3.887066	0.000266	2.661544	0.450878	0.000027
 299	2.9651e+01	2.9617	-3.863848	0.000233	2.333969	0.395385	0.000023
 300	2.9750e+01	2.9714	-3.844703	0.000192	1.924501	0.326019	0.000019
 301	2.9850e+01	2.9781	-3.824743	0.000201	2.006395	0.339892	0.000020
 302	2.9950e+01	2.9912	-3.799080	0.000258	2.579650	0.437005	0.000026
 303	3.0049e+01	3.0010	-3.770974	0.000283	2.825331	0.478624	0.000028
 304	3.0148e+01	3.0122	-3.751014	0.000201	2.006395	0.339892	0.000020
 305	3.0248e+01	3.0264	-3.727795	0.000233	2.333969	0.395385	0.000023
 306	3.0348e+01	3.0280	-3.708243	0.000197	1.965448	0.332956	0.000020
 307	3.0447e+01	3.0415	-3.682173	0.000262	2.620597	0.443941	0.000026
 308	3.0547e+01	3.0502	-3.662213	0.000201	2.006395	0.339892	0.000020
 309	3.0646e+01	3.0585	-3.639809	0.000225	2.252076	0.381512	0.000023
 310	3.0745e+01	3.0682	-3.614554	0.000254	2.538703	0.430068	0.000025
 311	3.0845e+01	3.0773	-3.591336	0.000233	2.333969	0.395385	0.000023
 312	3.0945e+01	3.0901	-3.570561	0.000209	2.088288	0.353766	0.000021
 313	3.1044e+01	3.1002	-3.544084	0.000266	2.661544	0.450878	0.000027
 314	3.1143e+01	3.1072	-3.519236	0.000250	2.497757	0.423131	0.000025
 315	3.1243e+01	3.1210	-3.500091	0.000192	1.924501	0.326019	0.000019
 316	3.1343e+01	3.1339	-3.473206	0.000270	2.702491	0.457814	0.000027
 317	3.1442e+01	3.1420	-3.452839	0.000205	2.047341	0.346829	0.000020
 318	3.1541e+01	3.1528	-3.430843	0.000221	2.211129	0.374575	0.000022
 319	3.1641e+01	3.1596	-3.405180	0.000258	2.579650	0.437005	0.000026
 320	3.1741e+01	3.1672	-3.384813	0.000205	2.047341	0.346829	0.000020
 321	3.1840e+01	3.1782	-3.360372	0.000246	2.456810	0.416195	0.000025
 322	3.1939e+01	3.1913	-3.340820	0.000197	1.965448	0.332956	0.000020
 323	3.2039e+01	3.2018	-3.317601	0.000233	2.333969	0.395385	0.000023
 324	3.2139e+01	3.2085	-3.293976	0.000237	2.374916	0.402322	0.000024
 325	3.2238e+01	3.2175	-3.274016	0.000201	2.006395	0.339892	0.000020
 326	3.2337e+01	3.2270	-3.251612	0.000225	2.252076	0.381512	0.000023
 327	3.2437e+01	3.2384	-3.232874	0.000188	1.883554	0.319083	0.000019
 328	3.2536e+01	3.2496	-3.208026	0.000250	2.497757	0.423131	0.000025
 329	3.2636e+01	3.2607	-3.187252	0.000209	2.088288	0.353766	0.000021
 330	3.2736e+01	3.2692	-3.166477	0.000209	2.088288	0.353766	0.000021
 331	3.2835e+01	3.2790	-3.139185	0.000274	2.743438	0.464751	0.000027
 332	3.2934e+01	3.2903	-3.118004	0.000213	2.129235	0.360702	0.000021
 333	3.3034e+01	3.2981	-3.093563	0.000246	2.456810	0.416195	0.000025
 334	3.3133e+01	3.3089	-3.075233	0.000184	1.842607	0.312146	0.000018
 335	3.3233e+01	3.3221	-3.052421	0.000229	2.293022	0.388449	0.000023
 336	3.3333e+01	3.3290	-3.031647	0.000209	2.088288	0.353766	0.000021
 337	3.3432e+01	3.3396	-3.008428	0.000233	2.333969	0.395385	0.000023
 338	3.3532e+01	3.3501	-2.986432	0.000221	2.211129	0.374575	0.000022
 339	3.3631e+01	3.3603	-2.962399	0.000242	2.415863	0.409258	0.000024
 340	3.3730e+01	3.3688	-2.942032	0.000205	2.047341	0.346829	0.000020
 341	3.3830e+01	3.3782	-2.917591	0.000246	2.456810	0.416195	0.000025
 342	3.3929e+01	3.3909	-2.899261	0.000184	1.842607	0.312146	0.000018
 343	3.4029e+01	3.3968	-2.873598	0.000258	2.579650	0.437005	0.000026
 344	3.4129e+01	3.4083	-2.849972	0.000237	2.374916	0.402322	0.000024
 345	3.4228e+01	3.4186	-2.827568	0.000225	2.252076	0.381512	0.000023
 346	3.4328e+01	3.4317	-2.804350	0.000233	2.333969	0.395385	0.000023
 347	3.4427e+01	3.4378	-2.780317	0.000242	2.415863	0.409258	0.000024
 348	3.4526e+01	3.4489	-2.754654	0.000258	2.579650	0.437005	0.000026
 349	3.4626e+01	3.4550	-2.732250	0.000225	2.252076	0.381512	0.000023
 350	3.4725e+01	3.4667	-2.709439	0.000229	2.293022	0.388449	0.000023
 351	3.4825e+01	3.4778	-2.684591	0.000250	2.497757	0.423131	0.000025
 352	3.4925e+01	3.4892	-2.661373	0.000233	2.333969	0.395385	0.000023
 353	3.5024e+01	3.4998	-2.639376	0.000221	2.211129	0.374575	0.000022
 354	3.5123e+01	3.5078	-2.614121	0.000254	2.538703	0.430068	0.000025
 355	3.5223e+01	3.5186	-2.588458	0.000258	2.579650	0.437005	0.000026
 356	3.5322e+01	3.5305	-2.564425	0.000242	2.415863	0.409258	0.000024
 357	3.5422e+01	3.5371	-2.543651	0.000209	2.088288	0.353766	0.000021
 358	3.5522e+01	3.5497	-2.517581	0.000262	2.620597	0.443941	0.000026
 359	3.5621e+01	3.5564	-2.493547	0.000242	2.415863	0.409258	0.000024
 360	3.5721e+01	3.5676	-2.471551	0.000221	2.211129	0.374575	0.000022
 361	3.5820e+01	3.5777	-2.448332	0.000233	2.333969	0.395385	0.000023
 362	3.5919e+01	3.5872	-2.419818	0.000287	2.866278	0.485561	0.000029
 363	3.6019e+01	3.5967	-2.395785	0.000242	2.415863	0.409258	0.000024
 364	3.6118e+01	3.6040	-2.367271	0.000287	2.866278	0.485561	0.000029
 365	3.6218e+01	3.6193	-2.344867	0.000225	2.252076	0.381512	0.000023
 366	3.6318e+01	3.6274	-2.316353	0.000287	2.866278	0.485561	0.000029
 367	3.6417e+01	3.6382	-2.293542	0.000229	2.293022	0.388449	0.000023
 368	3.6517e+01	3.6449	-2.264214	0.000295	2.948172	0.499434	0.000029
 369	3.6616e+01	3.6578	-2.244254	0.000201	2.006395	0.339892	0.000020
 370	3.6715e+01	3.6663	-2.216147	0.000283	2.825331	0.478624	0.000028
 371	3.6815e+01	3.6767	-2.190077	0.000262	2.620597	0.443941	0.000026
 372	3.6914e+01	3.6900	-2.167673	0.000225	2.252076	0.381512	0.000023
 373	3.7014e+01	3.7000	-2.142011	0.000258	2.579650	0.437005	0.000026
 374	3.7114e+01	3.7092	-2.113089	0.000291	2.907225	0.492497	0.000029
 375	3.7213e+01	3.7164	-2.087834	0.000254	2.538703	0.430068	0.000025
 376	3.7313e+01	3.7264	-2.060542	0.000274	2.743438	0.464751	0.000027
 377	3.7412e+01	3.7369	-2.036916	0.000237	2.374916	0.402322	0.000024
 378	3.7511e+01	3.7462	-2.011254	0.000258	2.579650	0.437005	0.000026
 379	3.7611e+01	3.7568	-1.985999	0.000254	2.538703	0.430068	0.000025
 380	3.7711e+01	3.7643	-1.962373	0.000237	2.374916	0.402322	0.000024
 381	3.7810e+01	3.7774	-1.935895	0.000266	2.661544	0.450878	0.000027
 382	3.7910e+01	3.7865	-1.909418	0.000266	2.661544	0.450878	0.000027
 383	3.8009e+01	3.7963	-1.887829	0.000217	2.170182	0.367639	0.000022
 384	3.8108e+01	3.8062	-1.867869	0.000201	2.006395	0.339892	0.000020
 385	3.8208e+01	3.8187	-1.840985	0.000270	2.702491	0.457814	0.000027
 386	3.8307e+01	3.8277	-1.816544	0.000246	2.456810	0.416195	0.000025
 387	3.8407e+01	3.8363	-1.792104	0.000246	2.456810	0.416195	0.000025
 388	3.8507e+01	3.8470	-1.767663	0.000246	2.456810	0.416195	0.000025
 389	3.8606e+01	3.8590	-1.743222	0.000246	2.456810	0.416195	0.000025
 390	3.8706e+01	3.8675	-1.721633	0.000217	2.170182	0.367639	0.000022
 391	3.8805e+01	3.8773	-1.700044	0.000217	2.170182	0.367639	0.000022
 392	3.8904e+01	3.8874	-1.673974	0.000262	2.620597	0.443941	0.000026
 393	3.9004e+01	3.8949	-1.648719	0.000254	2.538703	0.430068	0.000025
 394	3.9103e+01	3.9058	-1.626315	0.000225	2.252076	0.381512	0.000023
 395	3.9203e+01	3.9144	-1.603504	0.000229	2.293022	0.388449	0.000023
 396	3.9303e+01	3.9259	-1.580285	0.000233	2.333969	0.395385	0.000023
 397	3.9402e+01	3.9402	-1.552179	0.000283	2.825331	0.478624	0.000028
 398	3.9502e+01	3.9460	-1.530997	0.000213	2.129235	0.360702	0.000021
 399	3.9601e+01	3.9560	-1.509000	0.000221	2.211129	0.374575	0.000022
 400	3.9700e+01	3.9657	-1.486189	0.000229	2.293022	0.388449	0.000023
 401	3.9800e+01	3.9756	-1.461341	0.000250	2.497757	0.423131	0.000025
 402	3.9900e+01	3.9841	-1.439752	0.000217	2.170182	0.367639	0.000022
 403	3.9999e+01	3.9970	-1.416534	0.000233	2.333969	0.395385	0.000023
 404	4.0099e+01	4.0068	-1.391686	0.000250	2.497757	0.423131	0.000025
 405	4.0198e+01	4.0174	-1.366838	0.000250	2.497757	0.423131	0.000025
 406	4.0297e+01	4.0263	-1.344841	0.000221	2.211129	0.374575	0.000022
 407	4.0397e+01	4.0336	-1.319179	0.000258	2.579650	0.437005	0.000026
 408	4.0496e+01	4.0409	-1.289850	0.000295	2.948172	0.499434	0.000029
 409	4.0596e+01	4.0557	-1.267854	0.000221	2.211129	0.374575	0.000022
 410	4.0696e+01	4.0630	-1.244228	0.000237	2.374916	0.402322	0.000024
 411	4.0795e+01	4.0749	-1.220602	0.000237	2.374916	0.402322	0.000024
 412	4.0895e+01	4.0845	-1.195754	0.000250	2.497757	0.423131	0.000025
 413	4.0994e+01	4.0959	-1.172943	0.000229	2.293022	0.388449	0.000023
 414	4.1093e+01	4.1042	-1.145244	0.000278	2.784384	0.471687	0.000028
 415	4.1193e+01	4.1163	-1.122432	0.000229	2.293022	0.388449	0.000023
 416	4.1292e+01	4.1259	-1.099214	0.000233	2.333969	0.395385	0.000023
 417	4.1392e+01	4.1357	-1.074773	0.000246	2.456810	0.416195	0.000025
 418	4.1492e+01	4.1444	-1.051962	0.000229	2.293022	0.388449	0.000023
 419	4.1591e+01	4.1552	-1.028744	0.000233	2.333969	0.395385	0.000023
 420	4.1691e+01	4.1634	-0.999822	0.000291	2.907225	0.492497	0.000029
 421	4.1790e+01	4.1763	-0.976604	0.000233	2.333969	0.395385	0.000023
 422	4.1889e+01	4.1846	-0.951756	0.000250	2.497757	0.423131	0.000025
 423	4.1989e+01	4.1944	-0.930981	0.000209	2.088288	0.353766	0.000021
 424	4.2089e+01	4.2042	-0.903282	0.000278	2.784384	0.471687	0.000028
 425	4.2188e+01	4.2130	-0.884137	0.000192	1.924501	0.326019	0.000019
 426	4.2288e+01	4.2254	-0.860511	0.000237	2.374916	0.402322	0.000024
 427	4.2387e+01	4.2342	-0.836071	0.000246	2.456810	0.416195	0.000025
 428	4.2486e+01	4.2439	-0.812037	0.000242	2.415863	0.409258	0.000024
 429	4.2586e+01	4.2553	-0.793300	0.000188	1.883554	0.319083	0.000019
 430	4.2685e+01	4.2648	-0.768452	0.000250	2.497757	0.423131	0.000025
 431	4.2785e+01	4.2741	-0.746455	0.000221	2.211129	0.374575	0.000022
 432	4.2885e+01	4.2825	-0.724051	0.000225	2.252076	0.381512	0.000023
 433	4.2984e+01	4.2946	-0.700426	0.000237	2.374916	0.402322	0.000024
 434	4.3084e+01	4.3024	-0.678429	0.000221	2.211129	0.374575	0.000022
 435	4.3183e+01	4.3127	-0.657655	0.000209	2.088288	0.353766	0.000021
 436	4.3282e+01	4.3232	-0.632399	0.000254	2.538703	0.430068	0.000025
 437	4.3382e+01	4.3353	-0.613254	0.000192	1.924501	0.326019	0.000019
 438	4.3481e+01	4.3453	-0.586370	0.000270	2.702491	0.457814	0.000027
 439	4.3581e+01	4.3536	-0.565595	0.000209	2.088288	0.353766	0.000021
 440	4.3681e+01	4.3641	-0.546043	0.000197	1.965448	0.332956	0.000020
 441	4.3780e+01	4.3746	-0.519565	0.000266	2.661544	0.450878	0.000027
 442	4.3880e+01	4.3827	-0.501235	0.000184	1.842607	0.312146	0.000018
 443	4.3979e+01	4.3944	-0.478831	0.000225	2.252076	0.381512	0.000023
 444	4.4078e+01	4.4036	-0.458871	0.000201	2.006395	0.339892	0.000020
 445	4.4178e+01	4.4154	-0.438504	0.000205	2.047341	0.346829	0.000020
 446	4.4278e+01	4.4231	-0.418137	0.000205	2.047341	0.346829	0.000020
 447	4.4377e+01	4.4331	-0.395733	0.000225	2.252076	0.381512	0.000023
 448	4.4477e+01	4.4432	-0.375366	0.000205	2.047341	0.346829	0.000020
 449	4.4576e+01	4.4547	-0.354184	0.000213	2.129235	0.360702	0.000021
 450	4.4675e+01	4.4642	-0.335039	0.000192	1.924501	0.326019	0.000019
 451	4.4775e+01	4.4744	-0.312228	0.000229	2.293022	0.388449	0.000023
 452	4.4874e+01	4.4821	-0.293083	0.000192	1.924501	0.326019	0.000019
 453	4.4974e+01	4.4933	-0.270679	0.000225	2.252076	0.381512	0.000023
 454	4.5074e+01	4.5049	-0.252756	0.000180	1.801661	0.305210	0.000018
 455	4.5173e+01	4.5135	-0.229130	0.000237	2.374916	0.402322	0.000024
 456	4.5273e+01	4.5258	-0.208763	0.000205	2.047341	0.346829	0.000020
 457	4.5372e+01	4.5345	-0.190433	0.000184	1.842607	0.312146	0.000018
 458	4.5471e+01	4.5405	-0.171695	0.000188	1.883554	0.319083	0.000019
 459	4.5571e+01	4.5538	-0.150106	0.000217	2.170182	0.367639	0.000022
 460	4.5670e+01	4.5616	-0.132997	0.000172	1.719767	0.291336	0.000017
 461	4.5770e+01	4.5756	-0.112630	0.000205	2.047341	0.346829	0.000020
 462	4.5870e+01	4.5821	-0.090634	0.000221	2.211129	0.374575	0.000022
 463	4.5969e+01	4.5907	-0.071489	0.000192	1.924501	0.326019	0.000019
 464	4.6069e+01	4.6045	-0.050307	0.000213	2.129235	0.360702	0.000021
 465	4.6168e+01	4.6120	-0.030754	0.000197	1.965448	0.332956	0.000020
 466	4.6267e+01	4.6196	-0.007128	0.000237	2.374916	0.402322	0.000024
 467	4.6367e+01	4.6311	0.011202	0.000184	1.842607	0.312146	0.000018
 468	4.6467e+01	4.6436	0.038901	0.000278	2.784384	0.471687	0.000028
 469	4.6566e+01	4.6526	0.055195	0.000164	1.637873	0.277463	0.000016
 470	4.6666e+01	4.6613	0.076784	0.000217	2.170182	0.367639	0.000022
 471	4.6765e+01	4.6708	0.103261	0.000266	2.661544	0.450878	0.000027
 472	4.6864e+01	4.6822	0.121592	0.000184	1.842607	0.312146	0.000018
 473	4.6964e+01	4.6912	0.140737	0.000192	1.924501	0.326019	0.000019
 474	4.7063e+01	4.7021	0.164363	0.000237	2.374916	0.402322	0.000024
 475	4.7163e+01	4.7123	0.186359	0.000221	2.211129	0.374575	0.000022
 476	4.7263e+01	4.7247	0.206319	0.000201	2.006395	0.339892	0.000020
 477	4.7362e+01	4.7340	0.227501	0.000213	2.129235	0.360702	0.000021
 478	4.7462e+01	4.7414	0.250719	0.000233	2.333969	0.395385	0.000023
 479	4.7561e+01	4.7518	0.271086	0.000205	2.047341	0.346829	0.000020
 480	4.7660e+01	4.7630	0.293083	0.000221	2.211129	0.374575	0.000022
 481	4.7760e+01	4.7727	0.317116	0.000242	2.415863	0.409258	0.000024
 482	4.7859e+01	4.7808	0.338298	0.000213	2.129235	0.360702	0.000021
 483	4.7959e+01	4.7906	0.359887	0.000217	2.170182	0.367639	0.000022
 484	4.8059e+01	4.8015	0.385142	0.000254	2.538703	0.430068	0.000025
 485	4.8158e+01	4.8110	0.404695	0.000197	1.965448	0.332956	0.000020
 486	4.8258e+01	4.8204	0.425062	0.000205	2.047341	0.346829	0.000020
 487	4.8357e+01	4.8318	0.448688	0.000237	2.374916	0.402322	0.000024
 488	4.8456e+01	4.8421	0.471092	0.000225	2.252076	0.381512	0.000023
 489	4.8556e+01	4.8512	0.492273	0.000213	2.129235	0.360702	0.000021
 490	4.8656e+01	4.8629	0.517529	0.000254	2.538703	0.430068	0.000025
 491	4.8755e+01	4.8711	0.535859	0.000184	1.842607	0.312146	0.000018
 492	4.8855e+01	4.8796	0.554190	0.000184	1.842607	0.312146	0.000018
 493	4.8954e+01	4.8898	0.572927	0.000188	1.883554	0.319083	0.000019
 494	4.9053e+01	4.9023	0.595331	0.000225	2.252076	0.381512	0.000023
 495	4.9153e+01	4.9114	0.616513	0.000213	2.129235	0.360702	0.000021
 496	4.9252e+01	4.9218	0.638509	0.000221	2.211129	0.374575	0.000022
 497	4.9352e+01	4.9313	0.651544	0.000131	1.310299	0.221971	0.000013
 498	4.9452e+01	4.9403	0.677614	0.000262	2.620597	0.443941	0.000026
 499	4.9551e+01	4.9499	0.698796	0.000213	2.129235	0.360702	0.000021
 500	4.9651e+01	4.9590	0.719571	0.000209	2.088288	0.353766	0.000021
 501	4.9750e+01	4.9702	0.741160	0.000217	2.170182	0.367639	0.000022
 502	4.9849e+01	4.9819	0.762749	0.000217	2.170182	0.367639	0.000022
 503	4.9949e+01	4.9920	0.780672	0.000180	1.801661	0.305210	0.000018
 504	5.0048e+01	5.0038	0.803483	0.000229	2.293022	0.388449	0.000023
 505	5.0148e+01	5.0112	0.827109	0.000237	2.374916	0.402322	0.000024
 506	5.0248e+01	5.0198	0.846661	0.000197	1.965448	0.332956	0.000020
 507	5.0347e+01	5.0298	0.866214	0.000197	1.965448	0.332956	0.000020
 508	5.0447e+01	5.0420	0.886581	0.000205	2.047341	0.346829	0.000020
 509	5.0546e+01	5.0495	0.905726	0.000192	1.924501	0.326019	0.000019
 510	5.0645e+01	5.0594	0.930981	0.000254	2.538703	0.430068	0.000025
 511	5.0745e+01	5.0684	0.948904	0.000180	1.801661	0.305210	0.000018
 512	5.0844e+01	5.0841	0.974160	0.000254	2.538703	0.430068	0.000025
 513	5.0944e+01	5.0903	0.997786	0.000237	2.374916	0.402322	0.000024
 514	5.1044e+01	5.0988	1.018967	0.000213	2.129235	0.360702	0.000021
 515	5.1143e+01	5.1095	1.042186	0.000233	2.333969	0.395385	0.000023
 516	5.1242e+01	5.1180	1.062960	0.000209	2.088288	0.353766	0.000021
 517	5.1342e+01	5.1307	1.086994	0.000242	2.415863	0.409258	0.000024
 518	5.1441e+01	5.1415	1.106546	0.000197	1.965448	0.332956	0.000020
 519	5.1541e+01	5.1492	1.128950	0.000225	2.252076	0.381512	0.000023
 520	5.1641e+01	5.1611	1.152168	0.000233	2.333969	0.395385	0.000023
 521	5.1740e+01	5.1682	1.175387	0.000233	2.333969	0.395385	0.000023
 522	5.1840e+01	5.1800	1.197383	0.000221	2.211129	0.374575	0.000022
 523	5.1939e+01	5.1904	1.221417	0.000242	2.415863	0.409258	0.000024
 524	5.2038e+01	5.2010	1.245450	0.000242	2.415863	0.409258	0.000024
 525	5.2138e+01	5.2094	1.265817	0.000205	2.047341	0.346829	0.000020
 526	5.2237e+01	5.2171	1.289036	0.000233	2.333969	0.395385	0.000023
 527	5.2337e+01	5.2285	1.312661	0.000237	2.374916	0.402322	0.000024
 528	5.2437e+01	5.2380	1.335065	0.000225	2.252076	0.381512	0.000023
 529	5.2536e+01	5.2483	1.361542	0.000266	2.661544	0.450878	0.000027
 530	5.2636e+01	5.2595	1.383539	0.000221	2.211129	0.374575	0.000022
 531	5.2735e+01	5.2682	1.408794	0.000254	2.538703	0.430068	0.000025
 532	5.2834e+01	5.2768	1.434049	0.000254	2.538703	0.430068	0.000025
 533	5.2934e+01	5.2865	1.454417	0.000205	2.047341	0.346829	0.000020
 534	5.3033e+01	5.2987	1.479264	0.000250	2.497757	0.423131	0.000025
 535	5.3133e+01	5.3082	1.505334	0.000262	2.620597	0.443941	0.000026
 536	5.3233e+01	5.3176	1.528960	0.000237	2.374916	0.402322	0.000024
 537	5.3332e+01	5.3268	1.552179	0.000233	2.333969	0.395385	0.000023
 538	5.3431e+01	5.3387	1.579063	0.000270	2.702491	0.457814	0.000027
 539	5.3531e+01	5.3532	1.599023	0.000201	2.006395	0.339892	0.000020
 540	5.3630e+01	5.3584	1.621020	0.000221	2.211129	0.374575	0.000022
 541	5.3730e+01	5.3671	1.649941	0.000291	2.907225	0.492497	0.000029
 542	5.3830e+01	5.3785	1.676826	0.000270	2.702491	0.457814	0.000027
 543	5.3929e+01	5.3867	1.700451	0.000237	2.374916	0.402322	0.000024
 544	5.4029e+01	5.3979	1.724077	0.000237	2.374916	0.402322	0.000024
 545	5.4128e+01	5.4086	1.747703	0.000237	2.374916	0.402322	0.000024
 546	5.4227e+01	5.4184	1.775403	0.000278	2.784384	0.471687	0.000028
 547	5.4327e+01	5.4278	1.797399	0.000221	2.211129	0.374575	0.000022
 548	5.4426e+01	5.4388	1.821432	0.000242	2.415863	0.409258	0.000024
 549	5.4526e+01	5.4484	1.844243	0.000229	2.293022	0.388449	0.000023
 550	5.4626e+01	5.4587	1.867055	0.000229	2.293022	0.388449	0.000023
 551	5.4725e+01	5.4678	1.889458	0.000225	2.252076	0.381512	0.000023
 552	5.4825e+01	5.4803	1.916750	0.000274	2.743438	0.464751	0.000027
 553	5.4924e+01	5.4867	1.938340	0.000217	2.170182	0.367639	0.000022
 554	5.5023e+01	5.4984	1.959521	0.000213	2.129235	0.360702	0.000021
 555	5.5123e+01	5.5064	1.983555	0.000242	2.415863	0.409258	0.000024
 556	5.5222e+01	5.5187	2.004736	0.000213	2.129235	0.360702	0.000021
 557	5.5322e+01	5.5285	2.027140	0.000225	2.252076	0.381512	0.000023
 558	5.5422e+01	5.5373	2.050766	0.000237	2.374916	0.402322	0.000024
 559	5.5521e+01	5.5531	2.071948	0.000213	2.129235	0.360702	0.000021
 560	5.5620e+01	5.5581	2.095574	0.000237	2.374916	0.402322	0.000024
 561	5.5720e+01	5.5671	2.119200	0.000237	2.374916	0.402322	0.000024
 562	5.5819e+01	5.5778	2.140381	0.000213	2.129235	0.360702	0.000021
 563	5.5919e+01	5.5895	2.162378	0.000221	2.211129	0.374575	0.000022
 564	5.6019e+01	5.5973	2.185189	0.000229	2.293022	0.388449	0.000023
 565	5.6118e+01	5.6072	2.206371	0.000213	2.129235	0.360702	0.000021
 566	5.6218e+01	5.6165	2.228775	0.000225	2.252076	0.381512	0.000023
 567	5.6317e+01	5.6268	2.248327	0.000197	1.965448	0.332956	0.000020
 568	5.6416e+01	5.6384	2.274397	0.000262	2.620597	0.443941	0.000026
 569	5.6516e+01	5.6499	2.297616	0.000233	2.333969	0.395385	0.000023
 570	5.6615e+01	5.6561	2.317575	0.000201	2.006395	0.339892	0.000020
 571	5.6715e+01	5.6655	2.337535	0.000201	2.006395	0.339892	0.000020
 572	5.6815e+01	5.6762	2.361976	0.000246	2.456810	0.416195	0.000025
 573	5.6914e+01	5.6869	2.385602	0.000237	2.374916	0.402322	0.000024
 574	5.7014e+01	5.6976	2.406376	0.000209	2.088288	0.353766	0.000021
 575	5.7113e+01	5.7060	2.432446	0.000262	2.620597	0.443941	0.000026
 576	5.7212e+01	5.7194	2.456887	0.000246	2.456810	0.416195	0.000025
 577	5.7312e+01	5.7233	2.474810	0.000180	1.801661	0.305210	0.000018
 578	5.7411e+01	5.7394	2.502916	0.000283	2.825331	0.478624	0.000028
 579	5.7511e+01	5.7488	2.523691	0.000209	2.088288	0.353766	0.000021
 580	5.7611e+01	5.7570	2.550168	0.000266	2.661544	0.450878	0.000027
 581	5.7710e+01	5.7674	2.572979	0.000229	2.293022	0.388449	0.000023
 582	5.7809e+01	5.7784	2.592939	0.000201	2.006395	0.339892	0.000020
 583	5.7909e+01	5.7852	2.614528	0.000217	2.170182	0.367639	0.000022
 584	5.8008e+01	5.7997	2.640191	0.000258	2.579650	0.437005	0.000026
 585	5.8108e+01	5.8069	2.660965	0.000209	2.088288	0.353766	0.000021
 586	5.8208e+01	5.8154	2.687035	0.000262	2.620597	0.443941	0.000026
 587	5.8307e+01	5.8250	2.708217	0.000213	2.129235	0.360702	0.000021
 588	5.8407e+01	5.8344	2.734287	0.000262	2.620597	0.443941	0.000026
 589	5.8506e+01	5.8456	2.755876	0.000217	2.170182	0.367639	0.000022
 590	5.8605e+01	5.8552	2.780317	0.000246	2.456810	0.416195	0.000025
 591	5.8705e+01	5.8660	2.799462	0.000192	1.924501	0.326019	0.000019
 592	5.8804e+01	5.8776	2.824310	0.000250	2.497757	0.423131	0.000025
 593	5.8904e+01	5.8868	2.847121	0.000229	2.293022	0.388449	0.000023
 594	5.9004e+01	5.8953	2.867081	0.000201	2.006395	0.339892	0.000020
 595	5.9103e+01	5.9098	2.887040	0.000201	2.006395	0.339892	0.000020
 596	5.9203e+01	5.9164	2.911888	0.000250	2.497757	0.423131	0.000025
 597	5.9302e+01	5.9249	2.927775	0.000160	1.596926	0.270527	0.000016
 598	5.9401e+01	5.9342	2.955881	0.000283	2.825331	0.478624	0.000028
 599	5.9501e+01	5.9424	2.978285	0.000225	2.252076	0.381512	0.000023
 600	5.9600e+01	5.9545	2.995801	0.000176	1.760714	0.298273	0.000018
 601	5.9700e+01	5.9641	3.018612	0.000229	2.293022	0.388449	0.000023
 602	5.9800e+01	5.9750	3.040608	0.000221	2.211129	0.374575	0.000022
 603	5.9899e+01	5.9869	3.058124	0.000176	1.760714	0.298273	0.000018
 604	5.9998e+01	5.9947	3.078084	0.000201	2.006395	0.339892	0.000020
 605	6.0098e+01	6.0071	3.099673	0.000217	2.170182	0.367639	0.000022
 606	6.0197e+01	6.0146	3.122484	0.000229	2.293022	0.388449	0.000023
 607	6.0297e+01	6.0244	3.143259	0.000209	2.088288	0.353766	0.000021
 608	6.0397e+01	6.0355	3.160775	0.000176	1.760714	0.298273	0.000018
 609	6.0496e+01	6.0455	3.183993	0.000233	2.333969	0.395385	0.000023
 610	6.0596e+01	6.0551	3.202323	0.000184	1.842607	0.312146	0.000018
 611	6.0695e+01	6.0653	3.224320	0.000221	2.211129	0.374575	0.000022
 612	6.0794e+01	6.0766	3.245909	0.000217	2.170182	0.367639	0.000022
 613	6.0894e+01	6.0865	3.264647	0.000188	1.883554	0.319083	0.000019
 614	6.0993e+01	6.0949	3.283385	0.000188	1.883554	0.319083	0.000019
 615	6.1093e+01	6.1059	3.305381	0.000221	2.211129	0.374575	0.000022
 616	6.1193e+01	6.1137	3.320045	0.000147	1.474086	0.249717	0.000015
 617	6.1292e+01	6.1268	3.340820	0.000209	2.088288	0.353766	0.000021
 618	6.1392e+01	6.1353	3.359965	0.000192	1.924501	0.326019	0.000019
 619	6.1491e+01	6.1465	3.378703	0.000188	1.883554	0.319083	0.000019
 620	6.1590e+01	6.1561	3.400292	0.000217	2.170182	0.367639	0.000022
 621	6.1690e+01	6.1663	3.420252	0.000201	2.006395	0.339892	0.000020
 622	6.1789e+01	6.1742	3.440212	0.000201	2.006395	0.339892	0.000020
 623	6.1889e+01	6.1841	3.459357	0.000192	1.924501	0.326019	0.000019
 624	6.1989e+01	6.1919	3.476465	0.000172	1.719767	0.291336	0.000017
 625	6.2088e+01	6.2023	3.496017	0.000197	1.965448	0.332956	0.000020
 626	6.2188e+01	6.2162	3.514348	0.000184	1.842607	0.312146	0.000018
 627	6.2287e+01	6.2250	3.533493	0.000192	1.924501	0.326019	0.000019
 628	6.2386e+01	6.2354	3.548565	0.000152	1.515033	0.256653	0.000015
 629	6.2486e+01	6.2440	3.569339	0.000209	2.088288	0.353766	0.000021
 630	6.2586e+01	6.2543	3.586040	0.000168	1.678820	0.284400	0.000017
 631	6.2685e+01	6.2645	3.604778	0.000188	1.883554	0.319083	0.000019
 632	6.2785e+01	6.2733	3.625145	0.000205	2.047341	0.346829	0.000020
 633	6.2884e+01	6.2817	3.647956	0.000229	2.293022	0.388449	0.000023
 634	6.2983e+01	6.2952	3.669953	0.000221	2.211129	0.374575	0.000022
 635	6.3083e+01	6.3036	3.687061	0.000172	1.719767	0.291336	0.000017
 636	6.3182e+01	6.3126	3.706206	0.000192	1.924501	0.326019	0.000019
 637	6.3282e+01	6.3242	3.729425	0.000233	2.333969	0.395385	0.000023
 638	6.3382e+01	6.3335	3.746533	0.000172	1.719767	0.291336	0.000017
 639	6.3481e+01	6.3424	3.770159	0.000237	2.374916	0.402322	0.000024
 640	6.3581e+01	6.3599	3.787267	0.000172	1.719767	0.291336	0.000017
 641	6.3680e+01	6.3644	3.812115	0.000250	2.497757	0.423131	0.000025
 642	6.3779e+01	6.3760	3.832075	0.000201	2.006395	0.339892	0.000020
 643	6.3879e+01	6.3844	3.849998	0.000180	1.801661	0.305210	0.000018
 644	6.3978e+01	6.3918	3.870773	0.000209	2.088288	0.353766	0.000021
 645	6.4078e+01	6.4001	3.888696	0.000180	1.801661	0.305210	0.000018
 646	6.4177e+01	6.4132	3.911507	0.000229	2.293022	0.388449	0.000023
 647	6.4277e+01	6.4220	3.932689	0.000213	2.129235	0.360702	0.000021
 648	6.4376e+01	6.4341	3.952241	0.000197	1.965448	0.332956	0.000020
 649	6.4476e+01	6.4436	3.973830	0.000217	2.170182	0.367639	0.000022
 650	6.4576e+01	6.4519	3.994605	0.000209	2.088288	0.353766	0.000021
 651	6.4675e+01	6.4632	4.014972	0.000205	2.047341	0.346829	0.000020
 652	6.4775e+01	6.4716	4.038598	0.000237	2.374916	0.402322	0.000024
 653	6.4874e+01	6.4837	4.054077	0.000156	1.555980	0.263590	0.000016
 654	6.4974e+01	6.4930	4.078110	0.000242	2.415863	0.409258	0.000024
 655	6.5073e+01	6.4996	4.098477	0.000205	2.047341	0.346829	0.000020
 656	6.5172e+01	6.5125	4.118030	0.000197	1.965448	0.332956	0.000020
 657	6.5272e+01	6.5216	4.139211	0.000213	2.129235	0.360702	0.000021
 658	6.5371e+01	6.5323	4.161208	0.000221	2.211129	0.374575	0.000022
 659	6.5471e+01	6.5434	4.179538	0.000184	1.842607	0.312146	0.000018
 660	6.5570e+01	6.5523	4.199091	0.000197	1.965448	0.332956	0.000020
 661	6.5670e+01	6.5617	4.219050	0.000201	2.006395	0.339892	0.000020
 662	6.5769e+01	6.5715	4.232493	0.000135	1.351245	0.228907	0.000014
 663	6.5869e+01	6.5795	4.255711	0.000233	2.333969	0.395385	0.000023
 664	6.5969e+01	6.5932	4.274042	0.000184	1.842607	0.312146	0.000018
 665	6.6068e+01	6.6024	4.292779	0.000188	1.883554	0.319083	0.000019
 666	6.6168e+01	6.6125	4.313147	0.000205	2.047341	0.346829	0.000020
 667	6.6267e+01	6.6232	4.334736	0.000217	2.170182	0.367639	0.000022
 668	6.6367e+01	6.6314	4.354288	0.000197	1.965448	0.332956	0.000020
 669	6.6466e+01	6.6428	4.373433	0.000192	1.924501	0.326019	0.000019
 670	6.6566e+01	6.6530	4.391356	0.000180	1.801661	0.305210	0.000018
 671	6.6665e+01	6.6625	4.409279	0.000180	1.801661	0.305210	0.000018
 672	6.6764e+01	6.6724	4.428832	0.000197	1.965448	0.332956	0.000020
 673	6.6864e+01	6.6819	4.454087	0.000254	2.538703	0.430068	0.000025
 674	6.6963e+01	6.6924	4.468751	0.000147	1.474086	0.249717	0.000015
 675	6.7063e+01	6.7025	4.492377	0.000237	2.374916	0.402322	0.000024
 676	6.7162e+01	6.7120	4.511115	0.000188	1.883554	0.319083	0.000019
 677	6.7262e+01	6.7242	4.532297	0.000213	2.129235	0.360702	0.000021
 678	6.7362e+01	6.7318	4.550627	0.000184	1.842607	0.312146	0.000018
 679	6.7461e+01	6.7416	4.574253	0.000237	2.374916	0.402322	0.000024
 680	6.7561e+01	6.7522	4.592584	0.000184	1.842607	0.312146	0.000018
 681	6.7660e+01	6.7611	4.615395	0.000229	2.293022	0.388449	0.000023
 682	6.7760e+01	6.7725	4.636577	0.000213	2.129235	0.360702	0.000021
 683	6.7859e+01	6.7803	4.658166	0.000217	2.170182	0.367639	0.000022
 684	6.7959e+01	6.7953	4.680977	0.000229	2.293022	0.388449	0.000023
 685	6.8058e+01	6.7995	4.704603	0.000237	2.374916	0.402322	0.000024
 686	6.8157e+01	6.8115	4.721711	0.000172	1.719767	0.291336	0.000017
 687	6.8257e+01	6.8213	4.746559	0.000250	2.497757	0.423131	0.000025
 688	6.8356e+01	6.8298	4.763667	0.000172	1.719767	0.291336	0.000017
 689	6.8456e+01	6.8410	4.788923	0.000254	2.538703	0.430068	0.000025
 690	6.8555e+01	6.8487	4.806031	0.000172	1.719767	0.291336	0.000017
 691	6.8655e+01	6.8636	4.828842	0.000229	2.293022	0.388449	0.000023
 692	6.8754e+01	6.8721	4.852061	0.000233	2.333969	0.395385	0.000023
 693	6.8854e+01	6.8826	4.872428	0.000205	2.047341	0.346829	0.000020
 694	6.8954e+01	6.8896	4.891573	0.000192	1.924501	0.326019	0.000019
 695	6.9053e+01	6.8999	4.913977	0.000225	2.252076	0.381512	0.000023
 696	6.9153e+01	6.9106	4.938417	0.000246	2.456810	0.416195	0.000025
 697	6.9252e+01	6.9197	4.962451	0.000242	2.415863	0.409258	0.000024
 698	6.9352e+01	6.9305	4.982818	0.000205	2.047341	0.346829	0.000020
 699	6.9451e+01	6.9421	5.007666	0.000250	2.497757	0.423131	0.000025
 700	6.9550e+01	6.9514	5.028847	0.000213	2.129235	0.360702	0.000021
 701	6.9650e+01	6.9598	5.052066	0.000233	2.333969	0.395385	0.000023
 702	6.9749e+01	6.9678	5.077729	0.000258	2.579650	0.437005	0.000026
 703	6.9849e+01	6.9785	5.100132	0.000225	2.252076	0.381512	0.000023
 704	6.9948e+01	6.9895	5.122536	0.000225	2.252076	0.381512	0.000023
 705	7.0048e+01	6.9991	5.145755	0.000233	2.333969	0.395385	0.000023
 706	7.0147e+01	7.0110	5.167344	0.000217	2.170182	0.367639	0.000022
 707	7.0247e+01	7.0211	5.189340	0.000221	2.211129	0.374575	0.000022
 708	7.0347e+01	7.0288	5.213374	0.000242	2.415863	0.409258	0.000024
 709	7.0446e+01	7.0400	5.238629	0.000254	2.538703	0.430068	0.000025
 710	7.0546e+01	7.0470	5.262662	0.000242	2.415863	0.409258	0.000024
 711	7.0645e+01	7.0579	5.280993	0.000184	1.842607	0.312146	0.000018
 712	7.0745e+01	7.0704	5.308692	0.000278	2.784384	0.471687	0.000028
 713	7.0844e+01	7.0808	5.331096	0.000225	2.252076	0.381512	0.000023
 714	7.0944e+01	7.0912	5.355944	0.000250	2.497757	0.423131	0.000025
 715	7.1043e+01	7.0990	5.376311	0.000205	2.047341	0.346829	0.000020
 716	7.1142e+01	7.1117	5.399122	0.000229	2.293022	0.388449	0.000023
 717	7.1242e+01	7.1200	5.421526	0.000225	2.252076	0.381512	0.000023
 718	7.1341e+01	7.1289	5.443930	0.000225	2.252076	0.381512	0.000023
 719	7.1441e+01	7.1401	5.464704	0.000209	2.088288	0.353766	0.000021
 720	7.1540e+01	7.1481	5.487108	0.000225	2.252076	0.381512	0.000023
 721	7.1640e+01	7.1603	5.508697	0.000217	2.170182	0.367639	0.000022
 722	7.1740e+01	7.1709	5.525805	0.000172	1.719767	0.291336	0.000017
 723	7.1839e+01	7.1782	5.553505	0.000278	2.784384	0.471687	0.000028
 724	7.1939e+01	7.1888	5.577945	0.000246	2.456810	0.416195	0.000025
 725	7.2038e+01	7.1983	5.594239	0.000164	1.637873	0.277463	0.000016
 726	7.2138e+01	7.2100	5.616235	0.000221	2.211129	0.374575	0.000022
 727	7.2237e+01	7.2202	5.635788	0.000197	1.965448	0.332956	0.000020
 728	7.2337e+01	7.2292	5.657784	0.000221	2.211129	0.374575	0.000022
 729	7.2436e+01	7.2384	5.679781	0.000221	2.211129	0.374575	0.000022
 730	7.2535e+01	7.2492	5.700963	0.000213	2.129235	0.360702	0.000021
 731	7.2635e+01	7.2602	5.724589	0.000237	2.374916	0.402322	0.000024
 732	7.2734e+01	7.2682	5.744956	0.000205	2.047341	0.346829	0.000020
 733	7.2834e+01	7.2767	5.765323	0.000205	2.047341	0.346829	0.000020
 734	7.2933e+01	7.2871	5.786097	0.000209	2.088288	0.353766	0.000021
 735	7.3033e+01	7.2979	5.805650	0.000197	1.965448	0.332956	0.000020
 736	7.3132e+01	7.3092	5.829276	0.000237	2.374916	0.402322	0.000024
 737	7.3232e+01	7.3165	5.849235	0.000201	2.006395	0.339892	0.000020
 738	7.3332e+01	7.3306	5.868788	0.000197	1.965448	0.332956	0.000020
 739	7.3431e+01	7.3404	5.892414	0.000237	2.374916	0.402322	0.000024
 740	7.3531e+01	7.3492	5.911966	0.000197	1.965448	0.332956	0.000020
 741	7.3630e+01	7.3612	5.935592	0.000237	2.374916	0.402322	0.000024
 742	7.3730e+01	7.3685	5.956774	0.000213	2.129235	0.360702	0.000021
 743	7.3829e+01	7.3767	5.977956	0.000213	2.129235	0.360702	0.000021
 744	7.3928e+01	7.3877	6.001581	0.000237	2.374916	0.402322	0.000024
 745	7.4028e+01	7.3969	6.021134	0.000197	1.965448	0.332956	0.000020
 746	7.4127e+01	7.4072	6.048426	0.000274	2.743438	0.464751	0.000027
 747	7.4227e+01	7.4174	6.070422	0.000221	2.211129	0.374575	0.000022
 748	7.4326e+01	7.4259	6.090790	0.000205	2.047341	0.346829	0.000020
 749	7.4426e+01	7.4361	6.111971	0.000213	2.129235	0.360702	0.000021
 750	7.4525e+01	7.4463	6.133560	0.000217	2.170182	0.367639	0.000022
 751	7.4625e+01	7.4573	6.152298	0.000188	1.883554	0.319083	0.000019
 752	7.4725e+01	7.4683	6.175517	0.000233	2.333969	0.395385	0.000023
 753	7.4824e+01	7.4771	6.197921	0.000225	2.252076	0.381512	0.000023
 754	7.4924e+01	7.4854	6.219510	0.000217	2.170182	0.367639	0.000022
 755	7.5023e+01	7.4996	6.243950	0.000246	2.456810	0.416195	0.000025
 756	7.5123e+01	7.5082	6.266761	0.000229	2.293022	0.388449	0.000023
 757	7.5222e+01	7.5181	6.289165	0.000225	2.252076	0.381512	0.000023
 758	7.5322e+01	7.5272	6.309940	0.000209	2.088288	0.353766	0.000021
 759	7.5421e+01	7.5384	6.330714	0.000209	2.088288	0.353766	0.000021
 760	7.5520e+01	7.5465	6.351896	0.000213	2.129235	0.360702	0.000021
 761	7.5620e+01	7.5572	6.373893	0.000221	2.211129	0.374575	0.000022
 762	7.5719e+01	7.5677	6.393852	0.000201	2.006395	0.339892	0.000020
 763	7.5819e+01	7.5786	6.412590	0.000188	1.883554	0.319083	0.000019
 764	7.5918e+01	7.5865	6.435809	0.000233	2.333969	0.395385	0.000023
 765	7.6018e+01	7.5977	6.450473	0.000147	1.474086	0.249717	0.000015
 766	7.6118e+01	7.6079	6.472877	0.000225	2.252076	0.381512	0.000023
 767	7.6217e+01	7.6155	6.492837	0.000201	2.006395	0.339892	0.000020
 768	7.6317e+01	7.6257	6.512796	0.000201	2.006395	0.339892	0.000020
 769	7.6416e+01	7.6392	6.534793	0.000221	2.211129	0.374575	0.000022
 770	7.6516e+01	7.6480	6.554753	0.000201	2.006395	0.339892	0.000020
 771	7.6615e+01	7.6582	6.573898	0.000192	1.924501	0.326019	0.000019
 772	7.6715e+01	7.6691	6.593858	0.000201	2.006395	0.339892	0.000020
 773	7.6814e+01	7.6748	6.613410	0.000197	1.965448	0.332956	0.000020
 774	7.6913e+01	7.6876	6.634184	0.000209	2.088288	0.353766	0.000021
 775	7.7013e+01	7.6962	6.652922	0.000188	1.883554	0.319083	0.000019
 776	7.7112e+01	7.7042	6.672475	0.000197	1.965448	0.332956	0.000020
 777	7.7212e+01	7.7188	6.694064	0.000217	2.170182	0.367639	0.000022
 778	7.7311e+01	7.7271	6.711580	0.000176	1.760714	0.298273	0.000018
 779	7.7411e+01	7.7367	6.730725	0.000192	1.924501	0.326019	0.000019
 780	7.7510e+01	7.7477	6.753536	0.000229	2.293022	0.388449	0.000023
 781	7.7610e+01	7.7546	6.767793	0.000143	1.433139	0.242780	0.000014
 782	7.7710e+01	7.7647	6.784901	0.000172	1.719767	0.291336	0.000017
 783	7.7809e+01	7.7783	6.805676	0.000209	2.088288	0.353766	0.000021
 784	7.7909e+01	7.7859	6.823599	0.000180	1.801661	0.305210	0.000018
 785	7.8008e+01	7.7967	6.840300	0.000168	1.678820	0.284400	0.000017
 786	7.8108e+01	7.8054	6.859445	0.000192	1.924501	0.326019	0.000019
 787	7.8207e+01	7.8149	6.876146	0.000168	1.678820	0.284400	0.000017
 788	7.8306e+01	7.8257	6.896106	0.000201	2.006395	0.339892	0.000020
 789	7.8406e+01	7.8356	6.914843	0.000188	1.883554	0.319083	0.000019
 790	7.8505e+01	7.8460	6.932359	0.000176	1.760714	0.298273	0.000018
 791	7.8605e+01	7.8559	6.953541	0.000213	2.129235	0.360702	0.000021
 792	7.8704e+01	7.8638	6.969835	0.000164	1.637873	0.277463	0.000016
 793	7.8804e+01	7.8755	6.985314	0.000156	1.555980	0.263590	0.000016
 794	7.8903e+01	7.8854	7.004866	0.000197	1.965448	0.332956	0.000020
 795	7.9003e+01	7.8955	7.020753	0.000160	1.596926	0.270527	0.000016
 796	7.9103e+01	7.9041	7.040305	0.000197	1.965448	0.332956	0.000020
 797	7.9202e+01	7.9153	7.055377	0.000152	1.515033	0.256653	0.000015
 798	7.9302e+01	7.9277	7.071670	0.000164	1.637873	0.277463	0.000016
 799	7.9401e+01	7.9363	7.095704	0.000242	2.415863	0.409258	0.000024
 800	7.9501e+01	7.9450	7.111590	0.000160	1.596926	0.270527	0.000016
 801	7.9600e+01	7.9556	7.131550	0.000201	2.006395	0.339892	0.000020
 802	7.9700e+01	7.9668	7.149065	0.000176	1.760714	0.298273	0.000018
 803	7.9799e+01	7.9731	7.169433	0.000205	2.047341	0.346829	0.000020
 804	7.9898e+01	7.9861	7.189800	0.000205	2.047341	0.346829	0.000020
 805	7.9998e+01	7.9932	7.209352	0.000197	1.965448	0.332956	0.000020
 806	8.0097e+01	8.0054	7.226868	0.000176	1.760714	0.298273	0.000018
 807	8.0197e+01	8.0127	7.248457	0.000217	2.170182	0.367639	0.000022
 808	8.0296e+01	8.0245	7.272490	0.000242	2.415863	0.409258	0.000024
 809	8.0396e+01	8.0331	7.290006	0.000176	1.760714	0.298273	0.000018
 810	8.0496e+01	8.0462	7.305892	0.000160	1.596926	0.270527	0.000016
 811	8.0595e+01	8.0534	7.322593	0.000168	1.678820	0.284400	0.000017
 812	8.0695e+01	8.0640	7.344590	0.000221	2.211129	0.374575	0.000022
 813	8.0794e+01	8.0759	7.363328	0.000188	1.883554	0.319083	0.000019
 814	8.0894e+01	8.0839	7.381658	0.000184	1.842607	0.312146	0.000018
 815	8.0993e+01	8.0948	7.403247	0.000217	2.170182	0.367639	0.000022
 816	8.1093e+01	8.1048	7.420356	0.000172	1.719767	0.291336	0.000017
 817	8.1192e+01	8.1152	7.443574	0.000233	2.333969	0.395385	0.000023
 818	8.1291e+01	8.1244	7.461090	0.000176	1.760714	0.298273	0.000018
 819	8.1391e+01	8.1358	7.482272	0.000213	2.129235	0.360702	0.000021
 820	8.1490e+01	8.1446	7.503453	0.000213	2.129235	0.360702	0.000021
 821	8.1590e+01	8.1535	7.522191	0.000188	1.883554	0.319083	0.000019
 822	8.1689e+01	8.1649	7.541744	0.000197	1.965448	0.332956	0.000020
 823	8.1789e+01	8.1725	7.560481	0.000188	1.883554	0.319083	0.000019
 824	8.1888e+01	8.1848	7.581256	0.000209	2.088288	0.353766	0.000021
 825	8.1988e+01	8.1925	7.599179	0.000180	1.801661	0.305210	0.000018
 826	8.2088e+01	8.2023	7.618324	0.000192	1.924501	0.326019	0.000019
 827	8.2187e+01	8.2150	7.633803	0.000156	1.555980	0.263590	0.000016
 828	8.2287e+01	8.2234	7.654578	0.000209	2.088288	0.353766	0.000021
 829	8.2386e+01	8.2352	7.672501	0.000180	1.801661	0.305210	0.000018
 830	8.2486e+01	8.2435	7.687980	0.000156	1.555980	0.263590	0.000016
 831	8.2585e+01	8.2514	7.710791	0.000229	2.293022	0.388449	0.000023
 832	8.2684e+01	8.2634	7.727085	0.000164	1.637873	0.277463	0.000016
 833	8.2784e+01	8.2715	7.745822	0.000188	1.883554	0.319083	0.000019
 834	8.2883e+01	8.2823	7.764153	0.000184	1.842607	0.312146	0.000018
 835	8.2983e+01	8.2952	7.784927	0.000209	2.088288	0.353766	0.000021
 836	8.3082e+01	8.3057	7.803258	0.000184	1.842607	0.312146	0.000018
 837	8.3182e+01	8.3154	7.823625	0.000205	2.047341	0.346829	0.000020
 838	8.3281e+01	8.3237	7.841955	0.000184	1.842607	0.312146	0.000018
 839	8.3381e+01	8.3320	7.859064	0.000172	1.719767	0.291336	0.000017
 840	8.3481e+01	8.3423	7.878616	0.000197	1.965448	0.332956	0.000020
 841	8.3580e+01	8.3521	7.896132	0.000176	1.760714	0.298273	0.000018
 842	8.3680e+01	8.3621	7.914869	0.000188	1.883554	0.319083	0.000019
 843	8.3779e+01	8.3737	7.936866	0.000221	2.211129	0.374575	0.000022
 844	8.3879e+01	8.3846	7.956011	0.000192	1.924501	0.326019	0.000019
 845	8.3978e+01	8.3941	7.973119	0.000172	1.719767	0.291336	0.000017
 846	8.4078e+01	8.4022	7.993894	0.000209	2.088288	0.353766	0.000021
 847	8.4177e+01	8.4140	8.013854	0.000201	2.006395	0.339892	0.000020
 848	8.4276e+01	8.4212	8.031777	0.000180	1.801661	0.305210	0.000018
 849	8.4376e+01	8.4309	8.052551	0.000209	2.088288	0.353766	0.000021
 850	8.4475e+01	8.4427	8.074140	0.000217	2.170182	0.367639	0.000022
 851	8.4575e+01	8.4530	8.094100	0.000201	2.006395	0.339892	0.000020
 852	8.4674e+01	8.4623	8.110801	0.000168	1.678820	0.284400	0.000017
 853	8.4774e+01	8.4705	8.135242	0.000246	2.456810	0.416195	0.000025
 854	8.4874e+01	8.4821	8.157238	0.000221	2.211129	0.374575	0.000022
 855	8.4973e+01	8.4946	8.178013	0.000209	2.088288	0.353766	0.000021
 856	8.5073e+01	8.5043	8.196343	0.000184	1.842607	0.312146	0.000018
 857	8.5172e+01	8.5123	8.217525	0.000213	2.129235	0.360702	0.000021
 858	8.5272e+01	8.5210	8.238299	0.000209	2.088288	0.353766	0.000021
 859	8.5371e+01	8.5331	8.261111	0.000229	2.293022	0.388449	0.000023
 860	8.5471e+01	8.5427	8.285551	0.000246	2.456810	0.416195	0.000025
 861	8.5570e+01	8.5535	8.301030	0.000156	1.555980	0.263590	0.000016
 862	8.5669e+01	8.5628	8.320990	0.000201	2.006395	0.339892	0.000020
 863	8.5769e+01	8.5704	8.339320	0.000184	1.842607	0.312146	0.000018
 864	8.5868e+01	8.5825	8.361724	0.000225	2.252076	0.381512	0.000023
 865	8.5968e+01	8.5922	8.384943	0.000233	2.333969	0.395385	0.000023
 866	8.6067e+01	8.6040	8.404495	0.000197	1.965448	0.332956	0.000020
 867	8.6167e+01	8.6136	8.429343	0.000250	2.497757	0.423131	0.000025
 868	8.6266e+01	8.6203	8.452969	0.000237	2.374916	0.402322	0.000024
 869	8.6366e+01	8.6319	8.477002	0.000242	2.415863	0.409258	0.000024
 870	8.6466e+01	8.6405	8.499406	0.000225	2.252076	0.381512	0.000023
 871	8.6565e+01	8.6507	8.518551	0.000192	1.924501	0.326019	0.000019
 872	8.6665e+01	8.6610	8.542992	0.000246	2.456810	0.416195	0.000025
 873	8.6764e+01	8.6691	8.562951	0.000201	2.006395	0.339892	0.000020
 874	8.6864e+01	8.6797	8.583726	0.000209	2.088288	0.353766	0.000021
 875	8.6963e+01	8.6933	8.608574	0.000250	2.497757	0.423131	0.000025
 876	8.7063e+01	8.6988	8.630570	0.000221	2.211129	0.374575	0.000022
 877	8.7162e+01	8.7115	8.652159	0.000217	2.170182	0.367639	0.000022
 878	8.7261e+01	8.7219	8.673341	0.000213	2.129235	0.360702	0.000021
 879	8.7361e+01	8.7325	8.697782	0.000246	2.456810	0.416195	0.000025
 880	8.7460e+01	8.7391	8.719778	0.000221	2.211129	0.374575	0.000022
 881	8.7560e+01	8.7503	8.740553	0.000209	2.088288	0.353766	0.000021
 882	8.7659e+01	8.7627	8.764586	0.000242	2.415863	0.409258	0.000024
 883	8.7759e+01	8.7717	8.789434	0.000250	2.497757	0.423131	0.000025
 884	8.7859e+01	8.7818	8.806542	0.000172	1.719767	0.291336	0.000017
 885	8.7958e+01	8.7919	8.829761	0.000233	2.333969	0.395385	0.000023
 886	8.8058e+01	8.8012	8.850535	0.000209	2.088288	0.353766	0.000021
 887	8.8157e+01	8.8123	8.872939	0.000225	2.252076	0.381512	0.000023
 888	8.8257e+01	8.8197	8.893714	0.000209	2.088288	0.353766	0.000021
 889	8.8356e+01	8.8290	8.910415	0.000168	1.678820	0.284400	0.000017
 890	8.8456e+01	8.8416	8.933633	0.000233	2.333969	0.395385	0.000023
 891	8.8555e+01	8.8519	8.955630	0.000221	2.211129	0.374575	0.000022
 892	8.8654e+01	8.8614	8.975589	0.000201	2.006395	0.339892	0.000020
 893	8.8754e+01	8.8675	9.000845	0.000254	2.538703	0.430068	0.000025
 894	8.8853e+01	8.8789	9.015102	0.000143	1.433139	0.242780	0.000014
 895	8.8953e+01	8.8879	9.035061	0.000201	2.006395	0.339892	0.000020
 896	8.9052e+01	8.8999	9.056651	0.000217	2.170182	0.367639	0.000022
 897	8.9152e+01	8.9087	9.079462	0.000229	2.293022	0.388449	0.000023
 898	8.9251e+01	8.9186	9.096570	0.000172	1.719767	0.291336	0.000017
 899	8.9351e+01	8.9320	9.120196	0.000237	2.374916	0.402322	0.000024
 900	8.9451e+01	8.9375	9.139341	0.000192	1.924501	0.326019	0.000019
 901	8.9550e+01	8.9503	9.158079	0.000188	1.883554	0.319083	0.000019
 902	8.9650e+01	8.9600	9.180890	0.000229	2.293022	0.388449	0.000023
 903	8.9749e+01	8.9678	9.198406	0.000176	1.760714	0.298273	0.000018
 904	8.9849e+01	8.9774	9.217551	0.000192	1.924501	0.326019	0.000019
 905	8.9948e+01	8.9893	9.240769	0.000233	2.333969	0.395385	0.000023
 906	9.0047e+01	9.0005	9.261544	0.000209	2.088288	0.353766	0.000021
 907	9.0147e+01	9.0101	9.283540	0.000221	2.211129	0.374575	0.000022
 908	9.0246e+01	9.0188	9.304315	0.000209	2.088288	0.353766	0.000021
 909	9.0346e+01	9.0285	9.326719	0.000225	2.252076	0.381512	0.000023
 910	9.0445e+01	9.0393	9.345456	0.000188	1.883554	0.319083	0.000019
 911	9.0545e+01	9.0491	9.370304	0.000250	2.497757	0.423131	0.000025
 912	9.0644e+01	9.0595	9.391486	0.000213	2.129235	0.360702	0.000021
 913	9.0744e+01	9.0680	9.410631	0.000192	1.924501	0.326019	0.000019
 914	9.0844e+01	9.0781	9.434665	0.000242	2.415863	0.409258	0.000024
 915	9.0943e+01	9.0904	9.455439	0.000209	2.088288	0.353766	0.000021
 916	9.1043e+01	9.0986	9.475399	0.000201	2.006395	0.339892	0.000020
 917	9.1142e+01	9.1073	9.494137	0.000188	1.883554	0.319083	0.000019
 918	9.1242e+01	9.1182	9.516133	0.000221	2.211129	0.374575	0.000022
 919	9.1341e+01	9.1295	9.537315	0.000213	2.129235	0.360702	0.000021
 920	9.1441e+01	9.1382	9.559719	0.000225	2.252076	0.381512	0.000023
 921	9.1540e+01	9.1492	9.582530	0.000229	2.293022	0.388449	0.000023
 922	9.1639e+01	9.1604	9.601268	0.000188	1.883554	0.319083	0.000019
 923	9.1739e+01	9.1708	9.623671	0.000225	2.252076	0.381512	0.000023
 924	9.1838e+01	9.1779	9.645261	0.000217	2.170182	0.367639	0.000022
 925	9.1938e+01	9.1903	9.664813	0.000197	1.965448	0.332956	0.000020
 926	9.2037e+01	9.1972	9.685995	0.000213	2.129235	0.360702	0.000021
 927	9.2137e+01	9.2085	9.707177	0.000213	2.129235	0.360702	0.000021
 928	9.2237e+01	9.2155	9.730803	0.000237	2.374916	0.402322	0.000024
 929	9.2336e+01	9.2278	9.747911	0.000172	1.719767	0.291336	0.000017
 930	9.2436e+01	9.2383	9.768685	0.000209	2.088288	0.353766	0.000021
 931	9.2535e+01	9.2471	9.787016	0.000184	1.842607	0.312146	0.000018
 932	9.2635e+01	9.2585	9.807383	0.000205	2.047341	0.346829	0.000020
 933	9.2734e+01	9.2682	9.828565	0.000213	2.129235	0.360702	0.000021
 934	9.2834e+01	9.2798	9.852598	0.000242	2.415863	0.409258	0.000024
 935	9.2933e+01	9.2867	9.868077	0.000156	1.555980	0.263590	0.000016
 936	9.3032e+01	9.2964	9.884371	0.000164	1.637873	0.277463	0.000016
 937	9.3132e+01	9.3055	9.905145	0.000209	2.088288	0.353766	0.000021
 938	9.3231e+01	9.3164	9.925512	0.000205	2.047341	0.346829	0.000020
 939	9.3331e+01	9.3276	9.942621	0.000172	1.719767	0.291336	0.000017
 940	9.3430e+01	9.3371	9.963395	0.000209	2.088288	0.353766	0.000021
 941	9.3530e+01	9.3472	9.983762	0.000205	2.047341	0.346829	0.000020
 942	9.3629e+01	9.3604	10.005351	0.000217	2.170182	0.367639	0.000022
 943	9.3729e+01	9.3677	10.025719	0.000205	2.047341	0.346829	0.000020
 944	9.3829e+01	9.3768	10.039976	0.000143	1.433139	0.242780	0.000014
 945	9.3928e+01	9.3883	10.061157	0.000213	2.129235	0.360702	0.000021
 946	9.4028e+01	9.3954	10.081524	0.000205	2.047341	0.346829	0.000020
 947	9.4127e+01	9.4045	10.102299	0.000209	2.088288	0.353766	0.000021
 948	9.4227e+01	9.4189	10.117778	0.000156	1.555980	0.263590	0.000016
 949	9.4326e+01	9.4287	10.135701	0.000180	1.801661	0.305210	0.000018
 950	9.4425e+01	9.4352	10.153624	0.000180	1.801661	0.305210	0.000018
 951	9.4525e+01	9.4492	10.168288	0.000147	1.474086	0.249717	0.000015
 952	9.4624e+01	9.4569	10.184989	0.000168	1.678820	0.284400	0.000017
 953	9.4724e+01	9.4641	10.204542	0.000197	1.965448	0.332956	0.000020
 954	9.4823e+01	9.4775	10.220836	0.000164	1.637873	0.277463	0.000016
 955	9.4923e+01	9.4877	10.239166	0.000184	1.842607	0.312146	0.000018
 956	9.5022e+01	9.4986	10.256274	0.000172	1.719767	0.291336	0.000017
 957	9.5122e+01	9.5093	10.277456	0.000213	2.129235	0.360702	0.000021
 958	9.5222e+01	9.5190	10.294972	0.000176	1.760714	0.298273	0.000018
 959	9.5321e+01	9.5270	10.314117	0.000192	1.924501	0.326019	0.000019
 960	9.5421e+01	9.5374	10.331225	0.000172	1.719767	0.291336	0.000017
 961	9.5520e+01	9.5449	10.345482	0.000143	1.433139	0.242780	0.000014
 962	9.5620e+01	9.5585	10.365035	0.000197	1.965448	0.332956	0.000020
 963	9.5719e+01	9.5654	10.378070	0.000131	1.310299	0.221971	0.000013
 964	9.5819e+01	9.5766	10.396808	0.000188	1.883554	0.319083	0.000019
 965	9.5918e+01	9.5880	10.417582	0.000209	2.088288	0.353766	0.000021
 966	9.6017e+01	9.5974	10.434690	0.000172	1.719767	0.291336	0.000017
 967	9.6117e+01	9.6057	10.450169	0.000156	1.555980	0.263590	0.000016
 968	9.6216e+01	9.6169	10.472981	0.000229	2.293022	0.388449	0.000023
 969	9.6316e+01	9.6246	10.487645	0.000147	1.474086	0.249717	0.000015
 970	9.6415e+01	9.6350	10.509234	0.000217	2.170182	0.367639	0.000022
 971	9.6515e+01	9.6452	10.528379	0.000192	1.924501	0.326019	0.000019
 972	9.6615e+01	9.6549	10.547524	0.000192	1.924501	0.326019	0.000019
 973	9.6714e+01	9.6655	10.564633	0.000172	1.719767	0.291336	0.000017
 974	9.6814e+01	9.6755	10.585407	0.000209	2.088288	0.353766	0.000021
 975	9.6913e+01	9.6845	10.605774	0.000205	2.047341	0.346829	0.000020
 976	9.7013e+01	9.6973	10.624512	0.000188	1.883554	0.319083	0.000019
 977	9.7112e+01	9.7070	10.641213	0.000168	1.678820	0.284400	0.000017
 978	9.7212e+01	9.7147	10.659544	0.000184	1.842607	0.312146	0.000018
 979	9.7311e+01	9.7243	10.679096	0.000197	1.965448	0.332956	0.000020
 980	9.7410e+01	9.7367	10.702315	0.000233	2.333969	0.395385	0.000023
 981	9.7510e+01	9.7467	10.719423	0.000172	1.719767	0.291336	0.000017
 982	9.7609e+01	9.7555	10.740197	0.000209	2.088288	0.353766	0.000021
 983	9.7709e+01	9.7644	10.758935	0.000188	1.883554	0.319083	0.000019
 984	9.7808e+01	9.7749	10.773192	0.000143	1.433139	0.242780	0.000014
 985	9.7908e+01	9.7876	10.797225	0.000242	2.415863	0.409258	0.000024
 986	9.8007e+01	9.7935	10.815556	0.000184	1.842607	0.312146	0.000018
 987	9.8107e+01	9.8009	10.836330	0.000209	2.088288	0.353766	0.000021
 988	9.8207e+01	9.8158	10.855068	0.000188	1.883554	0.319083	0.000019
 989	9.8306e+01	9.8218	10.875028	0.000201	2.006395	0.339892	0.000020
 990	9.8406e+01	9.8364	10.895802	0.000209	2.088288	0.353766	0.000021
 991	9.8505e+01	9.8438	10.915762	0.000201	2.006395	0.339892	0.000020
 992	9.8605e+01	9.8529	10.936129	0.000205	2.047341	0.346829	0.000020
 993	9.8704e+01	9.8651	10.954052	0.000180	1.801661	0.305210	0.000018
 994	9.8803e+01	9.8763	10.973197	0.000192	1.924501	0.326019	0.000019
 995	9.8903e+01	9.8840	10.990306	0.000172	1.719767	0.291336	0.000017
 996	9.9002e+01	9.8941	11.007821	0.000176	1.760714	0.298273	0.000018
 997	9.9102e+01	9.9025	11.026152	0.000184	1.842607	0.312146	0.000018
 998	9.9201e+01	9.9170	11.042446	0.000164	1.637873	0.277463	0.000016
 999	9.9301e+01	9.9268	11.058332	0.000160	1.596926	0.270527	0.000016
1000	9.9400e+01	9.9345	11.080736	0.000225	2.252076	0.381512	0.000023
1001	9.9500e+01	9.9423	11.099881	0.000192	1.924501	0.326019	0.000019
1002	9.9600e+01	9.9561	11.121877	0.000221	2.211129	0.374575	0.000022
1003	9.9699e+01	9.9652	11.144689	0.000229	2.293022	0.388449	0.000023
1004	9.9799e+01	9.9725	11.157723	0.000131	1.310299	0.221971	0.000013
1005	9.9898e+01	9.9845	11.177276	0.000197	1.965448	0.332956	0.000020
1006	9.9998e+01	9.9938	11.193570	0.000164	1.637873	0.277463	0.000016
1007	1.0010e+02	9.9854	11.179313	0.000143	1.433139	0.242780	-0.000014
1008	1.0020e+02	9.9732	11.164648	0.000147	1.474086	0.249717	-0.000015
1009	1.0030e+02	9.9642	11.151613	0.000131	1.310299	0.221971	-0.000013
1010	1.0040e+02	9.9550	11.134098	0.000176	1.760714	0.298273	-0.000018
1011	1.0050e+02	9.9432	11.122692	0.000115	1.146511	0.194224	-0.000011
1012	1.0059e+02	9.9367	11.108028	0.000147	1.474086	0.249717	-0.000015
1013	1.0069e+02	9.9256	11.095400	0.000127	1.269352	0.215034	-0.000013
1014	1.0079e+02	9.9121	11.077884	0.000176	1.760714	0.298273	-0.000018
1015	1.0089e+02	9.9041	11.064442	0.000135	1.351245	0.228907	-0.000014
1016	1.0099e+02	9.8951	11.049370	0.000152	1.515033	0.256653	-0.000015
1017	1.0109e+02	9.8853	11.033077	0.000164	1.637873	0.277463	-0.000016
1018	1.0119e+02	9.8762	11.024522	0.000086	0.859883	0.145668	-0.000009
1019	1.0129e+02	9.8657	11.004155	0.000205	2.047341	0.346829	-0.000020
1020	1.0139e+02	9.8560	10.996416	0.000078	0.777990	0.131795	-0.000008
1021	1.0149e+02	9.8462	10.983788	0.000127	1.269352	0.215034	-0.000013
1022	1.0159e+02	9.8346	10.966680	0.000172	1.719767	0.291336	-0.000017
1023	1.0169e+02	9.8260	10.953645	0.000131	1.310299	0.221971	-0.000013
1024	1.0179e+02	9.8149	10.942647	0.000111	1.105564	0.187288	-0.000011
1025	1.0189e+02	9.8035	10.925538	0.000172	1.719767	0.291336	-0.000017
1026	1.0199e+02	9.7931	10.911281	0.000143	1.433139	0.242780	-0.000014
1027	1.0209e+02	9.7854	10.899468	0.000119	1.187458	0.201161	-0.000012
1028	1.0219e+02	9.7743	10.881953	0.000176	1.760714	0.298273	-0.000018
1029	1.0229e+02	9.7620	10.869732	0.000123	1.228405	0.208097	-0.000012
1030	1.0239e+02	9.7580	10.858327	0.000115	1.146511	0.194224	-0.000011
1031	1.0248e+02	9.7449	10.841218	0.000172	1.719767	0.291336	-0.000017
1032	1.0258e+02	9.7380	10.827776	0.000135	1.351245	0.228907	-0.000014
1033	1.0268e+02	9.7251	10.813926	0.000139	1.392192	0.235844	-0.000014
1034	1.0278e+02	9.7163	10.803743	0.000102	1.023671	0.173415	-0.000010
1035	1.0288e+02	9.7050	10.792745	0.000111	1.105564	0.187288	-0.000011
1036	1.0298e+02	9.6983	10.782561	0.000102	1.023671	0.173415	-0.000010
1037	1.0308e+02	9.6839	10.767489	0.000152	1.515033	0.256653	-0.000015
1038	1.0318e+02	9.6761	10.751603	0.000160	1.596926	0.270527	-0.000016
1039	1.0328e+02	9.6665	10.736939	0.000147	1.474086	0.249717	-0.000015
1040	1.0338e+02	9.6567	10.727162	0.000098	0.982724	0.166478	-0.000010
1041	1.0348e+02	9.6455	10.709239	0.000180	1.801661	0.305210	-0.000018
1042	1.0358e+02	9.6369	10.701907	0.000074	0.737043	0.124858	-0.000007
1043	1.0368e+02	9.6262	10.686021	0.000160	1.596926	0.270527	-0.000016
1044	1.0378e+02	9.6153	10.674615	0.000115	1.146511	0.194224	-0.000011
1045	1.0388e+02	9.6059	10.665246	0.000094	0.941777	0.159541	-0.000009
1046	1.0398e+02	9.5962	10.649767	0.000156	1.555980	0.263590	-0.000016
1047	1.0408e+02	9.5856	10.640398	0.000094	0.941777	0.159541	-0.000009
1048	1.0418e+02	9.5766	10.627363	0.000131	1.310299	0.221971	-0.000013
1049	1.0428e+02	9.5647	10.613107	0.000143	1.433139	0.242780	-0.000014
1050	1.0438e+02	9.5557	10.600886	0.000123	1.228405	0.208097	-0.000012
1051	1.0447e+02	9.5462	10.584593	0.000164	1.637873	0.277463	-0.000016
1052	1.0457e+02	9.5370	10.570743	0.000139	1.392192	0.235844	-0.000014
1053	1.0467e+02	9.5245	10.557301	0.000135	1.351245	0.228907	-0.000014
1054	1.0477e+02	9.5175	10.546302	0.000111	1.105564	0.187288	-0.000011
1055	1.0487e+02	9.5068	10.528379	0.000180	1.801661	0.305210	-0.000018
1056	1.0497e+02	9.4946	10.512900	0.000156	1.555980	0.263590	-0.000016
1057	1.0507e+02	9.4873	10.499458	0.000135	1.351245	0.228907	-0.000014
1058	1.0517e+02	9.4760	10.484386	0.000152	1.515033	0.256653	-0.000015
1059	1.0527e+02	9.4653	10.470537	0.000139	1.392192	0.235844	-0.000014
1060	1.0537e+02	9.4559	10.456687	0.000139	1.392192	0.235844	-0.000014
1061	1.0547e+02	9.4482	10.441208	0.000156	1.555980	0.263590	-0.000016
1062	1.0557e+02	9.4376	10.422878	0.000184	1.842607	0.312146	-0.000018
1063	1.0567e+02	9.4269	10.409843	0.000131	1.310299	0.221971	-0.000013
1064	1.0577e+02	9.4204	10.397215	0.000127	1.269352	0.215034	-0.000013
1065	1.0587e+02	9.4063	10.382143	0.000152	1.515033	0.256653	-0.000015
1066	1.0597e+02	9.3979	10.365850	0.000164	1.637873	0.277463	-0.000016
1067	1.0607e+02	9.3877	10.351185	0.000147	1.474086	0.249717	-0.000015
1068	1.0617e+02	9.3799	10.336114	0.000152	1.515033	0.256653	-0.000015
1069	1.0627e+02	9.3652	10.321857	0.000143	1.433139	0.242780	-0.000014
1070	1.0637e+02	9.3593	10.304341	0.000176	1.760714	0.298273	-0.000018
1071	1.0647e+02	9.3482	10.288454	0.000160	1.596926	0.270527	-0.000016
1072	1.0656e+02	9.3376	10.272975	0.000156	1.555980	0.263590	-0.000016
1073	1.0666e+02	9.3262	10.257089	0.000160	1.596926	0.270527	-0.000016
1074	1.0676e+02	9.3169	10.244869	0.000123	1.228405	0.208097	-0.000012
1075	1.0686e+02	9.3066	10.227760	0.000172	1.719767	0.291336	-0.000017
1076	1.0696e+02	9.2981	10.216355	0.000115	1.146511	0.194224	-0.000011
1077	1.0706e+02	9.2880	10.199654	0.000168	1.678820	0.284400	-0.000017
1078	1.0716e+02	9.2781	10.183767	0.000160	1.596926	0.270527	-0.000016
1079	1.0726e+02	9.2677	10.169103	0.000147	1.474086	0.249717	-0.000015
1080	1.0736e+02	9.2581	10.157290	0.000119	1.187458	0.201161	-0.000012
1081	1.0746e+02	9.2474	10.140182	0.000172	1.719767	0.291336	-0.000017
1082	1.0756e+02	9.2383	10.125925	0.000143	1.433139	0.242780	-0.000014
1083	1.0766e+02	9.2274	10.116149	0.000098	0.982724	0.166478	-0.000010
1084	1.0776e+02	9.2181	10.096596	0.000197	1.965448	0.332956	-0.000020
1085	1.0786e+02	9.2090	10.083154	0.000135	1.351245	0.228907	-0.000014
1086	1.0796e+02	9.1998	10.066453	0.000168	1.678820	0.284400	-0.000017
1087	1.0806e+02	9.1866	10.051381	0.000152	1.515033	0.256653	-0.000015
1088	1.0816e+02	9.1797	10.037939	0.000135	1.351245	0.228907	-0.000014
1089	1.0826e+02	9.1677	10.022052	0.000160	1.596926	0.270527	-0.000016
1090	1.0836e+02	9.1596	10.006573	0.000156	1.555980	0.263590	-0.000016
1091	1.0845e+02	9.1497	9.991909	0.000147	1.474086	0.249717	-0.000015
1092	1.0855e+02	9.1390	9.980911	0.000111	1.105564	0.187288	-0.000011
1093	1.0865e+02	9.1298	9.964210	0.000168	1.678820	0.284400	-0.000017
1094	1.0875e+02	9.1187	9.944657	0.000197	1.965448	0.332956	-0.000020
1095	1.0885e+02	9.1082	9.933252	0.000115	1.146511	0.194224	-0.000011
1096	1.0895e+02	9.0991	9.917773	0.000156	1.555980	0.263590	-0.000016
1097	1.0905e+02	9.0876	9.900664	0.000172	1.719767	0.291336	-0.000017
1098	1.0915e+02	9.0784	9.882741	0.000180	1.801661	0.305210	-0.000018
1099	1.0925e+02	9.0711	9.870928	0.000119	1.187458	0.201161	-0.000012
1100	1.0935e+02	9.0565	9.854635	0.000164	1.637873	0.277463	-0.000016
1101	1.0945e+02	9.0479	9.833453	0.000213	2.129235	0.360702	-0.000021
1102	1.0955e+02	9.0396	9.820011	0.000135	1.351245	0.228907	-0.000014
1103	1.0965e+02	9.0288	9.798014	0.000221	2.211129	0.374575	-0.000022
1104	1.0975e+02	9.0174	9.784164	0.000139	1.392192	0.235844	-0.000014
1105	1.0985e+02	9.0101	9.765427	0.000188	1.883554	0.319083	-0.000019
1106	1.0995e+02	8.9993	9.749540	0.000160	1.596926	0.270527	-0.000016
1107	1.1005e+02	8.9893	9.730803	0.000188	1.883554	0.319083	-0.000019
1108	1.1015e+02	8.9801	9.717360	0.000135	1.351245	0.228907	-0.000014
1109	1.1025e+02	8.9679	9.697400	0.000201	2.006395	0.339892	-0.000020
1110	1.1035e+02	8.9600	9.683143	0.000143	1.433139	0.242780	-0.000014
1111	1.1044e+02	8.9487	9.662776	0.000205	2.047341	0.346829	-0.000020
1112	1.1054e+02	8.9371	9.645261	0.000176	1.760714	0.298273	-0.000018
1113	1.1064e+02	8.9290	9.627745	0.000176	1.760714	0.298273	-0.000018
1114	1.1074e+02	8.9210	9.613081	0.000147	1.474086	0.249717	-0.000015
1115	1.1084e+02	8.9100	9.595972	0.000172	1.719767	0.291336	-0.000017
1116	1.1094e+02	8.9000	9.576012	0.000201	2.006395	0.339892	-0.000020
1117	1.1104e+02	8.8890	9.558904	0.000172	1.719767	0.291336	-0.000017
1118	1.1114e+02	8.8794	9.538944	0.000201	2.006395	0.339892	-0.000020
1119	1.1124e+02	8.8702	9.517762	0.000213	2.129235	0.360702	-0.000021
1120	1.1134e+02	8.8602	9.500654	0.000172	1.719767	0.291336	-0.000017
1121	1.1144e+02	8.8496	9.483546	0.000172	1.719767	0.291336	-0.000017
1122	1.1154e+02	8.8403	9.459920	0.000237	2.374916	0.402322	-0.000024
1123	1.1164e+02	8.8290	9.444441	0.000156	1.555980	0.263590	-0.000016
1124	1.1174e+02	8.8200	9.425296	0.000192	1.924501	0.326019	-0.000019
1125	1.1184e+02	8.8098	9.407373	0.000180	1.801661	0.305210	-0.000018
1126	1.1194e+02	8.8013	9.393116	0.000143	1.433139	0.242780	-0.000014
1127	1.1204e+02	8.7912	9.369490	0.000237	2.374916	0.402322	-0.000024
1128	1.1214e+02	8.7806	9.348308	0.000213	2.129235	0.360702	-0.000021
1129	1.1224e+02	8.7705	9.330385	0.000180	1.801661	0.305210	-0.000018
1130	1.1234e+02	8.7613	9.309203	0.000213	2.129235	0.360702	-0.000021
1131	1.1244e+02	8.7530	9.290465	0.000188	1.883554	0.319083	-0.000019
1132	1.1253e+02	8.7426	9.265617	0.000250	2.497757	0.423131	-0.000025
1133	1.1263e+02	8.7314	9.252582	0.000131	1.310299	0.221971	-0.000013
1134	1.1273e+02	8.7215	9.231808	0.000209	2.088288	0.353766	-0.000021
1135	1.1283e+02	8.7100	9.215922	0.000160	1.596926	0.270527	-0.000016
1136	1.1293e+02	8.7021	9.195962	0.000201	2.006395	0.339892	-0.000020
1137	1.1303e+02	8.6903	9.176817	0.000192	1.924501	0.326019	-0.000019
1138	1.1313e+02	8.6808	9.160930	0.000160	1.596926	0.270527	-0.000016
1139	1.1323e+02	8.6719	9.143415	0.000176	1.760714	0.298273	-0.000018
1140	1.1333e+02	8.6624	9.124269	0.000192	1.924501	0.326019	-0.000019
1141	1.1343e+02	8.6506	9.107161	0.000172	1.719767	0.291336	-0.000017
1142	1.1353e+02	8.6411	9.085979	0.000213	2.129235	0.360702	-0.000021
1143	1.1363e+02	8.6307	9.071315	0.000147	1.474086	0.249717	-0.000015
1144	1.1373e+02	8.6221	9.049318	0.000221	2.211129	0.374575	-0.000022
1145	1.1383e+02	8.6114	9.032210	0.000172	1.719767	0.291336	-0.000017
1146	1.1393e+02	8.6019	9.014694	0.000176	1.760714	0.298273	-0.000018
1147	1.1403e+02	8.5911	8.996364	0.000184	1.842607	0.312146	-0.000018
1148	1.1413e+02	8.5818	8.980885	0.000156	1.555980	0.263590	-0.000016
1149	1.1423e+02	8.5702	8.960925	0.000201	2.006395	0.339892	-0.000020
1150	1.1433e+02	8.5612	8.946261	0.000147	1.474086	0.249717	-0.000015
1151	1.1442e+02	8.5500	8.927523	0.000188	1.883554	0.319083	-0.000019
1152	1.1452e+02	8.5410	8.908378	0.000192	1.924501	0.326019	-0.000019
1153	1.1462e+02	8.5330	8.892492	0.000160	1.596926	0.270527	-0.000016
1154	1.1472e+02	8.5233	8.875383	0.000172	1.719767	0.291336	-0.000017
1155	1.1482e+02	8.5149	8.857053	0.000184	1.842607	0.312146	-0.000018
1156	1.1492e+02	8.5034	8.839130	0.000180	1.801661	0.305210	-0.000018
1157	1.1502e+02	8.4906	8.822429	0.000168	1.678820	0.284400	-0.000017
1158	1.1512e+02	8.4827	8.805728	0.000168	1.678820	0.284400	-0.000017
1159	1.1522e+02	8.4739	8.786990	0.000188	1.883554	0.319083	-0.000019
1160	1.1532e+02	8.4599	8.766623	0.000205	2.047341	0.346829	-0.000020
1161	1.1542e+02	8.4541	8.749514	0.000172	1.719767	0.291336	-0.000017
1162	1.1552e+02	8.4424	8.729147	0.000205	2.047341	0.346829	-0.000020
1163	1.1562e+02	8.4315	8.708780	0.000205	2.047341	0.346829	-0.000020
1164	1.1572e+02	8.4219	8.690042	0.000188	1.883554	0.319083	-0.000019
1165	1.1582e+02	8.4135	8.674971	0.000152	1.515033	0.256653	-0.000015
1166	1.1592e+02	8.4054	8.652567	0.000225	2.252076	0.381512	-0.000023
1167	1.1602e+02	8.3932	8.633422	0.000192	1.924501	0.326019	-0.000019
1168	1.1612e+02	8.3826	8.611833	0.000217	2.170182	0.367639	-0.000022
1169	1.1622e+02	8.3759	8.595539	0.000164	1.637873	0.277463	-0.000016
1170	1.1632e+02	8.3643	8.579245	0.000164	1.637873	0.277463	-0.000016
1171	1.1642e+02	8.3530	8.562137	0.000172	1.719767	0.291336	-0.000017
1172	1.1651e+02	8.3428	8.542177	0.000201	2.006395	0.339892	-0.000020
1173	1.1661e+02	8.3359	8.521403	0.000209	2.088288	0.353766	-0.000021
1174	1.1671e+02	8.3207	8.502257	0.000192	1.924501	0.326019	-0.000019
1175	1.1681e+02	8.3147	8.481076	0.000213	2.129235	0.360702	-0.000021
1176	1.1691e+02	8.3039	8.463153	0.000180	1.801661	0.305210	-0.000018
1177	1.1701e+02	8.2946	8.446451	0.000168	1.678820	0.284400	-0.000017
1178	1.1711e+02	8.2841	8.429750	0.000168	1.678820	0.284400	-0.000017
1179	1.1721e+02	8.2757	8.406125	0.000237	2.374916	0.402322	-0.000024
1180	1.1731e+02	8.2633	8.391868	0.000143	1.433139	0.242780	-0.000014
1181	1.1741e+02	8.2533	8.369871	0.000221	2.211129	0.374575	-0.000022
1182	1.1751e+02	8.2442	8.355207	0.000147	1.474086	0.249717	-0.000015
1183	1.1761e+02	8.2362	8.338506	0.000168	1.678820	0.284400	-0.000017
1184	1.1771e+02	8.2227	8.319361	0.000192	1.924501	0.326019	-0.000019
1185	1.1781e+02	8.2143	8.303882	0.000156	1.555980	0.263590	-0.000016
1186	1.1791e+02	8.2032	8.283922	0.000201	2.006395	0.339892	-0.000020
1187	1.1801e+02	8.1938	8.267221	0.000168	1.678820	0.284400	-0.000017
1188	1.1811e+02	8.1846	8.254593	0.000127	1.269352	0.215034	-0.000013
1189	1.1821e+02	8.1750	8.230967	0.000237	2.374916	0.402322	-0.000024
1190	1.1831e+02	8.1670	8.216710	0.000143	1.433139	0.242780	-0.000014
1191	1.1841e+02	8.1531	8.200009	0.000168	1.678820	0.284400	-0.000017
1192	1.1850e+02	8.1426	8.181271	0.000188	1.883554	0.319083	-0.000019
1193	1.1860e+02	8.1350	8.165792	0.000156	1.555980	0.263590	-0.000016
1194	1.1870e+02	8.1231	8.145833	0.000201	2.006395	0.339892	-0.000020
1195	1.1880e+02	8.1153	8.128724	0.000172	1.719767	0.291336	-0.000017
1196	1.1890e+02	8.1040	8.115282	0.000135	1.351245	0.228907	-0.000014
1197	1.1900e+02	8.0972	8.097359	0.000180	1.801661	0.305210	-0.000018
1198	1.1910e+02	8.0840	8.081473	0.000160	1.596926	0.270527	-0.000016
1199	1.1920e+02	8.0756	8.063549	0.000180	1.801661	0.305210	-0.000018
1200	1.1930e+02	8.0633	8.047256	0.000164	1.637873	0.277463	-0.000016
1201	1.1940e+02	8.0541	8.031777	0.000156	1.555980	0.263590	-0.000016
1202	1.1950e+02	8.0450	8.018742	0.000131	1.310299	0.221971	-0.000013
1203	1.1960e+02	8.0388	8.002041	0.000168	1.678820	0.284400	-0.000017
1204	1.1970e+02	8.0265	7.984118	0.000180	1.801661	0.305210	-0.000018
1205	1.1980e+02	8.0145	7.966195	0.000180	1.801661	0.305210	-0.000018
1206	1.1990e+02	8.0056	7.956826	0.000094	0.941777	0.159541	-0.000009
1207	1.2000e+02	7.9945	7.937681	0.000192	1.924501	0.326019	-0.000019
1208	1.2010e+02	7.9839	7.922609	0.000152	1.515033	0.256653	-0.000015
1209	1.2020e+02	7.9754	7.906315	0.000164	1.637873	0.277463	-0.000016
1210	1.2030e+02	7.9657	7.894095	0.000123	1.228405	0.208097	-0.000012
1211	1.2039e+02	7.9559	7.871284	0.000229	2.293022	0.388449	-0.000023
1212	1.2049e+02	7.9447	7.858249	0.000131	1.310299	0.221971	-0.000013
1213	1.2059e+02	7.9350	7.843177	0.000152	1.515033	0.256653	-0.000015
1214	1.2069e+02	7.9274	7.829735	0.000135	1.351245	0.228907	-0.000014
1215	1.2079e+02	7.9168	7.812219	0.000176	1.760714	0.298273	-0.000018
1216	1.2089e+02	7.9043	7.799184	0.000131	1.310299	0.221971	-0.000013
1217	1.2099e+02	7.8970	7.782890	0.000164	1.637873	0.277463	-0.000016
1218	1.2109e+02	7.8892	7.763745	0.000192	1.924501	0.326019	-0.000019
1219	1.2119e+02	7.8777	7.751932	0.000119	1.187458	0.201161	-0.000012
1220	1.2129e+02	7.8642	7.735231	0.000168	1.678820	0.284400	-0.000017
1221	1.2139e+02	7.8516	7.717308	0.000180	1.801661	0.305210	-0.000018
1222	1.2149e+02	7.8448	7.698163	0.000192	1.924501	0.326019	-0.000019
1223	1.2159e+02	7.8370	7.682277	0.000160	1.596926	0.270527	-0.000016
1224	1.2169e+02	7.8272	7.666390	0.000160	1.596926	0.270527	-0.000016
1225	1.2179e+02	7.8150	7.648875	0.000176	1.760714	0.298273	-0.000018
1226	1.2189e+02	7.8073	7.630952	0.000180	1.801661	0.305210	-0.000018
1227	1.2199e+02	7.7956	7.613436	0.000176	1.760714	0.298273	-0.000018
1228	1.2209e+02	7.7851	7.593884	0.000197	1.965448	0.332956	-0.000020
1229	1.2219e+02	7.7775	7.577997	0.000160	1.596926	0.270527	-0.000016
1230	1.2229e+02	7.7664	7.564148	0.000139	1.392192	0.235844	-0.000014
1231	1.2239e+02	7.7596	7.544595	0.000197	1.965448	0.332956	-0.000020
1232	1.2248e+02	7.7470	7.525450	0.000192	1.924501	0.326019	-0.000019
1233	1.2258e+02	7.7354	7.508749	0.000168	1.678820	0.284400	-0.000017
1234	1.2268e+02	7.7280	7.491233	0.000176	1.760714	0.298273	-0.000018
1235	1.2278e+02	7.7183	7.474125	0.000172	1.719767	0.291336	-0.000017
1236	1.2288e+02	7.7033	7.454572	0.000197	1.965448	0.332956	-0.000020
1237	1.2298e+02	7.6953	7.435427	0.000192	1.924501	0.326019	-0.000019
1238	1.2308e+02	7.6884	7.417912	0.000176	1.760714	0.298273	-0.000018
1239	1.2318e+02	7.6751	7.399174	0.000188	1.883554	0.319083	-0.000019
1240	1.2328e+02	7.6690	7.383695	0.000156	1.555980	0.263590	-0.000016
1241	1.2338e+02	7.6577	7.365364	0.000184	1.842607	0.312146	-0.000018
1242	1.2348e+02	7.6493	7.348256	0.000172	1.719767	0.291336	-0.000017
1243	1.2358e+02	7.6379	7.331555	0.000168	1.678820	0.284400	-0.000017
1244	1.2368e+02	7.6279	7.315261	0.000164	1.637873	0.277463	-0.000016
1245	1.2378e+02	7.6173	7.296523	0.000188	1.883554	0.319083	-0.000019
1246	1.2388e+02	7.6060	7.277378	0.000192	1.924501	0.326019	-0.000019
1247	1.2398e+02	7.5973	7.264343	0.000131	1.310299	0.221971	-0.000013
1248	1.2408e+02	7.5882	7.246420	0.000180	1.801661	0.305210	-0.000018
1249	1.2418e+02	7.5750	7.232163	0.000143	1.433139	0.242780	-0.000014
1250	1.2428e+02	7.5685	7.213426	0.000188	1.883554	0.319083	-0.000019
1251	1.2438e+02	7.5596	7.195503	0.000180	1.801661	0.305210	-0.000018
1252	1.2447e+02	7.5486	7.178801	0.000168	1.678820	0.284400	-0.000017
1253	1.2457e+02	7.5388	7.158434	0.000205	2.047341	0.346829	-0.000020
1254	1.2467e+02	7.5274	7.140919	0.000176	1.760714	0.298273	-0.000018
1255	1.2477e+02	7.5190	7.124218	0.000168	1.678820	0.284400	-0.000017
1256	1.2487e+02	7.5082	7.109553	0.000147	1.474086	0.249717	-0.000015
1257	1.2497e+02	7.4992	7.092445	0.000172	1.719767	0.291336	-0.000017
1258	1.2507e+02	7.4879	7.077781	0.000147	1.474086	0.249717	-0.000015
1259	1.2517e+02	7.4798	7.056599	0.000213	2.129235	0.360702	-0.000021
1260	1.2527e+02	7.4696	7.040305	0.000164	1.637873	0.277463	-0.000016
1261	1.2537e+02	7.4566	7.024419	0.000160	1.596926	0.270527	-0.000016
1262	1.2547e+02	7.4477	7.007718	0.000168	1.678820	0.284400	-0.000017
1263	1.2557e+02	7.4393	6.988572	0.000192	1.924501	0.326019	-0.000019
1264	1.2567e+02	7.4293	6.971871	0.000168	1.678820	0.284400	-0.000017
1265	1.2577e+02	7.4185	6.955170	0.000168	1.678820	0.284400	-0.000017
1266	1.2587e+02	7.4052	6.932359	0.000229	2.293022	0.388449	-0.000023
1267	1.2597e+02	7.3958	6.917288	0.000152	1.515033	0.256653	-0.000015
1268	1.2607e+02	7.3869	6.896920	0.000205	2.047341	0.346829	-0.000020
1269	1.2617e+02	7.3800	6.876553	0.000205	2.047341	0.346829	-0.000020
1270	1.2627e+02	7.3682	6.859038	0.000176	1.760714	0.298273	-0.000018
1271	1.2636e+02	7.3598	6.839485	0.000197	1.965448	0.332956	-0.000020
1272	1.2646e+02	7.3467	6.818303	0.000213	2.129235	0.360702	-0.000021
1273	1.2656e+02	7.3389	6.800380	0.000180	1.801661	0.305210	-0.000018
1274	1.2666e+02	7.3296	6.780420	0.000201	2.006395	0.339892	-0.000020
1275	1.2676e+02	7.3174	6.761683	0.000188	1.883554	0.319083	-0.000019
1276	1.2686e+02	7.3083	6.747018	0.000147	1.474086	0.249717	-0.000015
1277	1.2696e+02	7.2987	6.722985	0.000242	2.415863	0.409258	-0.000024
1278	1.2706e+02	7.2913	6.709135	0.000139	1.392192	0.235844	-0.000014
1279	1.2716e+02	7.2770	6.686732	0.000225	2.252076	0.381512	-0.000023
1280	1.2726e+02	7.2707	6.664328	0.000225	2.252076	0.381512	-0.000023
1281	1.2736e+02	7.2570	6.646405	0.000180	1.801661	0.305210	-0.000018
1282	1.2746e+02	7.2482	6.626038	0.000205	2.047341	0.346829	-0.000020
1283	1.2756e+02	7.2393	6.604856	0.000213	2.129235	0.360702	-0.000021
1284	1.2766e+02	7.2294	6.582452	0.000225	2.252076	0.381512	-0.000023
1285	1.2776e+02	7.2198	6.564529	0.000180	1.801661	0.305210	-0.000018
1286	1.2786e+02	7.2119	6.542940	0.000217	2.170182	0.367639	-0.000022
1287	1.2796e+02	7.2002	6.520943	0.000221	2.211129	0.374575	-0.000022
1288	1.2806e+02	7.1909	6.498132	0.000229	2.293022	0.388449	-0.000023
1289	1.2816e+02	7.1778	6.480209	0.000180	1.801661	0.305210	-0.000018
1290	1.2826e+02	7.1680	6.460657	0.000197	1.965448	0.332956	-0.000020
1291	1.2835e+02	7.1582	6.438660	0.000221	2.211129	0.374575	-0.000022
1292	1.2845e+02	7.1509	6.418700	0.000201	2.006395	0.339892	-0.000020
1293	1.2855e+02	7.1371	6.398740	0.000201	2.006395	0.339892	-0.000020
1294	1.2865e+02	7.1299	6.378781	0.000201	2.006395	0.339892	-0.000020
1295	1.2875e+02	7.1217	6.355970	0.000229	2.293022	0.388449	-0.000023
1296	1.2885e+02	7.1104	6.331936	0.000242	2.415863	0.409258	-0.000024
1297	1.2895e+02	7.1017	6.309940	0.000221	2.211129	0.374575	-0.000022
1298	1.2905e+02	7.0890	6.287536	0.000225	2.252076	0.381512	-0.000023
1299	1.2915e+02	7.0815	6.267169	0.000205	2.047341	0.346829	-0.000020
1300	1.2925e+02	7.0692	6.243950	0.000233	2.333969	0.395385	-0.000023
1301	1.2935e+02	7.0583	6.227249	0.000168	1.678820	0.284400	-0.000017
1302	1.2945e+02	7.0486	6.206067	0.000213	2.129235	0.360702	-0.000021
1303	1.2955e+02	7.0370	6.183256	0.000229	2.293022	0.388449	-0.000023
1304	1.2965e+02	7.0303	6.164926	0.000184	1.842607	0.312146	-0.000018
1305	1.2975e+02	7.0192	6.139671	0.000254	2.538703	0.430068	-0.000025
1306	1.2985e+02	7.0100	6.124192	0.000156	1.555980	0.263590	-0.000016
1307	1.2995e+02	7.0018	6.103824	0.000205	2.047341	0.346829	-0.000020
1308	1.3005e+02	6.9884	6.083457	0.000205	2.047341	0.346829	-0.000020
1309	1.3015e+02	6.9811	6.065942	0.000176	1.760714	0.298273	-0.000018
1310	1.3025e+02	6.9685	6.043130	0.000229	2.293022	0.388449	-0.000023
1311	1.3034e+02	6.9612	6.022763	0.000205	2.047341	0.346829	-0.000020
1312	1.3044e+02	6.9502	6.004433	0.000184	1.842607	0.312146	-0.000018
1313	1.3054e+02	6.9427	5.984880	0.000197	1.965448	0.332956	-0.000020
1314	1.3064e+02	6.9288	5.963291	0.000217	2.170182	0.367639	-0.000022
1315	1.3074e+02	6.9219	5.945776	0.000176	1.760714	0.298273	-0.000018
1316	1.3084e+02	6.9138	5.925816	0.000201	2.006395	0.339892	-0.000020
1317	1.3094e+02	6.8999	5.903005	0.000229	2.293022	0.388449	-0.000023
1318	1.3104e+02	6.8896	5.882230	0.000209	2.088288	0.353766	-0.000021
1319	1.3114e+02	6.8824	5.865936	0.000164	1.637873	0.277463	-0.000016
1320	1.3124e+02	6.8715	5.843533	0.000225	2.252076	0.381512	-0.000023
1321	1.3134e+02	6.8606	5.823573	0.000201	2.006395	0.339892	-0.000020
1322	1.3144e+02	6.8514	5.808094	0.000156	1.555980	0.263590	-0.000016
1323	1.3154e+02	6.8410	5.785283	0.000229	2.293022	0.388449	-0.000023
1324	1.3164e+02	6.8320	5.768174	0.000172	1.719767	0.291336	-0.000017
1325	1.3174e+02	6.8189	5.745770	0.000225	2.252076	0.381512	-0.000023
1326	1.3184e+02	6.8118	5.726625	0.000192	1.924501	0.326019	-0.000019
1327	1.3194e+02	6.8027	5.705036	0.000217	2.170182	0.367639	-0.000022
1328	1.3204e+02	6.7898	5.687928	0.000172	1.719767	0.291336	-0.000017
1329	1.3214e+02	6.7807	5.667153	0.000209	2.088288	0.353766	-0.000021
1330	1.3224e+02	6.7702	5.646379	0.000209	2.088288	0.353766	-0.000021
1331	1.3234e+02	6.7620	5.626012	0.000205	2.047341	0.346829	-0.000020
1332	1.3243e+02	6.7547	5.604015	0.000221	2.211129	0.374575	-0.000022
1333	1.3253e+02	6.7391	5.582426	0.000217	2.170182	0.367639	-0.000022
1334	1.3263e+02	6.7311	5.560429	0.000221	2.211129	0.374575	-0.000022
1335	1.3273e+02	6.7226	5.540062	0.000205	2.047341	0.346829	-0.000020
1336	1.3283e+02	6.7113	5.517659	0.000225	2.252076	0.381512	-0.000023
1337	1.3293e+02	6.7014	5.495662	0.000221	2.211129	0.374575	-0.000022
1338	1.3303e+02	6.6919	5.480183	0.000156	1.555980	0.263590	-0.000016
1339	1.3313e+02	6.6817	5.462260	0.000180	1.801661	0.305210	-0.000018
1340	1.3323e+02	6.6726	5.433339	0.000291	2.907225	0.492497	-0.000029
1341	1.3333e+02	6.6592	5.417045	0.000164	1.637873	0.277463	-0.000016
1342	1.3343e+02	6.6491	5.395456	0.000217	2.170182	0.367639	-0.000022
1343	1.3353e+02	6.6409	5.373867	0.000217	2.170182	0.367639	-0.000022
1344	1.3363e+02	6.6322	5.353092	0.000209	2.088288	0.353766	-0.000021
1345	1.3373e+02	6.6213	5.330688	0.000225	2.252076	0.381512	-0.000023
1346	1.3383e+02	6.6155	5.313173	0.000176	1.760714	0.298273	-0.000018
1347	1.3393e+02	6.6021	5.293213	0.000201	2.006395	0.339892	-0.000020
1348	1.3403e+02	6.5911	5.274475	0.000188	1.883554	0.319083	-0.000019
1349	1.3413e+02	6.5841	5.252071	0.000225	2.252076	0.381512	-0.000023
1350	1.3423e+02	6.5713	5.232519	0.000197	1.965448	0.332956	-0.000020
1351	1.3432e+02	6.5615	5.212559	0.000201	2.006395	0.339892	-0.000020
1352	1.3442e+02	6.5521	5.197895	0.000147	1.474086	0.249717	-0.000015
1353	1.3452e+02	6.5421	5.175491	0.000225	2.252076	0.381512	-0.000023
1354	1.3462e+02	6.5319	5.155531	0.000201	2.006395	0.339892	-0.000020
1355	1.3472e+02	6.5224	5.138015	0.000176	1.760714	0.298273	-0.000018
1356	1.3482e+02	6.5145	5.116019	0.000221	2.211129	0.374575	-0.000022
1357	1.3492e+02	6.5035	5.096059	0.000201	2.006395	0.339892	-0.000020
1358	1.3502e+02	6.4941	5.078543	0.000176	1.760714	0.298273	-0.000018
1359	1.3512e+02	6.4849	5.060620	0.000180	1.801661	0.305210	-0.000018
1360	1.3522e+02	6.4726	5.040253	0.000205	2.047341	0.346829	-0.000020
1361	1.3532e+02	6.4642	5.023959	0.000164	1.637873	0.277463	-0.000016
1362	1.3542e+02	6.4529	5.001556	0.000225	2.252076	0.381512	-0.000023
1363	1.3552e+02	6.4407	4.984040	0.000176	1.760714	0.298273	-0.000018
1364	1.3562e+02	6.4315	4.963265	0.000209	2.088288	0.353766	-0.000021
1365	1.3572e+02	6.4210	4.944120	0.000192	1.924501	0.326019	-0.000019
1366	1.3582e+02	6.4138	4.927827	0.000164	1.637873	0.277463	-0.000016
1367	1.3592e+02	6.4025	4.906645	0.000213	2.129235	0.360702	-0.000021
1368	1.3602e+02	6.3918	4.891980	0.000147	1.474086	0.249717	-0.000015
1369	1.3612e+02	6.3813	4.875279	0.000168	1.678820	0.284400	-0.000017
1370	1.3622e+02	6.3730	4.857764	0.000176	1.760714	0.298273	-0.000018
1371	1.3631e+02	6.3628	4.841877	0.000160	1.596926	0.270527	-0.000016
1372	1.3641e+02	6.3566	4.823547	0.000184	1.842607	0.312146	-0.000018
1373	1.3651e+02	6.3418	4.806846	0.000168	1.678820	0.284400	-0.000017
1374	1.3661e+02	6.3355	4.784035	0.000229	2.293022	0.388449	-0.000023
1375	1.3671e+02	6.3207	4.767334	0.000168	1.678820	0.284400	-0.000017
1376	1.3681e+02	6.3143	4.751040	0.000164	1.637873	0.277463	-0.000016
1377	1.3691e+02	6.3037	4.729451	0.000217	2.170182	0.367639	-0.000022
1378	1.3701e+02	6.2951	4.714379	0.000152	1.515033	0.256653	-0.000015
1379	1.3711e+02	6.2840	4.699715	0.000147	1.474086	0.249717	-0.000015
1380	1.3721e+02	6.2770	4.680570	0.000192	1.924501	0.326019	-0.000019
1381	1.3731e+02	6.2635	4.668349	0.000123	1.228405	0.208097	-0.000012
1382	1.3741e+02	6.2563	4.648797	0.000197	1.965448	0.332956	-0.000020
1383	1.3751e+02	6.2419	4.632911	0.000160	1.596926	0.270527	-0.000016
1384	1.3761e+02	6.2350	4.614173	0.000188	1.883554	0.319083	-0.000019
1385	1.3771e+02	6.2246	4.598694	0.000156	1.555980	0.263590	-0.000016
1386	1.3781e+02	6.2148	4.578327	0.000205	2.047341	0.346829	-0.000020
1387	1.3791e+02	6.2035	4.560404	0.000180	1.801661	0.305210	-0.000018
1388	1.3801e+02	6.1942	4.539222	0.000213	2.129235	0.360702	-0.000021
1389	1.3811e+02	6.1837	4.524150	0.000152	1.515033	0.256653	-0.000015
1390	1.3821e+02	6.1773	4.503376	0.000209	2.088288	0.353766	-0.000021
1391	1.3831e+02	6.1642	4.484638	0.000188	1.883554	0.319083	-0.000019
1392	1.3840e+02	6.1526	4.467122	0.000176	1.760714	0.298273	-0.000018
1393	1.3850e+02	6.1459	4.448384	0.000188	1.883554	0.319083	-0.000019
1394	1.3860e+02	6.1343	4.425980	0.000225	2.252076	0.381512	-0.000023
1395	1.3870e+02	6.1263	4.405613	0.000205	2.047341	0.346829	-0.000020
1396	1.3880e+02	6.1147	4.389320	0.000164	1.637873	0.277463	-0.000016
1397	1.3890e+02	6.1041	4.366916	0.000225	2.252076	0.381512	-0.000023
1398	1.3900e+02	6.0949	4.349400	0.000176	1.760714	0.298273	-0.000018
1399	1.3910e+02	6.0844	4.331070	0.000184	1.842607	0.312146	-0.000018
1400	1.3920e+02	6.0748	4.313554	0.000176	1.760714	0.298273	-0.000018
1401	1.3930e+02	6.0645	4.289928	0.000237	2.374916	0.402322	-0.000024
1402	1.3940e+02	6.0552	4.270376	0.000197	1.965448	0.332956	-0.000020
1403	1.3950e+02	6.0500	4.252860	0.000176	1.760714	0.298273	-0.000018
1404	1.3960e+02	6.0329	4.232900	0.000201	2.006395	0.339892	-0.000020
1405	1.3970e+02	6.0259	4.214977	0.000180	1.801661	0.305210	-0.000018
1406	1.3980e+02	6.0143	4.189722	0.000254	2.538703	0.430068	-0.000025
1407	1.3990e+02	6.0036	4.174243	0.000156	1.555980	0.263590	-0.000016
1408	1.4000e+02	5.9942	4.155098	0.000192	1.924501	0.326019	-0.000019
1409	1.4010e+02	5.9835	4.137582	0.000176	1.760714	0.298273	-0.000018
1410	1.4020e+02	5.9777	4.116807	0.000209	2.088288	0.353766	-0.000021
1411	1.4029e+02	5.9669	4.095626	0.000213	2.129235	0.360702	-0.000021
1412	1.4039e+02	5.9579	4.074037	0.000217	2.170182	0.367639	-0.000022
1413	1.4049e+02	5.9459	4.061002	0.000131	1.310299	0.221971	-0.000013
1414	1.4059e+02	5.9356	4.041042	0.000201	2.006395	0.339892	-0.000020
1415	1.4069e+02	5.9253	4.022304	0.000188	1.883554	0.319083	-0.000019
1416	1.4079e+02	5.9148	4.004788	0.000176	1.760714	0.298273	-0.000018
1417	1.4089e+02	5.9049	3.985236	0.000197	1.965448	0.332956	-0.000020
1418	1.4099e+02	5.8947	3.965276	0.000201	2.006395	0.339892	-0.000020
1419	1.4109e+02	5.8877	3.948575	0.000168	1.678820	0.284400	-0.000017
1420	1.4119e+02	5.8753	3.929023	0.000197	1.965448	0.332956	-0.000020
1421	1.4129e+02	5.8656	3.907026	0.000221	2.211129	0.374575	-0.000022
1422	1.4139e+02	5.8538	3.887066	0.000201	2.006395	0.339892	-0.000020
1423	1.4149e+02	5.8451	3.870365	0.000168	1.678820	0.284400	-0.000017
1424	1.4159e+02	5.8373	3.852035	0.000184	1.842607	0.312146	-0.000018
1425	1.4169e+02	5.8257	3.832890	0.000192	1.924501	0.326019	-0.000019
1426	1.4179e+02	5.8163	3.816189	0.000168	1.678820	0.284400	-0.000017
1427	1.4189e+02	5.8063	3.793785	0.000225	2.252076	0.381512	-0.000023
1428	1.4199e+02	5.7952	3.777084	0.000168	1.678820	0.284400	-0.000017
1429	1.4209e+02	5.7864	3.758346	0.000188	1.883554	0.319083	-0.000019
1430	1.4219e+02	5.7752	3.737572	0.000209	2.088288	0.353766	-0.000021
1431	1.4228e+02	5.7676	3.715982	0.000217	2.170182	0.367639	-0.000022
1432	1.4238e+02	5.7569	3.696430	0.000197	1.965448	0.332956	-0.000020
1433	1.4248e+02	5.7471	3.677285	0.000192	1.924501	0.326019	-0.000019
1434	1.4258e+02	5.7374	3.656918	0.000205	2.047341	0.346829	-0.000020
1435	1.4268e+02	5.7288	3.635736	0.000213	2.129235	0.360702	-0.000021
1436	1.4278e+02	5.7151	3.615776	0.000201	2.006395	0.339892	-0.000020
1437	1.4288e+02	5.7073	3.592558	0.000233	2.333969	0.395385	-0.000023
1438	1.4298e+02	5.6969	3.573820	0.000188	1.883554	0.319083	-0.000019
1439	1.4308e+02	5.6853	3.551416	0.000225	2.252076	0.381512	-0.000023
1440	1.4318e+02	5.6767	3.533900	0.000176	1.760714	0.298273	-0.000018
1441	1.4328e+02	5.6699	3.512718	0.000213	2.129235	0.360702	-0.000021
1442	1.4338e+02	5.6561	3.490315	0.000225	2.252076	0.381512	-0.000023
1443	1.4348e+02	5.6477	3.466281	0.000242	2.415863	0.409258	-0.000024
1444	1.4358e+02	5.6361	3.450395	0.000160	1.596926	0.270527	-0.000016
1445	1.4368e+02	5.6261	3.427991	0.000225	2.252076	0.381512	-0.000023
1446	1.4378e+02	5.6159	3.405995	0.000221	2.211129	0.374575	-0.000022
1447	1.4388e+02	5.6065	3.382776	0.000233	2.333969	0.395385	-0.000023
1448	1.4398e+02	5.5988	3.364038	0.000188	1.883554	0.319083	-0.000019
1449	1.4408e+02	5.5897	3.340413	0.000237	2.374916	0.402322	-0.000024
1450	1.4418e+02	5.5770	3.319231	0.000213	2.129235	0.360702	-0.000021
1451	1.4428e+02	5.5691	3.298049	0.000213	2.129235	0.360702	-0.000021
1452	1.4437e+02	5.5576	3.270350	0.000278	2.784384	0.471687	-0.000028
1453	1.4447e+02	5.5486	3.252834	0.000176	1.760714	0.298273	-0.000018
1454	1.4457e+02	5.5367	3.228393	0.000246	2.456810	0.416195	-0.000025
1455	1.4467e+02	5.5289	3.205990	0.000225	2.252076	0.381512	-0.000023
1456	1.4477e+02	5.5180	3.181549	0.000246	2.456810	0.416195	-0.000025
1457	1.4487e+02	5.5068	3.160367	0.000213	2.129235	0.360702	-0.000021
1458	1.4497e+02	5.4977	3.136334	0.000242	2.415863	0.409258	-0.000024
1459	1.4507e+02	5.4868	3.116782	0.000197	1.965448	0.332956	-0.000020
1460	1.4517e+02	5.4771	3.091934	0.000250	2.497757	0.423131	-0.000025
1461	1.4527e+02	5.4665	3.069937	0.000221	2.211129	0.374575	-0.000022
1462	1.4537e+02	5.4577	3.043053	0.000270	2.702491	0.457814	-0.000027
1463	1.4547e+02	5.4472	3.022685	0.000205	2.047341	0.346829	-0.000020
1464	1.4557e+02	5.4386	2.999874	0.000229	2.293022	0.388449	-0.000023
1465	1.4567e+02	5.4284	2.972990	0.000270	2.702491	0.457814	-0.000027
1466	1.4577e+02	5.4188	2.950586	0.000225	2.252076	0.381512	-0.000023
1467	1.4587e+02	5.4085	2.929811	0.000209	2.088288	0.353766	-0.000021
1468	1.4597e+02	5.3973	2.904963	0.000250	2.497757	0.423131	-0.000025
1469	1.4607e+02	5.3865	2.882560	0.000225	2.252076	0.381512	-0.000023
1470	1.4617e+02	5.3763	2.859341	0.000233	2.333969	0.395385	-0.000023
1471	1.4626e+02	5.3678	2.837752	0.000217	2.170182	0.367639	-0.000022
1472	1.4636e+02	5.3616	2.819421	0.000184	1.842607	0.312146	-0.000018
1473	1.4646e+02	5.3501	2.794981	0.000246	2.456810	0.416195	-0.000025
1474	1.4656e+02	5.3381	2.772577	0.000225	2.252076	0.381512	-0.000023
1475	1.4666e+02	5.3291	2.747322	0.000254	2.538703	0.430068	-0.000025
1476	1.4676e+02	5.3203	2.731843	0.000156	1.555980	0.263590	-0.000016
1477	1.4686e+02	5.3060	2.707810	0.000242	2.415863	0.409258	-0.000024
1478	1.4696e+02	5.2979	2.687035	0.000209	2.088288	0.353766	-0.000021
1479	1.4706e+02	5.2895	2.664631	0.000225	2.252076	0.381512	-0.000023
1480	1.4716e+02	5.2789	2.641005	0.000237	2.374916	0.402322	-0.000024
1481	1.4726e+02	5.2673	2.620231	0.000209	2.088288	0.353766	-0.000021
1482	1.4736e+02	5.2583	2.599864	0.000205	2.047341	0.346829	-0.000020
1483	1.4746e+02	5.2470	2.576645	0.000233	2.333969	0.395385	-0.000023
1484	1.4756e+02	5.2417	2.552612	0.000242	2.415863	0.409258	-0.000024
1485	1.4766e+02	5.2320	2.533874	0.000188	1.883554	0.319083	-0.000019
1486	1.4776e+02	5.2213	2.512693	0.000213	2.129235	0.360702	-0.000021
1487	1.4786e+02	5.2068	2.488659	0.000242	2.415863	0.409258	-0.000024
1488	1.4796e+02	5.1978	2.470329	0.000184	1.842607	0.312146	-0.000018
1489	1.4806e+02	5.1904	2.449962	0.000205	2.047341	0.346829	-0.000020
1490	1.4816e+02	5.1788	2.425114	0.000250	2.497757	0.423131	-0.000025
1491	1.4825e+02	5.1684	2.405154	0.000201	2.006395	0.339892	-0.000020
1492	1.4835e+02	5.1586	2.383565	0.000217	2.170182	0.367639	-0.000022
1493	1.4845e+02	5.1490	2.364012	0.000197	1.965448	0.332956	-0.000020
1494	1.4855e+02	5.1386	2.341201	0.000229	2.293022	0.388449	-0.000023
1495	1.4865e+02	5.1296	2.318797	0.000225	2.252076	0.381512	-0.000023
1496	1.4875e+02	5.1204	2.294357	0.000246	2.456810	0.416195	-0.000025
1497	1.4885e+02	5.1099	2.272360	0.000221	2.211129	0.374575	-0.000022
1498	1.4895e+02	5.0999	2.250364	0.000221	2.211129	0.374575	-0.000022
1499	1.4905e+02	5.0893	2.229182	0.000213	2.129235	0.360702	-0.000021
1500	1.4915e+02	5.0799	2.203520	0.000258	2.579650	0.437005	-0.000026
1501	1.4925e+02	5.0706	2.177857	0.000258	2.579650	0.437005	-0.000026
1502	1.4935e+02	5.0614	2.163193	0.000147	1.474086	0.249717	-0.000015
1503	1.4945e+02	5.0475	2.135901	0.000274	2.743438	0.464751	-0.000027
1504	1.4955e+02	5.0381	2.115534	0.000205	2.047341	0.346829	-0.000020
1505	1.4965e+02	5.0298	2.092722	0.000229	2.293022	0.388449	-0.000023
1506	1.4975e+02	5.0218	2.072763	0.000201	2.006395	0.339892	-0.000020
1507	1.4985e+02	5.0108	2.049544	0.000233	2.333969	0.395385	-0.000023
1508	1.4995e+02	4.9995	2.027140	0.000225	2.252076	0.381512	-0.000023
1509	1.5005e+02	4.9909	2.002700	0.000246	2.456810	0.416195	-0.000025
1510	1.5015e+02	4.9805	1.979074	0.000237	2.374916	0.402322	-0.000024
1511	1.5025e+02	4.9694	1.956670	0.000225	2.252076	0.381512	-0.000023
1512	1.5034e+02	4.9656	1.935081	0.000217	2.170182	0.367639	-0.000022
1513	1.5044e+02	4.9529	1.911862	0.000233	2.333969	0.395385	-0.000023
1514	1.5054e+02	4.9390	1.888236	0.000237	2.374916	0.402322	-0.000024
1515	1.5064e+02	4.9311	1.867869	0.000205	2.047341	0.346829	-0.000020
1516	1.5074e+02	4.9220	1.844243	0.000237	2.374916	0.402322	-0.000024
1517	1.5084e+02	4.9078	1.825506	0.000188	1.883554	0.319083	-0.000019
1518	1.5094e+02	4.8989	1.804324	0.000213	2.129235	0.360702	-0.000021
1519	1.5104e+02	4.8905	1.785993	0.000184	1.842607	0.312146	-0.000018
1520	1.5114e+02	4.8815	1.759516	0.000266	2.661544	0.450878	-0.000027
1521	1.5124e+02	4.8711	1.739964	0.000197	1.965448	0.332956	-0.000020
1522	1.5134e+02	4.8632	1.717967	0.000221	2.211129	0.374575	-0.000022
1523	1.5144e+02	4.8537	1.699637	0.000184	1.842607	0.312146	-0.000018
1524	1.5154e+02	4.8392	1.678048	0.000217	2.170182	0.367639	-0.000022
1525	1.5164e+02	4.8302	1.657273	0.000209	2.088288	0.353766	-0.000021
1526	1.5174e+02	4.8206	1.634462	0.000229	2.293022	0.388449	-0.000023
1527	1.5184e+02	4.8101	1.612873	0.000217	2.170182	0.367639	-0.000022
1528	1.5194e+02	4.8006	1.592506	0.000205	2.047341	0.346829	-0.000020
1529	1.5204e+02	4.7935	1.572139	0.000205	2.047341	0.346829	-0.000020
1530	1.5214e+02	4.7808	1.550957	0.000213	2.129235	0.360702	-0.000021
1531	1.5224e+02	4.7720	1.528553	0.000225	2.252076	0.381512	-0.000023
1532	1.5233e+02	4.7599	1.510630	0.000180	1.801661	0.305210	-0.000018
1533	1.5243e+02	4.7533	1.491485	0.000192	1.924501	0.326019	-0.000019
1534	1.5253e+02	4.7425	1.471932	0.000197	1.965448	0.332956	-0.000020
1535	1.5263e+02	4.7341	1.449528	0.000225	2.252076	0.381512	-0.000023
1536	1.5273e+02	4.7217	1.429976	0.000197	1.965448	0.332956	-0.000020
1537	1.5283e+02	4.7112	1.409202	0.000209	2.088288	0.353766	-0.000021
1538	1.5293e+02	4.7030	1.393315	0.000160	1.596926	0.270527	-0.000016
1539	1.5303e+02	4.6925	1.371726	0.000217	2.170182	0.367639	-0.000022
1540	1.5313e+02	4.6832	1.353396	0.000184	1.842607	0.312146	-0.000018
1541	1.5323e+02	4.6712	1.337917	0.000156	1.555980	0.263590	-0.000016
1542	1.5333e+02	4.6648	1.314698	0.000233	2.333969	0.395385	-0.000023
1543	1.5343e+02	4.6519	1.297590	0.000172	1.719767	0.291336	-0.000017
1544	1.5353e+02	4.6413	1.274779	0.000229	2.293022	0.388449	-0.000023
1545	1.5363e+02	4.6319	1.256448	0.000184	1.842607	0.312146	-0.000018
1546	1.5373e+02	4.6207	1.236896	0.000197	1.965448	0.332956	-0.000020
1547	1.5383e+02	4.6100	1.220602	0.000164	1.637873	0.277463	-0.000016
1548	1.5393e+02	4.6043	1.202679	0.000180	1.801661	0.305210	-0.000018
1549	1.5403e+02	4.5922	1.180682	0.000221	2.211129	0.374575	-0.000022
1550	1.5413e+02	4.5824	1.160723	0.000201	2.006395	0.339892	-0.000020
1551	1.5422e+02	4.5736	1.142800	0.000180	1.801661	0.305210	-0.000018
1552	1.5432e+02	4.5606	1.123247	0.000197	1.965448	0.332956	-0.000020
1553	1.5442e+02	4.5553	1.102473	0.000209	2.088288	0.353766	-0.000021
1554	1.5452e+02	4.5452	1.083328	0.000192	1.924501	0.326019	-0.000019
1555	1.5462e+02	4.5330	1.063368	0.000201	2.006395	0.339892	-0.000020
1556	1.5472e+02	4.5240	1.044223	0.000192	1.924501	0.326019	-0.000019
1557	1.5482e+02	4.5119	1.020597	0.000237	2.374916	0.402322	-0.000024
1558	1.5492e+02	4.5020	1.001044	0.000197	1.965448	0.332956	-0.000020
1559	1.5502e+02	4.4939	0.982307	0.000188	1.883554	0.319083	-0.000019
1560	1.5512e+02	4.4855	0.957459	0.000250	2.497757	0.423131	-0.000025
1561	1.5522e+02	4.4744	0.936277	0.000213	2.129235	0.360702	-0.000021
1562	1.5532e+02	4.4619	0.915910	0.000205	2.047341	0.346829	-0.000020
1563	1.5542e+02	4.4535	0.894321	0.000217	2.170182	0.367639	-0.000022
1564	1.5552e+02	4.4420	0.872731	0.000217	2.170182	0.367639	-0.000022
1565	1.5562e+02	4.4324	0.855623	0.000172	1.719767	0.291336	-0.000017
1566	1.5572e+02	4.4225	0.832405	0.000233	2.333969	0.395385	-0.000023
1567	1.5582e+02	4.4146	0.811223	0.000213	2.129235	0.360702	-0.000021
1568	1.5592e+02	4.4051	0.791670	0.000197	1.965448	0.332956	-0.000020
1569	1.5602e+02	4.3919	0.771303	0.000205	2.047341	0.346829	-0.000020
1570	1.5612e+02	4.3859	0.745641	0.000258	2.579650	0.437005	-0.000026
1571	1.5622e+02	4.3763	0.726495	0.000192	1.924501	0.326019	-0.000019
1572	1.5631e+02	4.3621	0.705314	0.000213	2.129235	0.360702	-0.000021
1573	1.5641e+02	4.3543	0.682910	0.000225	2.252076	0.381512	-0.000023
1574	1.5651e+02	4.3432	0.662950	0.000201	2.006395	0.339892	-0.000020
1575	1.5661e+02	4.3346	0.642990	0.000201	2.006395	0.339892	-0.000020
1576	1.5671e+02	4.3243	0.619364	0.000237	2.374916	0.402322	-0.000024
1577	1.5681e+02	4.3147	0.597775	0.000217	2.170182	0.367639	-0.000022
1578	1.5691e+02	4.3035	0.575779	0.000221	2.211129	0.374575	-0.000022
1579	1.5701e+02	4.2947	0.556634	0.000192	1.924501	0.326019	-0.000019
1580	1.5711e+02	4.2831	0.535044	0.000217	2.170182	0.367639	-0.000022
1581	1.5721e+02	4.2728	0.513863	0.000213	2.129235	0.360702	-0.000021
1582	1.5731e+02	4.2669	0.495532	0.000184	1.842607	0.312146	-0.000018
1583	1.5741e+02	4.2546	0.474758	0.000209	2.088288	0.353766	-0.000021
1584	1.5751e+02	4.2456	0.453576	0.000213	2.129235	0.360702	-0.000021
1585	1.5761e+02	4.2335	0.436875	0.000168	1.678820	0.284400	-0.000017
1586	1.5771e+02	4.2239	0.418137	0.000188	1.883554	0.319083	-0.000019
1587	1.5781e+02	4.2139	0.394104	0.000242	2.415863	0.409258	-0.000024
1588	1.5791e+02	4.2041	0.369663	0.000246	2.456810	0.416195	-0.000025
1589	1.5801e+02	4.1936	0.349296	0.000205	2.047341	0.346829	-0.000020
1590	1.5811e+02	4.1820	0.326485	0.000229	2.293022	0.388449	-0.000023
1591	1.5821e+02	4.1759	0.308969	0.000176	1.760714	0.298273	-0.000018
1592	1.5830e+02	4.1647	0.285343	0.000237	2.374916	0.402322	-0.000024
1593	1.5840e+02	4.1545	0.267828	0.000176	1.760714	0.298273	-0.000018
1594	1.5850e+02	4.1443	0.247461	0.000205	2.047341	0.346829	-0.000020
1595	1.5860e+02	4.1364	0.223020	0.000246	2.456810	0.416195	-0.000025
1596	1.5870e+02	4.1247	0.205097	0.000180	1.801661	0.305210	-0.000018
1597	1.5880e+02	4.1109	0.180656	0.000246	2.456810	0.416195	-0.000025
1598	1.5890e+02	4.1079	0.163548	0.000172	1.719767	0.291336	-0.000017
1599	1.5900e+02	4.0945	0.141959	0.000217	2.170182	0.367639	-0.000022
1600	1.5910e+02	4.0857	0.119148	0.000229	2.293022	0.388449	-0.000023
1601	1.5920e+02	4.0762	0.095929	0.000233	2.333969	0.395385	-0.000023
1602	1.5930e+02	4.0670	0.076377	0.000197	1.965448	0.332956	-0.000020
1603	1.5940e+02	4.0568	0.053973	0.000225	2.252076	0.381512	-0.000023
1604	1.5950e+02	4.0459	0.027496	0.000266	2.661544	0.450878	-0.000027
1605	1.5960e+02	4.0353	0.005906	0.000217	2.170182	0.367639	-0.000022
1606	1.5970e+02	4.0247	-0.016497	0.000225	2.252076	0.381512	-0.000023
1607	1.5980e+02	4.0157	-0.040938	0.000246	2.456810	0.416195	-0.000025
1608	1.5990e+02	4.0066	-0.063749	0.000229	2.293022	0.388449	-0.000023
1609	1.6000e+02	3.9965	-0.083709	0.000201	2.006395	0.339892	-0.000020
1610	1.6010e+02	3.9843	-0.107742	0.000242	2.415863	0.409258	-0.000024
1611	1.6019e+02	3.9741	-0.129331	0.000217	2.170182	0.367639	-0.000022
1612	1.6029e+02	3.9639	-0.151735	0.000225	2.252076	0.381512	-0.000023
1613	1.6039e+02	3.9564	-0.174139	0.000225	2.252076	0.381512	-0.000023
1614	1.6049e+02	3.9472	-0.199802	0.000258	2.579650	0.437005	-0.000026
1615	1.6059e+02	3.9339	-0.222613	0.000229	2.293022	0.388449	-0.000023
1616	1.6069e+02	3.9257	-0.245831	0.000233	2.333969	0.395385	-0.000023
1617	1.6079e+02	3.9179	-0.269864	0.000242	2.415863	0.409258	-0.000024
1618	1.6089e+02	3.9065	-0.292676	0.000229	2.293022	0.388449	-0.000023
1619	1.6099e+02	3.8972	-0.318746	0.000262	2.620597	0.443941	-0.000026
1620	1.6109e+02	3.8869	-0.343186	0.000246	2.456810	0.416195	-0.000025
1621	1.6119e+02	3.8770	-0.366405	0.000233	2.333969	0.395385	-0.000023
1622	1.6129e+02	3.8647	-0.392067	0.000258	2.579650	0.437005	-0.000026
1623	1.6139e+02	3.8551	-0.417730	0.000258	2.579650	0.437005	-0.000026
1624	1.6149e+02	3.8464	-0.442170	0.000246	2.456810	0.416195	-0.000025
1625	1.6159e+02	3.8360	-0.464167	0.000221	2.211129	0.374575	-0.000022
1626	1.6169e+02	3.8256	-0.488607	0.000246	2.456810	0.416195	-0.000025
1627	1.6179e+02	3.8190	-0.511826	0.000233	2.333969	0.395385	-0.000023
1628	1.6189e+02	3.8058	-0.539118	0.000274	2.743438	0.464751	-0.000027
1629	1.6199e+02	3.7959	-0.563151	0.000242	2.415863	0.409258	-0.000024
1630	1.6209e+02	3.7868	-0.585962	0.000229	2.293022	0.388449	-0.000023
1631	1.6219e+02	3.7751	-0.610403	0.000246	2.456810	0.416195	-0.000025
1632	1.6228e+02	3.7655	-0.640954	0.000307	3.071012	0.520244	-0.000031
1633	1.6238e+02	3.7580	-0.663765	0.000229	2.293022	0.388449	-0.000023
1634	1.6248e+02	3.7472	-0.686983	0.000233	2.333969	0.395385	-0.000023
1635	1.6258e+02	3.7363	-0.714275	0.000274	2.743438	0.464751	-0.000027
1636	1.6268e+02	3.7312	-0.740345	0.000262	2.620597	0.443941	-0.000026
1637	1.6278e+02	3.7176	-0.763156	0.000229	2.293022	0.388449	-0.000023
1638	1.6288e+02	3.7086	-0.787597	0.000246	2.456810	0.416195	-0.000025
1639	1.6298e+02	3.6970	-0.811630	0.000242	2.415863	0.409258	-0.000024
1640	1.6308e+02	3.6871	-0.833219	0.000217	2.170182	0.367639	-0.000022
1641	1.6318e+02	3.6752	-0.857660	0.000246	2.456810	0.416195	-0.000025
1642	1.6328e+02	3.6672	-0.880064	0.000225	2.252076	0.381512	-0.000023
1643	1.6338e+02	3.6575	-0.904911	0.000250	2.497757	0.423131	-0.000025
1644	1.6348e+02	3.6451	-0.931389	0.000266	2.661544	0.450878	-0.000027
1645	1.6358e+02	3.6362	-0.954200	0.000229	2.293022	0.388449	-0.000023
1646	1.6368e+02	3.6288	-0.973345	0.000192	1.924501	0.326019	-0.000019
1647	1.6378e+02	3.6169	-0.998600	0.000254	2.538703	0.430068	-0.000025
1648	1.6388e+02	3.6062	-1.024670	0.000262	2.620597	0.443941	-0.000026
1649	1.6398e+02	3.5980	-1.047074	0.000225	2.252076	0.381512	-0.000023
1650	1.6408e+02	3.5879	-1.071107	0.000242	2.415863	0.409258	-0.000024
1651	1.6418e+02	3.5802	-1.094733	0.000237	2.374916	0.402322	-0.000024
1652	1.6427e+02	3.5670	-1.118766	0.000242	2.415863	0.409258	-0.000024
1653	1.6437e+02	3.5603	-1.144022	0.000254	2.538703	0.430068	-0.000025
1654	1.6447e+02	3.5474	-1.163574	0.000197	1.965448	0.332956	-0.000020
1655	1.6457e+02	3.5357	-1.186793	0.000233	2.333969	0.395385	-0.000023
1656	1.6467e+02	3.5276	-1.211640	0.000250	2.497757	0.423131	-0.000025
1657	1.6477e+02	3.5191	-1.236488	0.000250	2.497757	0.423131	-0.000025
1658	1.6487e+02	3.5073	-1.258077	0.000217	2.170182	0.367639	-0.000022
1659	1.6497e+02	3.5011	-1.282518	0.000246	2.456810	0.416195	-0.000025
1660	1.6507e+02	3.4863	-1.304515	0.000221	2.211129	0.374575	-0.000022
1661	1.6517e+02	3.4772	-1.326918	0.000225	2.252076	0.381512	-0.000023
1662	1.6527e+02	3.4670	-1.350952	0.000242	2.415863	0.409258	-0.000024
1663	1.6537e+02	3.4573	-1.375799	0.000250	2.497757	0.423131	-0.000025
1664	1.6547e+02	3.4483	-1.396981	0.000213	2.129235	0.360702	-0.000021
1665	1.6557e+02	3.4425	-1.427125	0.000303	3.030065	0.513307	-0.000030
1666	1.6567e+02	3.4299	-1.451565	0.000246	2.456810	0.416195	-0.000025
1667	1.6577e+02	3.4202	-1.474784	0.000233	2.333969	0.395385	-0.000023
1668	1.6587e+02	3.4114	-1.498817	0.000242	2.415863	0.409258	-0.000024
1669	1.6597e+02	3.4017	-1.524479	0.000258	2.579650	0.437005	-0.000026
1670	1.6607e+02	3.3881	-1.550142	0.000258	2.579650	0.437005	-0.000026
1671	1.6616e+02	3.3773	-1.573361	0.000233	2.333969	0.395385	-0.000023
1672	1.6626e+02	3.3693	-1.595357	0.000221	2.211129	0.374575	-0.000022
1673	1.6636e+02	3.3588	-1.618983	0.000237	2.374916	0.402322	-0.000024
1674	1.6646e+02	3.3482	-1.645053	0.000262	2.620597	0.443941	-0.000026
1675	1.6656e+02	3.3395	-1.669901	0.000250	2.497757	0.423131	-0.000025
1676	1.6666e+02	3.3291	-1.696378	0.000266	2.661544	0.450878	-0.000027
1677	1.6676e+02	3.3189	-1.715116	0.000188	1.883554	0.319083	-0.000019
1678	1.6686e+02	3.3103	-1.741593	0.000266	2.661544	0.450878	-0.000027
1679	1.6696e+02	3.2992	-1.766848	0.000254	2.538703	0.430068	-0.000025
1680	1.6706e+02	3.2878	-1.793326	0.000266	2.661544	0.450878	-0.000027
1681	1.6716e+02	3.2772	-1.818581	0.000254	2.538703	0.430068	-0.000025
1682	1.6726e+02	3.2687	-1.837319	0.000188	1.883554	0.319083	-0.000019
1683	1.6736e+02	3.2618	-1.862981	0.000258	2.579650	0.437005	-0.000026
1684	1.6746e+02	3.2485	-1.887829	0.000250	2.497757	0.423131	-0.000025
1685	1.6756e+02	3.2368	-1.910233	0.000225	2.252076	0.381512	-0.000023
1686	1.6766e+02	3.2314	-1.932637	0.000225	2.252076	0.381512	-0.000023
1687	1.6776e+02	3.2214	-1.957485	0.000250	2.497757	0.423131	-0.000025
1688	1.6786e+02	3.2102	-1.976630	0.000192	1.924501	0.326019	-0.000019
1689	1.6796e+02	3.2003	-2.001070	0.000246	2.456810	0.416195	-0.000025
1690	1.6806e+02	3.1900	-2.026733	0.000258	2.579650	0.437005	-0.000026
1691	1.6816e+02	3.1799	-2.047507	0.000209	2.088288	0.353766	-0.000021
1692	1.6825e+02	3.1702	-2.066652	0.000192	1.924501	0.326019	-0.000019
1693	1.6835e+02	3.1603	-2.096388	0.000299	2.989119	0.506370	-0.000030
1694	1.6845e+02	3.1496	-2.117570	0.000213	2.129235	0.360702	-0.000021
1695	1.6855e+02	3.1385	-2.138752	0.000213	2.129235	0.360702	-0.000021
1696	1.6865e+02	3.1280	-2.164415	0.000258	2.579650	0.437005	-0.000026
1697	1.6875e+02	3.1202	-2.186411	0.000221	2.211129	0.374575	-0.000022
1698	1.6885e+02	3.1093	-2.207593	0.000213	2.129235	0.360702	-0.000021
1699	1.6895e+02	3.1004	-2.229589	0.000221	2.211129	0.374575	-0.000022
1700	1.6905e+02	3.0909	-2.249957	0.000205	2.047341	0.346829	-0.000020
1701	1.6915e+02	3.0796	-2.277656	0.000278	2.784384	0.471687	-0.000028
1702	1.6925e+02	3.0709	-2.298023	0.000205	2.047341	0.346829	-0.000020
1703	1.6935e+02	3.0617	-2.317983	0.000201	2.006395	0.339892	-0.000020
1704	1.6945e+02	3.0497	-2.341609	0.000237	2.374916	0.402322	-0.000024
1705	1.6955e+02	3.0413	-2.358717	0.000172	1.719767	0.291336	-0.000017
1706	1.6965e+02	3.0306	-2.377047	0.000184	1.842607	0.312146	-0.000018
1707	1.6975e+02	3.0226	-2.399859	0.000229	2.293022	0.388449	-0.000023
1708	1.6985e+02	3.0100	-2.422262	0.000225	2.252076	0.381512	-0.000023
1709	1.6995e+02	3.0024	-2.441815	0.000197	1.965448	0.332956	-0.000020
1710	1.7005e+02	2.9893	-2.465848	0.000242	2.415863	0.409258	-0.000024
1711	1.7015e+02	2.9800	-2.487845	0.000221	2.211129	0.374575	-0.000022
1712	1.7024e+02	2.9700	-2.510656	0.000229	2.293022	0.388449	-0.000023
1713	1.7034e+02	2.9592	-2.530208	0.000197	1.965448	0.332956	-0.000020
1714	1.7044e+02	2.9511	-2.553834	0.000237	2.374916	0.402322	-0.000024
1715	1.7054e+02	2.9408	-2.573387	0.000197	1.965448	0.332956	-0.000020
1716	1.7064e+02	2.9315	-2.590088	0.000168	1.678820	0.284400	-0.000017
1717	1.7074e+02	2.9200	-2.612084	0.000221	2.211129	0.374575	-0.000022
1718	1.7084e+02	2.9089	-2.634895	0.000229	2.293022	0.388449	-0.000023
1719	1.7094e+02	2.9011	-2.656484	0.000217	2.170182	0.367639	-0.000022
1720	1.7104e+02	2.8885	-2.677666	0.000213	2.129235	0.360702	-0.000021
1721	1.7114e+02	2.8785	-2.702514	0.000250	2.497757	0.423131	-0.000025
1722	1.7124e+02	2.8727	-2.722881	0.000205	2.047341	0.346829	-0.000020
1723	1.7134e+02	2.8608	-2.742026	0.000192	1.924501	0.326019	-0.000019
1724	1.7144e+02	2.8500	-2.767282	0.000254	2.538703	0.430068	-0.000025
1725	1.7154e+02	2.8430	-2.789278	0.000221	2.211129	0.374575	-0.000022
1726	1.7164e+02	2.8320	-2.811275	0.000221	2.211129	0.374575	-0.000022
1727	1.7174e+02	2.8204	-2.834900	0.000237	2.374916	0.402322	-0.000024
1728	1.7184e+02	2.8120	-2.855675	0.000209	2.088288	0.353766	-0.000021
1729	1.7194e+02	2.8010	-2.875227	0.000197	1.965448	0.332956	-0.000020
1730	1.7204e+02	2.7918	-2.902112	0.000270	2.702491	0.457814	-0.000027
1731	1.7213e+02	2.7825	-2.921664	0.000197	1.965448	0.332956	-0.000020
1732	1.7223e+02	2.7703	-2.950178	0.000287	2.866278	0.485561	-0.000029
1733	1.7233e+02	2.7637	-2.971360	0.000213	2.129235	0.360702	-0.000021
1734	1.7243e+02	2.7540	-2.993357	0.000221	2.211129	0.374575	-0.000022
1735	1.7253e+02	2.7396	-3.016575	0.000233	2.333969	0.395385	-0.000023
1736	1.7263e+02	2.7316	-3.038572	0.000221	2.211129	0.374575	-0.000022
1737	1.7273e+02	2.7210	-3.066271	0.000278	2.784384	0.471687	-0.000028
1738	1.7283e+02	2.7127	-3.083787	0.000176	1.760714	0.298273	-0.000018
1739	1.7293e+02	2.7026	-3.107005	0.000233	2.333969	0.395385	-0.000023
1740	1.7303e+02	2.6878	-3.133483	0.000266	2.661544	0.450878	-0.000027
1741	1.7313e+02	2.6823	-3.157516	0.000242	2.415863	0.409258	-0.000024
1742	1.7323e+02	2.6724	-3.181956	0.000246	2.456810	0.416195	-0.000025
1743	1.7333e+02	2.6612	-3.201916	0.000201	2.006395	0.339892	-0.000020
1744	1.7343e+02	2.6507	-3.228801	0.000270	2.702491	0.457814	-0.000027
1745	1.7353e+02	2.6413	-3.250797	0.000221	2.211129	0.374575	-0.000022
1746	1.7363e+02	2.6331	-3.274423	0.000237	2.374916	0.402322	-0.000024
1747	1.7373e+02	2.6228	-3.297642	0.000233	2.333969	0.395385	-0.000023
1748	1.7383e+02	2.6127	-3.321675	0.000242	2.415863	0.409258	-0.000024
1749	1.7393e+02	2.6038	-3.340005	0.000184	1.842607	0.312146	-0.000018
1750	1.7403e+02	2.5933	-3.365668	0.000258	2.579650	0.437005	-0.000026
1751	1.7413e+02	2.5832	-3.386442	0.000209	2.088288	0.353766	-0.000021
1752	1.7422e+02	2.5708	-3.407217	0.000209	2.088288	0.353766	-0.000021
1753	1.7432e+02	2.5651	-3.425140	0.000180	1.801661	0.305210	-0.000018
1754	1.7442e+02	2.5505	-3.449988	0.000250	2.497757	0.423131	-0.000025
1755	1.7452e+02	2.5433	-3.474428	0.000246	2.456810	0.416195	-0.000025
1756	1.7462e+02	2.5326	-3.496017	0.000217	2.170182	0.367639	-0.000022
1757	1.7472e+02	2.5225	-3.518014	0.000221	2.211129	0.374575	-0.000022
1758	1.7482e+02	2.5110	-3.541640	0.000237	2.374916	0.402322	-0.000024
1759	1.7492e+02	2.5022	-3.565266	0.000237	2.374916	0.402322	-0.000024
1760	1.7502e+02	2.4947	-3.586855	0.000217	2.170182	0.367639	-0.000022
1761	1.7512e+02	2.4841	-3.607222	0.000205	2.047341	0.346829	-0.000020
1762	1.7522e+02	2.4749	-3.634514	0.000274	2.743438	0.464751	-0.000027
1763	1.7532e+02	2.4634	-3.652844	0.000184	1.842607	0.312146	-0.000018
1764	1.7542e+02	2.4525	-3.674026	0.000213	2.129235	0.360702	-0.000021
1765	1.7552e+02	2.4450	-3.699281	0.000254	2.538703	0.430068	-0.000025
1766	1.7562e+02	2.4341	-3.722093	0.000229	2.293022	0.388449	-0.000023
1767	1.7572e+02	2.4220	-3.744496	0.000225	2.252076	0.381512	-0.000023
1768	1.7582e+02	2.4151	-3.766493	0.000221	2.211129	0.374575	-0.000022
1769	1.7592e+02	2.4044	-3.797858	0.000315	3.152906	0.534117	-0.000032
1770	1.7602e+02	2.3948	-3.818633	0.000209	2.088288	0.353766	-0.000021
1771	1.7612e+02	2.3846	-3.842259	0.000237	2.374916	0.402322	-0.000024
1772	1.7621e+02	2.3728	-3.869551	0.000274	2.743438	0.464751	-0.000027
1773	1.7631e+02	2.3626	-3.893584	0.000242	2.415863	0.409258	-0.000024
1774	1.7641e+02	2.3553	-3.919246	0.000258	2.579650	0.437005	-0.000026
1775	1.7651e+02	2.3430	-3.942058	0.000229	2.293022	0.388449	-0.000023
1776	1.7661e+02	2.3315	-3.970572	0.000287	2.866278	0.485561	-0.000029
1777	1.7671e+02	2.3260	-3.993383	0.000229	2.293022	0.388449	-0.000023
1778	1.7681e+02	2.3149	-4.014157	0.000209	2.088288	0.353766	-0.000021
1779	1.7691e+02	2.3049	-4.037783	0.000237	2.374916	0.402322	-0.000024
1780	1.7701e+02	2.2942	-4.064668	0.000270	2.702491	0.457814	-0.000027
1781	1.7711e+02	2.2828	-4.090738	0.000262	2.620597	0.443941	-0.000026
1782	1.7721e+02	2.2757	-4.113549	0.000229	2.293022	0.388449	-0.000023
1783	1.7731e+02	2.2652	-4.139619	0.000262	2.620597	0.443941	-0.000026
1784	1.7741e+02	2.2520	-4.166503	0.000270	2.702491	0.457814	-0.000027
1785	1.7751e+02	2.2454	-4.191759	0.000254	2.538703	0.430068	-0.000025
1786	1.7761e+02	2.2375	-4.216606	0.000250	2.497757	0.423131	-0.000025
1787	1.7771e+02	2.2245	-4.243491	0.000270	2.702491	0.457814	-0.000027
1788	1.7781e+02	2.2142	-4.273634	0.000303	3.030065	0.513307	-0.000030
1789	1.7791e+02	2.2057	-4.299704	0.000262	2.620597	0.443941	-0.000026
1790	1.7801e+02	2.1957	-4.324145	0.000246	2.456810	0.416195	-0.000025
1791	1.7810e+02	2.1838	-4.351029	0.000270	2.702491	0.457814	-0.000027
1792	1.7820e+02	2.1770	-4.376285	0.000254	2.538703	0.430068	-0.000025
1793	1.7830e+02	2.1629	-4.398689	0.000225	2.252076	0.381512	-0.000023
1794	1.7840e+02	2.1534	-4.430054	0.000315	3.152906	0.534117	-0.000032
1795	1.7850e+02	2.1442	-4.456124	0.000262	2.620597	0.443941	-0.000026
1796	1.7860e+02	2.1356	-4.481379	0.000254	2.538703	0.430068	-0.000025
1797	1.7870e+02	2.1231	-4.508671	0.000274	2.743438	0.464751	-0.000027
1798	1.7880e+02	2.1155	-4.535148	0.000266	2.661544	0.450878	-0.000027
1799	1.7890e+02	2.1041	-4.563255	0.000283	2.825331	0.478624	-0.000028
1800	1.7900e+02	2.0944	-4.592991	0.000299	2.989119	0.506370	-0.000030
1801	1.7910e+02	2.0866	-4.617024	0.000242	2.415863	0.409258	-0.000024
1802	1.7920e+02	2.0740	-4.644316	0.000274	2.743438	0.464751	-0.000027
1803	1.7930e+02	2.0643	-4.667942	0.000237	2.374916	0.402322	-0.000024
1804	1.7940e+02	2.0550	-4.698493	0.000307	3.071012	0.520244	-0.000031
1805	1.7950e+02	2.0447	-4.725785	0.000274	2.743438	0.464751	-0.000027
1806	1.7960e+02	2.0351	-4.751040	0.000254	2.538703	0.430068	-0.000025
1807	1.7970e+02	2.0251	-4.776295	0.000254	2.538703	0.430068	-0.000025
1808	1.7980e+02	2.0148	-4.799921	0.000237	2.374916	0.402322	-0.000024
1809	1.7990e+02	2.0059	-4.828842	0.000291	2.907225	0.492497	-0.000029
1810	1.8000e+02	1.9970	-4.856134	0.000274	2.743438	0.464751	-0.000027
1811	1.8009e+02	1.9863	-4.879760	0.000237	2.374916	0.402322	-0.000024
1812	1.8019e+02	1.9801	-4.904608	0.000250	2.497757	0.423131	-0.000025
1813	1.8029e+02	1.9668	-4.925382	0.000209	2.088288	0.353766	-0.000021
1814	1.8039e+02	1.9532	-4.952674	0.000274	2.743438	0.464751	-0.000027
1815	1.8049e+02	1.9470	-4.980781	0.000283	2.825331	0.478624	-0.000028
1816	1.8059e+02	1.9354	-5.006444	0.000258	2.579650	0.437005	-0.000026
1817	1.8069e+02	1.9249	-5.029255	0.000229	2.293022	0.388449	-0.000023
1818	1.8079e+02	1.9133	-5.061435	0.000323	3.234800	0.547990	-0.000032
1819	1.8089e+02	1.9052	-5.081802	0.000205	2.047341	0.346829	-0.000020
1820	1.8099e+02	1.8945	-5.106650	0.000250	2.497757	0.423131	-0.000025
1821	1.8109e+02	1.8870	-5.135164	0.000287	2.866278	0.485561	-0.000029
1822	1.8119e+02	1.8754	-5.156753	0.000217	2.170182	0.367639	-0.000022
1823	1.8129e+02	1.8642	-5.183230	0.000266	2.661544	0.450878	-0.000027
1824	1.8139e+02	1.8559	-5.206041	0.000229	2.293022	0.388449	-0.000023
1825	1.8149e+02	1.8470	-5.235777	0.000299	2.989119	0.506370	-0.000030
1826	1.8159e+02	1.8363	-5.254923	0.000192	1.924501	0.326019	-0.000019
1827	1.8169e+02	1.8253	-5.281400	0.000266	2.661544	0.450878	-0.000027
1828	1.8179e+02	1.8151	-5.305026	0.000237	2.374916	0.402322	-0.000024
1829	1.8189e+02	1.8068	-5.331096	0.000262	2.620597	0.443941	-0.000026
1830	1.8199e+02	1.7951	-5.359610	0.000287	2.866278	0.485561	-0.000029
1831	1.8209e+02	1.7881	-5.383643	0.000242	2.415863	0.409258	-0.000024
1832	1.8218e+02	1.7767	-5.410527	0.000270	2.702491	0.457814	-0.000027
1833	1.8228e+02	1.7658	-5.439449	0.000291	2.907225	0.492497	-0.000029
1834	1.8238e+02	1.7556	-5.467963	0.000287	2.866278	0.485561	-0.000029
1835	1.8248e+02	1.7491	-5.494033	0.000262	2.620597	0.443941	-0.000026
1836	1.8258e+02	1.7366	-5.519288	0.000254	2.538703	0.430068	-0.000025
1837	1.8268e+02	1.7261	-5.544543	0.000254	2.538703	0.430068	-0.000025
1838	1.8278e+02	1.7165	-5.571020	0.000266	2.661544	0.450878	-0.000027
1839	1.8288e+02	1.7063	-5.597090	0.000262	2.620597	0.443941	-0.000026
1840	1.8298e+02	1.6966	-5.619494	0.000225	2.252076	0.381512	-0.000023
1841	1.8308e+02	1.6878	-5.648823	0.000295	2.948172	0.499434	-0.000029
1842	1.8318e+02	1.6773	-5.674893	0.000262	2.620597	0.443941	-0.000026
1843	1.8328e+02	1.6654	-5.702185	0.000274	2.743438	0.464751	-0.000027
1844	1.8338e+02	1.6589	-5.724181	0.000221	2.211129	0.374575	-0.000022
1845	1.8348e+02	1.6434	-5.756361	0.000323	3.234800	0.547990	-0.000032
1846	1.8358e+02	1.6375	-5.778358	0.000221	2.211129	0.374575	-0.000022
1847	1.8368e+02	1.6268	-5.804835	0.000266	2.661544	0.450878	-0.000027
1848	1.8378e+02	1.6177	-5.831720	0.000270	2.702491	0.457814	-0.000027
1849	1.8388e+02	1.6067	-5.859826	0.000283	2.825331	0.478624	-0.000028
1850	1.8398e+02	1.5993	-5.885489	0.000258	2.579650	0.437005	-0.000026
1851	1.8407e+02	1.5881	-5.912373	0.000270	2.702491	0.457814	-0.000027
1852	1.8417e+02	1.5775	-5.934777	0.000225	2.252076	0.381512	-0.000023
1853	1.8427e+02	1.5689	-5.960033	0.000254	2.538703	0.430068	-0.000025
1854	1.8437e+02	1.5557	-5.983251	0.000233	2.333969	0.395385	-0.000023
1855	1.8447e+02	1.5461	-6.012580	0.000295	2.948172	0.499434	-0.000029
1856	1.8457e+02	1.5372	-6.034984	0.000225	2.252076	0.381512	-0.000023
1857	1.8467e+02	1.5265	-6.059017	0.000242	2.415863	0.409258	-0.000024
1858	1.8477e+02	1.5175	-6.084679	0.000258	2.579650	0.437005	-0.000026
1859	1.8487e+02	1.5088	-6.110342	0.000258	2.579650	0.437005	-0.000026
1860	1.8497e+02	1.4949	-6.133153	0.000229	2.293022	0.388449	-0.000023
1861	1.8507e+02	1.4877	-6.155150	0.000221	2.211129	0.374575	-0.000022
1862	1.8517e+02	1.4780	-6.184071	0.000291	2.907225	0.492497	-0.000029
1863	1.8527e+02	1.4719	-6.207289	0.000233	2.333969	0.395385	-0.000023
1864	1.8537e+02	1.4587	-6.232545	0.000254	2.538703	0.430068	-0.000025
1865	1.8547e+02	1.4468	-6.257800	0.000254	2.538703	0.430068	-0.000025
1866	1.8557e+02	1.4384	-6.279796	0.000221	2.211129	0.374575	-0.000022
1867	1.8567e+02	1.4268	-6.304237	0.000246	2.456810	0.416195	-0.000025
1868	1.8577e+02	1.4199	-6.330307	0.000262	2.620597	0.443941	-0.000026
1869	1.8587e+02	1.4097	-6.354747	0.000246	2.456810	0.416195	-0.000025
1870	1.8597e+02	1.3963	-6.375522	0.000209	2.088288	0.353766	-0.000021
1871	1.8606e+02	1.3903	-6.399148	0.000237	2.374916	0.402322	-0.000024
1872	1.8616e+02	1.3794	-6.424403	0.000254	2.538703	0.430068	-0.000025
1873	1.8626e+02	1.3671	-6.446807	0.000225	2.252076	0.381512	-0.000023
1874	1.8636e+02	1.3581	-6.465545	0.000188	1.883554	0.319083	-0.000019
1875	1.8646e+02	1.3488	-6.491207	0.000258	2.579650	0.437005	-0.000026
1876	1.8656e+02	1.3377	-6.514426	0.000233	2.333969	0.395385	-0.000023
1877	1.8666e+02	1.3287	-6.540088	0.000258	2.579650	0.437005	-0.000026
1878	1.8676e+02	1.3192	-6.560863	0.000209	2.088288	0.353766	-0.000021
1879	1.8686e+02	1.3091	-6.591006	0.000303	3.030065	0.513307	-0.000030
1880	1.8696e+02	1.2985	-6.608929	0.000180	1.801661	0.305210	-0.000018
1881	1.8706e+02	1.2888	-6.630111	0.000213	2.129235	0.360702	-0.000021
1882	1.8716e+02	1.2788	-6.653737	0.000237	2.374916	0.402322	-0.000024
1883	1.8726e+02	1.2695	-6.673697	0.000201	2.006395	0.339892	-0.000020
1884	1.8736e+02	1.2577	-6.696508	0.000229	2.293022	0.388449	-0.000023
1885	1.8746e+02	1.2479	-6.721763	0.000254	2.538703	0.430068	-0.000025
1886	1.8756e+02	1.2410	-6.740094	0.000184	1.842607	0.312146	-0.000018
1887	1.8766e+02	1.2286	-6.765349	0.000254	2.538703	0.430068	-0.000025
1888	1.8776e+02	1.2189	-6.786938	0.000217	2.170182	0.367639	-0.000022
1889	1.8786e+02	1.2103	-6.816674	0.000299	2.989119	0.506370	-0.000030
1890	1.8796e+02	1.2000	-6.835004	0.000184	1.842607	0.312146	-0.000018
1891	1.8806e+02	1.1901	-6.862296	0.000274	2.743438	0.464751	-0.000027
1892	1.8815e+02	1.1822	-6.887144	0.000250	2.497757	0.423131	-0.000025
1893	1.8825e+02	1.1697	-6.909141	0.000221	2.211129	0.374575	-0.000022
1894	1.8835e+02	1.1608	-6.931545	0.000225	2.252076	0.381512	-0.000023
1895	1.8845e+02	1.1501	-6.958022	0.000266	2.661544	0.450878	-0.000027
1896	1.8855e+02	1.1372	-6.985721	0.000278	2.784384	0.471687	-0.000028
1897	1.8865e+02	1.1321	-7.010976	0.000254	2.538703	0.430068	-0.000025
1898	1.8875e+02	1.1173	-7.034195	0.000233	2.333969	0.395385	-0.000023
1899	1.8885e+02	1.1105	-7.058228	0.000242	2.415863	0.409258	-0.000024
1900	1.8895e+02	1.0991	-7.081854	0.000237	2.374916	0.402322	-0.000024
1901	1.8905e+02	1.0930	-7.105480	0.000237	2.374916	0.402322	-0.000024
1902	1.8915e+02	1.0815	-7.133179	0.000278	2.784384	0.471687	-0.000028
1903	1.8925e+02	1.0682	-7.160471	0.000274	2.743438	0.464751	-0.000027
1904	1.8935e+02	1.0587	-7.180431	0.000201	2.006395	0.339892	-0.000020
1905	1.8945e+02	1.0491	-7.206093	0.000258	2.579650	0.437005	-0.000026
1906	1.8955e+02	1.0404	-7.231756	0.000258	2.579650	0.437005	-0.000026
1907	1.8965e+02	1.0303	-7.257826	0.000262	2.620597	0.443941	-0.000026
1908	1.8975e+02	1.0198	-7.283488	0.000258	2.579650	0.437005	-0.000026
1909	1.8985e+02	1.0118	-7.308744	0.000254	2.538703	0.430068	-0.000025
1910	1.8995e+02	1.0000	-7.334814	0.000262	2.620597	0.443941	-0.000026
1911	1.9004e+02	0.9901	-7.359662	0.000250	2.497757	0.423131	-0.000025
1912	1.9014e+02	0.9802	-7.382473	0.000229	2.293022	0.388449	-0.000023
1913	1.9024e+02	0.9691	-7.406506	0.000242	2.415863	0.409258	-0.000024
1914	1.9034e+02	0.9608	-7.434613	0.000283	2.825331	0.478624	-0.000028
1915	1.9044e+02	0.9524	-7.458238	0.000237	2.374916	0.402322	-0.000024
1916	1.9054e+02	0.9417	-7.479420	0.000213	2.129235	0.360702	-0.000021
1917	1.9064e+02	0.9319	-7.505083	0.000258	2.579650	0.437005	-0.000026
1918	1.9074e+02	0.9224	-7.529116	0.000242	2.415863	0.409258	-0.000024
1919	1.9084e+02	0.9119	-7.549483	0.000205	2.047341	0.346829	-0.000020
1920	1.9094e+02	0.9007	-7.578404	0.000291	2.907225	0.492497	-0.000029
1921	1.9104e+02	0.8905	-7.600401	0.000221	2.211129	0.374575	-0.000022
1922	1.9114e+02	0.8807	-7.625249	0.000250	2.497757	0.423131	-0.000025
1923	1.9124e+02	0.8701	-7.647653	0.000225	2.252076	0.381512	-0.000023
1924	1.9134e+02	0.8633	-7.676574	0.000291	2.907225	0.492497	-0.000029
1925	1.9144e+02	0.8517	-7.701829	0.000254	2.538703	0.430068	-0.000025
1926	1.9154e+02	0.8443	-7.724233	0.000225	2.252076	0.381512	-0.000023
1927	1.9164e+02	0.8305	-7.749488	0.000254	2.538703	0.430068	-0.000025
1928	1.9174e+02	0.8221	-7.773522	0.000242	2.415863	0.409258	-0.000024
1929	1.9184e+02	0.8118	-7.799999	0.000266	2.661544	0.450878	-0.000027
1930	1.9194e+02	0.8010	-7.821181	0.000213	2.129235	0.360702	-0.000021
1931	1.9203e+02	0.7925	-7.851324	0.000303	3.030065	0.513307	-0.000030
1932	1.9213e+02	0.7818	-7.869247	0.000180	1.801661	0.305210	-0.000018
1933	1.9223e+02	0.7719	-7.899390	0.000303	3.030065	0.513307	-0.000030
1934	1.9233e+02	0.7602	-7.918128	0.000188	1.883554	0.319083	-0.000019
1935	1.9243e+02	0.7527	-7.946642	0.000287	2.866278	0.485561	-0.000029
1936	1.9253e+02	0.7426	-7.974749	0.000283	2.825331	0.478624	-0.000028
1937	1.9263e+02	0.7275	-8.002855	0.000283	2.825331	0.478624	-0.000028
1938	1.9273e+02	0.7229	-8.027296	0.000246	2.456810	0.416195	-0.000025
1939	1.9283e+02	0.7133	-8.049700	0.000225	2.252076	0.381512	-0.000023
1940	1.9293e+02	0.7014	-8.078621	0.000291	2.907225	0.492497	-0.000029
1941	1.9303e+02	0.6911	-8.105506	0.000270	2.702491	0.457814	-0.000027
1942	1.9313e+02	0.6834	-8.132390	0.000270	2.702491	0.457814	-0.000027
1943	1.9323e+02	0.6701	-8.157238	0.000250	2.497757	0.423131	-0.000025
1944	1.9333e+02	0.6616	-8.185345	0.000283	2.825331	0.478624	-0.000028
1945	1.9343e+02	0.6529	-8.211822	0.000266	2.661544	0.450878	-0.000027
1946	1.9353e+02	0.6416	-8.233004	0.000213	2.129235	0.360702	-0.000021
1947	1.9363e+02	0.6293	-8.265591	0.000328	3.275746	0.554926	-0.000033
1948	1.9373e+02	0.6237	-8.291661	0.000262	2.620597	0.443941	-0.000026
1949	1.9383e+02	0.6086	-8.317731	0.000262	2.620597	0.443941	-0.000026
1950	1.9393e+02	0.6039	-8.342172	0.000246	2.456810	0.416195	-0.000025
1951	1.9403e+02	0.5922	-8.373537	0.000315	3.152906	0.534117	-0.000032
1952	1.9412e+02	0.5819	-8.400014	0.000266	2.661544	0.450878	-0.000027
1953	1.9422e+02	0.5759	-8.424862	0.000250	2.497757	0.423131	-0.000025
1954	1.9432e+02	0.5627	-8.452969	0.000283	2.825331	0.478624	-0.000028
1955	1.9442e+02	0.5529	-8.483927	0.000311	3.111959	0.527180	-0.000031
1956	1.9452e+02	0.5376	-8.505516	0.000217	2.170182	0.367639	-0.000022
1957	1.9462e+02	0.5325	-8.538104	0.000328	3.275746	0.554926	-0.000033
1958	1.9472e+02	0.5230	-8.569062	0.000311	3.111959	0.527180	-0.000031
1959	1.9482e+02	0.5109	-8.594724	0.000258	2.579650	0.437005	-0.000026
1960	1.9492e+02	0.5030	-8.623238	0.000287	2.866278	0.485561	-0.000029
1961	1.9502e+02	0.4935	-8.652974	0.000299	2.989119	0.506370	-0.000030
1962	1.9512e+02	0.4826	-8.681488	0.000287	2.866278	0.485561	-0.000029
1963	1.9522e+02	0.4735	-8.709187	0.000278	2.784384	0.471687	-0.000028
1964	1.9532e+02	0.4636	-8.735665	0.000266	2.661544	0.450878	-0.000027
1965	1.9542e+02	0.4548	-8.764179	0.000287	2.866278	0.485561	-0.000029
1966	1.9552e+02	0.4454	-8.795951	0.000319	3.193853	0.541053	-0.000032
1967	1.9562e+02	0.4337	-8.823243	0.000274	2.743438	0.464751	-0.000027
1968	1.9572e+02	0.4237	-8.855016	0.000319	3.193853	0.541053	-0.000032
1969	1.9582e+02	0.4140	-8.883530	0.000287	2.866278	0.485561	-0.000029
1970	1.9592e+02	0.4037	-8.909600	0.000262	2.620597	0.443941	-0.000026
1971	1.9601e+02	0.3934	-8.940558	0.000311	3.111959	0.527180	-0.000031
1972	1.9611e+02	0.3815	-8.968665	0.000283	2.825331	0.478624	-0.000028
1973	1.9621e+02	0.3738	-8.998401	0.000299	2.989119	0.506370	-0.000030
1974	1.9631e+02	0.3651	-9.026915	0.000287	2.866278	0.485561	-0.000029
1975	1.9641e+02	0.3531	-9.050133	0.000233	2.333969	0.395385	-0.000023
1976	1.9651e+02	0.3430	-9.078647	0.000287	2.866278	0.485561	-0.000029
1977	1.9661e+02	0.3351	-9.102680	0.000242	2.415863	0.409258	-0.000024
1978	1.9671e+02	0.3247	-9.136490	0.000340	3.398587	0.575736	-0.000034
1979	1.9681e+02	0.3131	-9.160930	0.000246	2.456810	0.416195	-0.000025
1980	1.9691e+02	0.3043	-9.187408	0.000266	2.661544	0.450878	-0.000027
1981	1.9701e+02	0.2947	-9.213070	0.000258	2.579650	0.437005	-0.000026
1982	1.9711e+02	0.2856	-9.238733	0.000258	2.579650	0.437005	-0.000026
1983	1.9721e+02	0.2744	-9.266839	0.000283	2.825331	0.478624	-0.000028
1984	1.9731e+02	0.2628	-9.299019	0.000323	3.234800	0.547990	-0.000032
1985	1.9741e+02	0.2532	-9.324682	0.000258	2.579650	0.437005	-0.000026
1986	1.9751e+02	0.2440	-9.349530	0.000250	2.497757	0.423131	-0.000025
1987	1.9761e+02	0.2339	-9.379673	0.000303	3.030065	0.513307	-0.000030
1988	1.9771e+02	0.2254	-9.407373	0.000278	2.784384	0.471687	-0.000028
1989	1.9781e+02	0.2136	-9.434257	0.000270	2.702491	0.457814	-0.000027
1990	1.9791e+02	0.2036	-9.460734	0.000266	2.661544	0.450878	-0.000027
1991	1.9800e+02	0.1928	-9.486804	0.000262	2.620597	0.443941	-0.000026
1992	1.9810e+02	0.1838	-9.512060	0.000254	2.538703	0.430068	-0.000025
1993	1.9820e+02	0.1743	-9.541388	0.000295	2.948172	0.499434	-0.000029
1994	1.9830e+02	0.1658	-9.567051	0.000258	2.579650	0.437005	-0.000026
1995	1.9840e+02	0.1533	-9.596379	0.000295	2.948172	0.499434	-0.000029
1996	1.9850e+02	0.1444	-9.624486	0.000283	2.825331	0.478624	-0.000028
1997	1.9860e+02	0.1327	-9.648112	0.000237	2.374916	0.402322	-0.000024
1998	1.9870e+02	0.1238	-9.674182	0.000262	2.620597	0.443941	-0.000026
1999	1.9880e+02	0.1152	-9.707584	0.000336	3.357640	0.568800	-0.000034
2000	1.9890e+02	0.1064	-9.735691	0.000283	2.825331	0.478624	-0.000028
2001	1.9900e+02	0.0954	-9.762575	0.000270	2.702491	0.457814	-0.000027
2002	1.9910e+02	0.0864	-9.789053	0.000266	2.661544	0.450878	-0.000027
2003	1.9920e+02	0.0747	-9.817159	0.000283	2.825331	0.478624	-0.000028
2004	1.9930e+02	0.0655	-9.848117	0.000311	3.111959	0.527180	-0.000031
2005	1.9940e+02	0.0555	-9.874594	0.000266	2.661544	0.450878	-0.000027
2006	1.9950e+02	0.0465	-9.903516	0.000291	2.907225	0.492497	-0.000029
2007	1.9960e+02	0.0336	-9.934066	0.000307	3.071012	0.520244	-0.000031
2008	1.9970e+02	0.0234	-9.960136	0.000262	2.620597	0.443941	-0.000026
2009	1.9980e+02	0.0165	-9.985799	0.000258	2.579650	0.437005	-0.000026
2010	1.9990e+02	0.0060	-10.013091	0.000274	2.743438	0.464751	-0.000027
2011	2.0000e+02	-0.0037	-10.039568	0.000274	2.743438	0.464751	-0.000027

PMax (uC/cm2):	2.24e+01
Pr (uC/cm2):	1.14e+00
-Pr (uC/cm2):	0.00e+00
PLoss (uC/cm2):	0.00e+00
C (Max-Eff) (nF):	2.24e-01
K (Eff):	3.79e+02
Vert. (+/-Pr) Shift (uC/cm2):	5.72e-01
Offset (uC/cm2):	1.12e+01

A (Loop Area - uC/cm2·Volts):	-1.12e-02



Hysteresis Version: 5.48.1 - Radiant Technologies, Inc., 1999 - 9/12/24

