»»»»»»»»»»»»»»»»»»»»»»»»»»»»»»»»»»»» Hysteresis ««««««««««««««««««««««««««««««««««««
»»»  Executed Version:	5.48.1
»»»  Vision Version:	5.48.4 (R)
»»»  Vision Compiled:	9/18/24
»»»  Driver Version:	5.47.0
»»»  Windows Version:	Windows 8 or 8.1
»»»  Processor Information:	x86 (AMD or Intel) - 32 Processors
»»»  Tester Name:	PMF21124-494 (100V)
»»»  Tester S/N:	PMF21124-494
»»»  Internal Amp Type:	100V RevK 270k
»»»  Internal Amp S/N:	iAB2-596/K     
»»»  Execution Count:	1
»»»»»»»»»»»»»»»»»»»»»»»»»»»»»»»»»»»»»»»»»»««««««««««««««««««««««««««««««««««««««««««

Stored:	6/26/2025 - 17:12:14
Configured:	06/26/25 10:24:47 AM
Executed:	06/26/25 05:11:33 PM

»»»»»»»»»»»»»»»»»»»»»»»»»»»»»»»»»»» Sample Info ««««««««««««««««««««««««««««««««««««
Sample Name:	
Lot Name:	
Wafer Name:	
Die Row/Column:	0/0
Capacitor Number:	0
Sample Area (cm2):	1.00e-04
Sample Thickness (microns):	1.50e-01

Amplifier:	Internal

»»»»»»»»»»»»»»»»»»»»»»»»»»»»»»»»»»» Tester Info «««««««««««««««««««««««««««««««««««
Tester Name:	PMF21124-494 (100V)
Tester Serial Number:	PMF21124-494
Return Signal Amp. Level:	1.9 [Index: 2]

»»»»»»»»»»»»»»»»»»»»»»»»»»»»»»»» Hysteresis Info ««««««««««««««««««««««««««««««««««
Task Name:	Hyst-562
Volts:	10.00
Field:	666.67 (kV/cm)
DCBias:	0.00
DCField:	0.00 (kV/cm)
Hysteresis Period (ms):	2.00e+02
Preset:	Enabled
Preset Delay (ms):	1.00e+03
Profile:	Standard Monopolar

»»»»»»»»»»»»»»»»»»»»»»»»»»»»»»»»»»»»»» Data «««««««««««««««««««««««««««««««««««««««
Points:	2011

Valid Data

Point	Time (ms)	Drive Voltage	Measured Polarization (uC/cm2)	Capacitance (uF)	Normalized Capacitance (uF/cm2)	Dielectric Constant	Instantaneous Current (mA)
   1	0.0000e+00	-0.0020	-13.781010	0.000283	2.826723	0.478860	0.000028
   2	9.9500e-02	0.0064	-13.752903	0.000283	2.826723	0.478860	0.000028
   3	1.9900e-01	0.0182	-13.725611	0.000274	2.744789	0.464980	0.000027
   4	2.9850e-01	0.0247	-13.703207	0.000225	2.253185	0.381700	0.000023
   5	3.9800e-01	0.0338	-13.679174	0.000242	2.417053	0.409460	0.000024
   6	4.9750e-01	0.0481	-13.649438	0.000299	2.990591	0.506620	0.000030
   7	5.9700e-01	0.0538	-13.620109	0.000295	2.949624	0.499680	0.000029
   8	6.9650e-01	0.0647	-13.598520	0.000217	2.171251	0.367820	0.000022
   9	7.9600e-01	0.0755	-13.573672	0.000250	2.498987	0.423340	0.000025
  10	8.9550e-01	0.0839	-13.546788	0.000270	2.703822	0.458040	0.000027
  11	9.9500e-01	0.0935	-13.519903	0.000270	2.703822	0.458040	0.000027
  12	1.0945e+00	0.1045	-13.496684	0.000234	2.335119	0.395580	0.000023
  13	1.1940e+00	0.1157	-13.472651	0.000242	2.417053	0.409460	0.000024
  14	1.2935e+00	0.1254	-13.451877	0.000209	2.089317	0.353940	0.000021
  15	1.3930e+00	0.1357	-13.425399	0.000266	2.662855	0.451100	0.000027
  16	1.4925e+00	0.1445	-13.400959	0.000246	2.458020	0.416400	0.000025
  17	1.5920e+00	0.1537	-13.376518	0.000246	2.458020	0.416400	0.000025
  18	1.6915e+00	0.1662	-13.352485	0.000242	2.417053	0.409460	0.000024
  19	1.7910e+00	0.1746	-13.326008	0.000266	2.662855	0.451100	0.000027
  20	1.8905e+00	0.1827	-13.301975	0.000242	2.417053	0.409460	0.000024
  21	1.9900e+00	0.1971	-13.280793	0.000213	2.130284	0.360880	0.000021
  22	2.0895e+00	0.2045	-13.260833	0.000201	2.007383	0.340060	0.000020
  23	2.1890e+00	0.2137	-13.234356	0.000266	2.662855	0.451100	0.000027
  24	2.2885e+00	0.2233	-13.211952	0.000225	2.253185	0.381700	0.000023
  25	2.3880e+00	0.2357	-13.185067	0.000270	2.703822	0.458040	0.000027
  26	2.4875e+00	0.2444	-13.164293	0.000209	2.089317	0.353940	0.000021
  27	2.5870e+00	0.2559	-13.140667	0.000238	2.376086	0.402520	0.000024
  28	2.6865e+00	0.2634	-13.120300	0.000205	2.048350	0.347000	0.000020
  29	2.7860e+00	0.2747	-13.096674	0.000238	2.376086	0.402520	0.000024
  30	2.8855e+00	0.2857	-13.072641	0.000242	2.417053	0.409460	0.000024
  31	2.9850e+00	0.2943	-13.051459	0.000213	2.130284	0.360880	0.000021
  32	3.0845e+00	0.3036	-13.026611	0.000250	2.498987	0.423340	0.000025
  33	3.1840e+00	0.3136	-13.003800	0.000229	2.294152	0.388640	0.000023
  34	3.2835e+00	0.3252	-12.982211	0.000217	2.171251	0.367820	0.000022
  35	3.3830e+00	0.3342	-12.960622	0.000217	2.171251	0.367820	0.000022
  36	3.4825e+00	0.3481	-12.935366	0.000254	2.539954	0.430280	0.000025
  37	3.5820e+00	0.3548	-12.912555	0.000229	2.294152	0.388640	0.000023
  38	3.6815e+00	0.3656	-12.886078	0.000266	2.662855	0.451100	0.000027
  39	3.7810e+00	0.3754	-12.866118	0.000201	2.007383	0.340060	0.000020
  40	3.8805e+00	0.3828	-12.840863	0.000254	2.539954	0.430280	0.000025
  41	3.9800e+00	0.3933	-12.821310	0.000197	1.966416	0.333120	0.000020
  42	4.0795e+00	0.4041	-12.797685	0.000238	2.376086	0.402520	0.000024
  43	4.1790e+00	0.4132	-12.775688	0.000221	2.212218	0.374760	0.000022
  44	4.2785e+00	0.4238	-12.751655	0.000242	2.417053	0.409460	0.000024
  45	4.3780e+00	0.4329	-12.731695	0.000201	2.007383	0.340060	0.000020
  46	4.4775e+00	0.4408	-12.711328	0.000205	2.048350	0.347000	0.000020
  47	4.5770e+00	0.4537	-12.685665	0.000258	2.580921	0.437220	0.000026
  48	4.6765e+00	0.4636	-12.663669	0.000221	2.212218	0.374760	0.000022
  49	4.7760e+00	0.4720	-12.642080	0.000217	2.171251	0.367820	0.000022
  50	4.8755e+00	0.4819	-12.618047	0.000242	2.417053	0.409460	0.000024
  51	4.9750e+00	0.4925	-12.598494	0.000197	1.966416	0.333120	0.000020
  52	5.0745e+00	0.5034	-12.573646	0.000250	2.498987	0.423340	0.000025
  53	5.1740e+00	0.5142	-12.550428	0.000234	2.335119	0.395580	0.000023
  54	5.2735e+00	0.5245	-12.530468	0.000201	2.007383	0.340060	0.000020
  55	5.3730e+00	0.5340	-12.506842	0.000238	2.376086	0.402520	0.000024
  56	5.4725e+00	0.5431	-12.488104	0.000188	1.884482	0.319240	0.000019
  57	5.5720e+00	0.5518	-12.465700	0.000225	2.253185	0.381700	0.000023
  58	5.6715e+00	0.5624	-12.444519	0.000213	2.130284	0.360880	0.000021
  59	5.7710e+00	0.5701	-12.424559	0.000201	2.007383	0.340060	0.000020
  60	5.8705e+00	0.5836	-12.400933	0.000238	2.376086	0.402520	0.000024
  61	5.9700e+00	0.5917	-12.381788	0.000193	1.925449	0.326180	0.000019
  62	6.0695e+00	0.6033	-12.362235	0.000197	1.966416	0.333120	0.000020
  63	6.1690e+00	0.6124	-12.340646	0.000217	2.171251	0.367820	0.000022
  64	6.2685e+00	0.6216	-12.316613	0.000242	2.417053	0.409460	0.000024
  65	6.3680e+00	0.6328	-12.296246	0.000205	2.048350	0.347000	0.000020
  66	6.4675e+00	0.6405	-12.276693	0.000197	1.966416	0.333120	0.000020
  67	6.5670e+00	0.6501	-12.251846	0.000250	2.498987	0.423340	0.000025
  68	6.6665e+00	0.6614	-12.235552	0.000164	1.638680	0.277600	0.000016
  69	6.7660e+00	0.6716	-12.212741	0.000229	2.294152	0.388640	0.000023
  70	6.8655e+00	0.6801	-12.195225	0.000176	1.761581	0.298420	0.000018
  71	6.9650e+00	0.6918	-12.173228	0.000221	2.212218	0.374760	0.000022
  72	7.0645e+00	0.7005	-12.153269	0.000201	2.007383	0.340060	0.000020
  73	7.1640e+00	0.7127	-12.132902	0.000205	2.048350	0.347000	0.000020
  74	7.2635e+00	0.7180	-12.109276	0.000238	2.376086	0.402520	0.000024
  75	7.3630e+00	0.7323	-12.092982	0.000164	1.638680	0.277600	0.000016
  76	7.4625e+00	0.7449	-12.067319	0.000258	2.580921	0.437220	0.000026
  77	7.5620e+00	0.7522	-12.045730	0.000217	2.171251	0.367820	0.000022
  78	7.6615e+00	0.7603	-12.022512	0.000234	2.335119	0.395580	0.000023
  79	7.7610e+00	0.7735	-12.001330	0.000213	2.130284	0.360880	0.000021
  80	7.8605e+00	0.7822	-11.982185	0.000193	1.925449	0.326180	0.000019
  81	7.9600e+00	0.7906	-11.961410	0.000209	2.089317	0.353940	0.000021
  82	8.0595e+00	0.8039	-11.939821	0.000217	2.171251	0.367820	0.000022
  83	8.1590e+00	0.8115	-11.918232	0.000217	2.171251	0.367820	0.000022
  84	8.2585e+00	0.8208	-11.897458	0.000209	2.089317	0.353940	0.000021
  85	8.3580e+00	0.8318	-11.871795	0.000258	2.580921	0.437220	0.000026
  86	8.4575e+00	0.8406	-11.854279	0.000176	1.761581	0.298420	0.000018
  87	8.5570e+00	0.8513	-11.831061	0.000234	2.335119	0.395580	0.000023
  88	8.6565e+00	0.8624	-11.813952	0.000172	1.720614	0.291480	0.000017
  89	8.7560e+00	0.8717	-11.790326	0.000238	2.376086	0.402520	0.000024
  90	8.8555e+00	0.8798	-11.768330	0.000221	2.212218	0.374760	0.000022
  91	8.9550e+00	0.8900	-11.747148	0.000213	2.130284	0.360880	0.000021
  92	9.0545e+00	0.9014	-11.727596	0.000197	1.966416	0.333120	0.000020
  93	9.1540e+00	0.9126	-11.703155	0.000246	2.458020	0.416400	0.000025
  94	9.2535e+00	0.9190	-11.682381	0.000209	2.089317	0.353940	0.000021
  95	9.3530e+00	0.9320	-11.662014	0.000205	2.048350	0.347000	0.000020
  96	9.4525e+00	0.9406	-11.638795	0.000234	2.335119	0.395580	0.000023
  97	9.5520e+00	0.9502	-11.611910	0.000270	2.703822	0.458040	0.000027
  98	9.6515e+00	0.9602	-11.590729	0.000213	2.130284	0.360880	0.000021
  99	9.7510e+00	0.9737	-11.574028	0.000168	1.679647	0.284540	0.000017
 100	9.8505e+00	0.9819	-11.552438	0.000217	2.171251	0.367820	0.000022
 101	9.9500e+00	0.9902	-11.527998	0.000246	2.458020	0.416400	0.000025
 102	1.0050e+01	1.0027	-11.499484	0.000287	2.867690	0.485800	0.000029
 103	1.0149e+01	1.0114	-11.481968	0.000176	1.761581	0.298420	0.000018
 104	1.0248e+01	1.0210	-11.456713	0.000254	2.539954	0.430280	0.000025
 105	1.0348e+01	1.0307	-11.431458	0.000254	2.539954	0.430280	0.000025
 106	1.0447e+01	1.0381	-11.413127	0.000184	1.843515	0.312300	0.000018
 107	1.0547e+01	1.0519	-11.388687	0.000246	2.458020	0.416400	0.000025
 108	1.0646e+01	1.0617	-11.363431	0.000254	2.539954	0.430280	0.000025
 109	1.0746e+01	1.0689	-11.338991	0.000246	2.458020	0.416400	0.000025
 110	1.0845e+01	1.0799	-11.314550	0.000246	2.458020	0.416400	0.000025
 111	1.0945e+01	1.0925	-11.291332	0.000234	2.335119	0.395580	0.000023
 112	1.1044e+01	1.0986	-11.269743	0.000217	2.171251	0.367820	0.000022
 113	1.1144e+01	1.1101	-11.243265	0.000266	2.662855	0.451100	0.000027
 114	1.1243e+01	1.1192	-11.218825	0.000246	2.458020	0.416400	0.000025
 115	1.1343e+01	1.1332	-11.196014	0.000229	2.294152	0.388640	0.000023
 116	1.1443e+01	1.1401	-11.168722	0.000274	2.744789	0.464980	0.000027
 117	1.1542e+01	1.1504	-11.146318	0.000225	2.253185	0.381700	0.000023
 118	1.1642e+01	1.1602	-11.119433	0.000270	2.703822	0.458040	0.000027
 119	1.1741e+01	1.1705	-11.100288	0.000193	1.925449	0.326180	0.000019
 120	1.1841e+01	1.1777	-11.073404	0.000270	2.703822	0.458040	0.000027
 121	1.1940e+01	1.1922	-11.050592	0.000229	2.294152	0.388640	0.000023
 122	1.2040e+01	1.2003	-11.027374	0.000234	2.335119	0.395580	0.000023
 123	1.2139e+01	1.2095	-11.004155	0.000234	2.335119	0.395580	0.000023
 124	1.2239e+01	1.2169	-10.977271	0.000270	2.703822	0.458040	0.000027
 125	1.2338e+01	1.2263	-10.955682	0.000217	2.171251	0.367820	0.000022
 126	1.2438e+01	1.2388	-10.930834	0.000250	2.498987	0.423340	0.000025
 127	1.2537e+01	1.2494	-10.907615	0.000234	2.335119	0.395580	0.000023
 128	1.2636e+01	1.2585	-10.884397	0.000234	2.335119	0.395580	0.000023
 129	1.2736e+01	1.2695	-10.859549	0.000250	2.498987	0.423340	0.000025
 130	1.2835e+01	1.2784	-10.837552	0.000221	2.212218	0.374760	0.000022
 131	1.2935e+01	1.2893	-10.808224	0.000295	2.949624	0.499680	0.000029
 132	1.3034e+01	1.2978	-10.783783	0.000246	2.458020	0.416400	0.000025
 133	1.3134e+01	1.3095	-10.765453	0.000184	1.843515	0.312300	0.000018
 134	1.3233e+01	1.3197	-10.739790	0.000258	2.580921	0.437220	0.000026
 135	1.3333e+01	1.3267	-10.711683	0.000283	2.826723	0.478860	0.000028
 136	1.3432e+01	1.3367	-10.690502	0.000213	2.130284	0.360880	0.000021
 137	1.3532e+01	1.3480	-10.664432	0.000262	2.621888	0.444160	0.000026
 138	1.3632e+01	1.3557	-10.641620	0.000229	2.294152	0.388640	0.000023
 139	1.3731e+01	1.3676	-10.614736	0.000270	2.703822	0.458040	0.000027
 140	1.3831e+01	1.3770	-10.588666	0.000262	2.621888	0.444160	0.000026
 141	1.3930e+01	1.3893	-10.563003	0.000258	2.580921	0.437220	0.000026
 142	1.4030e+01	1.3968	-10.538155	0.000250	2.498987	0.423340	0.000025
 143	1.4129e+01	1.4098	-10.513308	0.000250	2.498987	0.423340	0.000025
 144	1.4229e+01	1.4188	-10.490496	0.000229	2.294152	0.388640	0.000023
 145	1.4328e+01	1.4286	-10.457909	0.000328	3.277360	0.555200	0.000033
 146	1.4428e+01	1.4384	-10.438357	0.000197	1.966416	0.333120	0.000020
 147	1.4527e+01	1.4497	-10.412694	0.000258	2.580921	0.437220	0.000026
 148	1.4627e+01	1.4590	-10.386217	0.000266	2.662855	0.451100	0.000027
 149	1.4726e+01	1.4677	-10.358925	0.000274	2.744789	0.464980	0.000027
 150	1.4825e+01	1.4775	-10.336114	0.000229	2.294152	0.388640	0.000023
 151	1.4925e+01	1.4901	-10.306378	0.000299	2.990591	0.506620	0.000030
 152	1.5024e+01	1.4976	-10.287232	0.000193	1.925449	0.326180	0.000019
 153	1.5124e+01	1.5109	-10.255460	0.000320	3.195426	0.541320	0.000032
 154	1.5223e+01	1.5171	-10.230205	0.000254	2.539954	0.430280	0.000025
 155	1.5323e+01	1.5292	-10.205764	0.000246	2.458020	0.416400	0.000025
 156	1.5422e+01	1.5393	-10.179694	0.000262	2.621888	0.444160	0.000026
 157	1.5522e+01	1.5469	-10.157290	0.000225	2.253185	0.381700	0.000023
 158	1.5621e+01	1.5572	-10.131220	0.000262	2.621888	0.444160	0.000026
 159	1.5721e+01	1.5678	-10.106780	0.000246	2.458020	0.416400	0.000025
 160	1.5820e+01	1.5777	-10.082747	0.000242	2.417053	0.409460	0.000024
 161	1.5920e+01	1.5881	-10.055455	0.000274	2.744789	0.464980	0.000027
 162	1.6020e+01	1.5978	-10.031014	0.000246	2.458020	0.416400	0.000025
 163	1.6119e+01	1.6061	-10.004537	0.000266	2.662855	0.451100	0.000027
 164	1.6218e+01	1.6169	-9.981318	0.000234	2.335119	0.395580	0.000023
 165	1.6318e+01	1.6273	-9.955248	0.000262	2.621888	0.444160	0.000026
 166	1.6418e+01	1.6369	-9.932030	0.000234	2.335119	0.395580	0.000023
 167	1.6517e+01	1.6460	-9.903108	0.000291	2.908657	0.492740	0.000029
 168	1.6616e+01	1.6570	-9.879075	0.000242	2.417053	0.409460	0.000024
 169	1.6716e+01	1.6630	-9.853005	0.000262	2.621888	0.444160	0.000026
 170	1.6816e+01	1.6763	-9.833046	0.000201	2.007383	0.340060	0.000020
 171	1.6915e+01	1.6878	-9.806568	0.000266	2.662855	0.451100	0.000027
 172	1.7015e+01	1.6949	-9.780498	0.000262	2.621888	0.444160	0.000026
 173	1.7114e+01	1.7091	-9.752799	0.000279	2.785756	0.471920	0.000028
 174	1.7213e+01	1.7159	-9.730803	0.000221	2.212218	0.374760	0.000022
 175	1.7313e+01	1.7265	-9.706362	0.000246	2.458020	0.416400	0.000025
 176	1.7413e+01	1.7371	-9.677848	0.000287	2.867690	0.485800	0.000029
 177	1.7512e+01	1.7457	-9.658296	0.000197	1.966416	0.333120	0.000020
 178	1.7611e+01	1.7555	-9.627745	0.000307	3.072525	0.520500	0.000031
 179	1.7711e+01	1.7664	-9.606563	0.000213	2.130284	0.360880	0.000021
 180	1.7811e+01	1.7756	-9.582530	0.000242	2.417053	0.409460	0.000024
 181	1.7910e+01	1.7865	-9.556460	0.000262	2.621888	0.444160	0.000026
 182	1.8009e+01	1.7959	-9.532427	0.000242	2.417053	0.409460	0.000024
 183	1.8109e+01	1.8097	-9.513282	0.000193	1.925449	0.326180	0.000019
 184	1.8209e+01	1.8152	-9.490063	0.000234	2.335119	0.395580	0.000023
 185	1.8308e+01	1.8264	-9.468881	0.000213	2.130284	0.360880	0.000021
 186	1.8407e+01	1.8381	-9.440775	0.000283	2.826723	0.478860	0.000028
 187	1.8507e+01	1.8468	-9.420815	0.000201	2.007383	0.340060	0.000020
 188	1.8607e+01	1.8587	-9.400448	0.000205	2.048350	0.347000	0.000020
 189	1.8706e+01	1.8674	-9.374378	0.000262	2.621888	0.444160	0.000026
 190	1.8805e+01	1.8736	-9.350752	0.000238	2.376086	0.402520	0.000024
 191	1.8905e+01	1.8870	-9.329977	0.000209	2.089317	0.353940	0.000021
 192	1.9005e+01	1.8983	-9.305944	0.000242	2.417053	0.409460	0.000024
 193	1.9104e+01	1.9064	-9.285170	0.000209	2.089317	0.353940	0.000021
 194	1.9203e+01	1.9154	-9.263173	0.000221	2.212218	0.374760	0.000022
 195	1.9303e+01	1.9269	-9.241991	0.000213	2.130284	0.360880	0.000021
 196	1.9402e+01	1.9369	-9.221217	0.000209	2.089317	0.353940	0.000021
 197	1.9502e+01	1.9464	-9.200850	0.000205	2.048350	0.347000	0.000020
 198	1.9602e+01	1.9553	-9.176002	0.000250	2.498987	0.423340	0.000025
 199	1.9701e+01	1.9652	-9.156857	0.000193	1.925449	0.326180	0.000019
 200	1.9800e+01	1.9761	-9.129158	0.000279	2.785756	0.471920	0.000028
 201	1.9900e+01	1.9866	-9.107568	0.000217	2.171251	0.367820	0.000022
 202	2.0000e+01	1.9955	-9.088831	0.000188	1.884482	0.319240	0.000019
 203	2.0099e+01	2.0053	-9.066019	0.000229	2.294152	0.388640	0.000023
 204	2.0198e+01	2.0150	-9.046060	0.000201	2.007383	0.340060	0.000020
 205	2.0298e+01	2.0258	-9.023249	0.000229	2.294152	0.388640	0.000023
 206	2.0398e+01	2.0359	-8.997586	0.000258	2.580921	0.437220	0.000026
 207	2.0497e+01	2.0431	-8.977626	0.000201	2.007383	0.340060	0.000020
 208	2.0596e+01	2.0573	-8.956852	0.000209	2.089317	0.353940	0.000021
 209	2.0696e+01	2.0654	-8.936077	0.000209	2.089317	0.353940	0.000021
 210	2.0796e+01	2.0746	-8.911637	0.000246	2.458020	0.416400	0.000025
 211	2.0895e+01	2.0855	-8.892899	0.000188	1.884482	0.319240	0.000019
 212	2.0994e+01	2.0948	-8.872124	0.000209	2.089317	0.353940	0.000021
 213	2.1094e+01	2.1047	-8.849721	0.000225	2.253185	0.381700	0.000023
 214	2.1194e+01	2.1157	-8.825687	0.000242	2.417053	0.409460	0.000024
 215	2.1293e+01	2.1201	-8.808172	0.000176	1.761581	0.298420	0.000018
 216	2.1392e+01	2.1365	-8.784546	0.000238	2.376086	0.402520	0.000024
 217	2.1492e+01	2.1453	-8.760513	0.000242	2.417053	0.409460	0.000024
 218	2.1591e+01	2.1562	-8.742997	0.000176	1.761581	0.298420	0.000018
 219	2.1691e+01	2.1664	-8.723444	0.000197	1.966416	0.333120	0.000020
 220	2.1791e+01	2.1746	-8.703077	0.000205	2.048350	0.347000	0.000020
 221	2.1890e+01	2.1847	-8.681081	0.000221	2.212218	0.374760	0.000022
 222	2.1989e+01	2.1944	-8.659084	0.000221	2.212218	0.374760	0.000022
 223	2.2089e+01	2.2043	-8.636680	0.000225	2.253185	0.381700	0.000023
 224	2.2189e+01	2.2133	-8.618350	0.000184	1.843515	0.312300	0.000018
 225	2.2288e+01	2.2244	-8.599612	0.000188	1.884482	0.319240	0.000019
 226	2.2387e+01	2.2350	-8.572320	0.000274	2.744789	0.464980	0.000027
 227	2.2487e+01	2.2447	-8.554397	0.000180	1.802548	0.305360	0.000018
 228	2.2587e+01	2.2546	-8.536882	0.000176	1.761581	0.298420	0.000018
 229	2.2686e+01	2.2629	-8.519366	0.000176	1.761581	0.298420	0.000018
 230	2.2785e+01	2.2729	-8.498591	0.000209	2.089317	0.353940	0.000021
 231	2.2885e+01	2.2845	-8.478224	0.000205	2.048350	0.347000	0.000020
 232	2.2985e+01	2.2955	-8.457857	0.000205	2.048350	0.347000	0.000020
 233	2.3084e+01	2.3073	-8.433417	0.000246	2.458020	0.416400	0.000025
 234	2.3183e+01	2.3129	-8.420382	0.000131	1.310944	0.222080	0.000013
 235	2.3283e+01	2.3256	-8.397570	0.000229	2.294152	0.388640	0.000023
 236	2.3383e+01	2.3327	-8.380055	0.000176	1.761581	0.298420	0.000018
 237	2.3482e+01	2.3452	-8.360910	0.000193	1.925449	0.326180	0.000019
 238	2.3581e+01	2.3544	-8.337691	0.000234	2.335119	0.395580	0.000023
 239	2.3681e+01	2.3640	-8.318546	0.000193	1.925449	0.326180	0.000019
 240	2.3780e+01	2.3741	-8.299401	0.000193	1.925449	0.326180	0.000019
 241	2.3880e+01	2.3829	-8.278626	0.000209	2.089317	0.353940	0.000021
 242	2.3980e+01	2.3915	-8.257852	0.000209	2.089317	0.353940	0.000021
 243	2.4079e+01	2.4030	-8.240336	0.000176	1.761581	0.298420	0.000018
 244	2.4178e+01	2.4136	-8.217525	0.000229	2.294152	0.388640	0.000023
 245	2.4278e+01	2.4198	-8.198380	0.000193	1.925449	0.326180	0.000019
 246	2.4378e+01	2.4353	-8.175976	0.000225	2.253185	0.381700	0.000023
 247	2.4477e+01	2.4426	-8.158868	0.000172	1.720614	0.291480	0.000017
 248	2.4576e+01	2.4544	-8.138501	0.000205	2.048350	0.347000	0.000020
 249	2.4676e+01	2.4599	-8.118948	0.000197	1.966416	0.333120	0.000020
 250	2.4776e+01	2.4696	-8.097766	0.000213	2.130284	0.360880	0.000021
 251	2.4875e+01	2.4825	-8.079436	0.000184	1.843515	0.312300	0.000018
 252	2.4974e+01	2.4953	-8.057439	0.000221	2.212218	0.374760	0.000022
 253	2.5074e+01	2.5021	-8.035035	0.000225	2.253185	0.381700	0.000023
 254	2.5174e+01	2.5161	-8.015076	0.000201	2.007383	0.340060	0.000020
 255	2.5273e+01	2.5238	-7.997153	0.000180	1.802548	0.305360	0.000018
 256	2.5372e+01	2.5343	-7.976378	0.000209	2.089317	0.353940	0.000021
 257	2.5472e+01	2.5441	-7.957640	0.000188	1.884482	0.319240	0.000019
 258	2.5572e+01	2.5507	-7.933200	0.000246	2.458020	0.416400	0.000025
 259	2.5671e+01	2.5622	-7.915684	0.000176	1.761581	0.298420	0.000018
 260	2.5770e+01	2.5724	-7.898168	0.000176	1.761581	0.298420	0.000018
 261	2.5870e+01	2.5809	-7.874135	0.000242	2.417053	0.409460	0.000024
 262	2.5970e+01	2.5922	-7.854583	0.000197	1.966416	0.333120	0.000020
 263	2.6069e+01	2.6011	-7.831364	0.000234	2.335119	0.395580	0.000023
 264	2.6169e+01	2.6144	-7.813848	0.000176	1.761581	0.298420	0.000018
 265	2.6268e+01	2.6231	-7.791445	0.000225	2.253185	0.381700	0.000023
 266	2.6367e+01	2.6328	-7.770670	0.000209	2.089317	0.353940	0.000021
 267	2.6467e+01	2.6415	-7.749896	0.000209	2.089317	0.353940	0.000021
 268	2.6567e+01	2.6508	-7.726270	0.000238	2.376086	0.402520	0.000024
 269	2.6666e+01	2.6624	-7.704681	0.000217	2.171251	0.367820	0.000022
 270	2.6765e+01	2.6749	-7.683906	0.000209	2.089317	0.353940	0.000021
 271	2.6865e+01	2.6817	-7.661910	0.000221	2.212218	0.374760	0.000022
 272	2.6965e+01	2.6915	-7.640728	0.000213	2.130284	0.360880	0.000021
 273	2.7064e+01	2.7011	-7.616695	0.000242	2.417053	0.409460	0.000024
 274	2.7163e+01	2.7100	-7.591439	0.000254	2.539954	0.430280	0.000025
 275	2.7263e+01	2.7232	-7.569443	0.000221	2.212218	0.374760	0.000022
 276	2.7363e+01	2.7301	-7.549891	0.000197	1.966416	0.333120	0.000020
 277	2.7462e+01	2.7419	-7.526265	0.000238	2.376086	0.402520	0.000024
 278	2.7561e+01	2.7503	-7.501824	0.000246	2.458020	0.416400	0.000025
 279	2.7661e+01	2.7604	-7.479420	0.000225	2.253185	0.381700	0.000023
 280	2.7761e+01	2.7721	-7.457831	0.000217	2.171251	0.367820	0.000022
 281	2.7860e+01	2.7830	-7.436242	0.000217	2.171251	0.367820	0.000022
 282	2.7959e+01	2.7900	-7.411801	0.000246	2.458020	0.416400	0.000025
 283	2.8059e+01	2.8008	-7.389805	0.000221	2.212218	0.374760	0.000022
 284	2.8159e+01	2.8136	-7.364957	0.000250	2.498987	0.423340	0.000025
 285	2.8258e+01	2.8213	-7.344183	0.000209	2.089317	0.353940	0.000021
 286	2.8358e+01	2.8312	-7.321371	0.000229	2.294152	0.388640	0.000023
 287	2.8457e+01	2.8400	-7.297745	0.000238	2.376086	0.402520	0.000024
 288	2.8556e+01	2.8513	-7.276564	0.000213	2.130284	0.360880	0.000021
 289	2.8656e+01	2.8606	-7.250086	0.000266	2.662855	0.451100	0.000027
 290	2.8756e+01	2.8709	-7.228497	0.000217	2.171251	0.367820	0.000022
 291	2.8855e+01	2.8810	-7.206093	0.000225	2.253185	0.381700	0.000023
 292	2.8954e+01	2.8916	-7.182060	0.000242	2.417053	0.409460	0.000024
 293	2.9054e+01	2.9006	-7.160064	0.000221	2.212218	0.374760	0.000022
 294	2.9154e+01	2.9101	-7.137253	0.000229	2.294152	0.388640	0.000023
 295	2.9253e+01	2.9223	-7.112812	0.000246	2.458020	0.416400	0.000025
 296	2.9352e+01	2.9324	-7.090001	0.000229	2.294152	0.388640	0.000023
 297	2.9452e+01	2.9406	-7.066782	0.000234	2.335119	0.395580	0.000023
 298	2.9552e+01	2.9532	-7.043156	0.000238	2.376086	0.402520	0.000024
 299	2.9651e+01	2.9617	-7.019531	0.000238	2.376086	0.402520	0.000024
 300	2.9750e+01	2.9700	-6.999571	0.000201	2.007383	0.340060	0.000020
 301	2.9850e+01	2.9797	-6.976352	0.000234	2.335119	0.395580	0.000023
 302	2.9950e+01	2.9922	-6.948246	0.000283	2.826723	0.478860	0.000028
 303	3.0049e+01	3.0016	-6.925842	0.000225	2.253185	0.381700	0.000023
 304	3.0148e+01	3.0123	-6.903845	0.000221	2.212218	0.374760	0.000022
 305	3.0248e+01	3.0206	-6.881849	0.000221	2.212218	0.374760	0.000022
 306	3.0348e+01	3.0298	-6.856593	0.000254	2.539954	0.430280	0.000025
 307	3.0447e+01	3.0405	-6.834597	0.000221	2.212218	0.374760	0.000022
 308	3.0547e+01	3.0505	-6.808934	0.000258	2.580921	0.437220	0.000026
 309	3.0646e+01	3.0604	-6.787345	0.000217	2.171251	0.367820	0.000022
 310	3.0745e+01	3.0708	-6.758831	0.000287	2.867690	0.485800	0.000029
 311	3.0845e+01	3.0802	-6.731947	0.000270	2.703822	0.458040	0.000027
 312	3.0945e+01	3.0930	-6.709543	0.000225	2.253185	0.381700	0.000023
 313	3.1044e+01	3.1025	-6.683066	0.000266	2.662855	0.451100	0.000027
 314	3.1143e+01	3.1104	-6.660662	0.000225	2.253185	0.381700	0.000023
 315	3.1243e+01	3.1203	-6.635814	0.000250	2.498987	0.423340	0.000025
 316	3.1343e+01	3.1277	-6.609337	0.000266	2.662855	0.451100	0.000027
 317	3.1442e+01	3.1382	-6.592228	0.000172	1.720614	0.291480	0.000017
 318	3.1541e+01	3.1487	-6.563714	0.000287	2.867690	0.485800	0.000029
 319	3.1641e+01	3.1602	-6.540496	0.000234	2.335119	0.395580	0.000023
 320	3.1741e+01	3.1717	-6.516462	0.000242	2.417053	0.409460	0.000024
 321	3.1840e+01	3.1792	-6.488763	0.000279	2.785756	0.471920	0.000028
 322	3.1939e+01	3.1929	-6.467174	0.000217	2.171251	0.367820	0.000022
 323	3.2039e+01	3.2020	-6.439475	0.000279	2.785756	0.471920	0.000028
 324	3.2139e+01	3.2098	-6.418700	0.000209	2.089317	0.353940	0.000021
 325	3.2238e+01	3.2189	-6.392223	0.000266	2.662855	0.451100	0.000027
 326	3.2337e+01	3.2294	-6.369819	0.000225	2.253185	0.381700	0.000023
 327	3.2437e+01	3.2411	-6.346601	0.000234	2.335119	0.395580	0.000023
 328	3.2536e+01	3.2484	-6.324197	0.000225	2.253185	0.381700	0.000023
 329	3.2636e+01	3.2587	-6.296905	0.000274	2.744789	0.464980	0.000027
 330	3.2736e+01	3.2719	-6.275723	0.000213	2.130284	0.360880	0.000021
 331	3.2835e+01	3.2804	-6.250875	0.000250	2.498987	0.423340	0.000025
 332	3.2934e+01	3.2891	-6.228879	0.000221	2.212218	0.374760	0.000022
 333	3.3034e+01	3.2989	-6.200772	0.000283	2.826723	0.478860	0.000028
 334	3.3133e+01	3.3086	-6.178368	0.000225	2.253185	0.381700	0.000023
 335	3.3233e+01	3.3172	-6.153520	0.000250	2.498987	0.423340	0.000025
 336	3.3333e+01	3.3280	-6.128265	0.000254	2.539954	0.430280	0.000025
 337	3.3432e+01	3.3408	-6.106676	0.000217	2.171251	0.367820	0.000022
 338	3.3532e+01	3.3500	-6.083457	0.000234	2.335119	0.395580	0.000023
 339	3.3631e+01	3.3576	-6.056980	0.000266	2.662855	0.451100	0.000027
 340	3.3730e+01	3.3670	-6.039872	0.000172	1.720614	0.291480	0.000017
 341	3.3830e+01	3.3782	-6.014616	0.000254	2.539954	0.430280	0.000025
 342	3.3929e+01	3.3863	-5.986102	0.000287	2.867690	0.485800	0.000029
 343	3.4029e+01	3.3967	-5.961662	0.000246	2.458020	0.416400	0.000025
 344	3.4129e+01	3.4086	-5.938443	0.000234	2.335119	0.395580	0.000023
 345	3.4228e+01	3.4170	-5.916040	0.000225	2.253185	0.381700	0.000023
 346	3.4328e+01	3.4280	-5.889562	0.000266	2.662855	0.451100	0.000027
 347	3.4427e+01	3.4356	-5.867973	0.000217	2.171251	0.367820	0.000022
 348	3.4526e+01	3.4495	-5.848421	0.000197	1.966416	0.333120	0.000020
 349	3.4626e+01	3.4576	-5.821943	0.000266	2.662855	0.451100	0.000027
 350	3.4725e+01	3.4690	-5.805242	0.000168	1.679647	0.284540	0.000017
 351	3.4825e+01	3.4785	-5.780394	0.000250	2.498987	0.423340	0.000025
 352	3.4925e+01	3.4869	-5.757176	0.000234	2.335119	0.395580	0.000023
 353	3.5024e+01	3.4986	-5.738438	0.000188	1.884482	0.319240	0.000019
 354	3.5123e+01	3.5118	-5.714812	0.000238	2.376086	0.402520	0.000024
 355	3.5223e+01	3.5178	-5.694038	0.000209	2.089317	0.353940	0.000021
 356	3.5322e+01	3.5265	-5.671634	0.000225	2.253185	0.381700	0.000023
 357	3.5422e+01	3.5389	-5.648415	0.000234	2.335119	0.395580	0.000023
 358	3.5522e+01	3.5471	-5.627234	0.000213	2.130284	0.360880	0.000021
 359	3.5621e+01	3.5581	-5.607681	0.000197	1.966416	0.333120	0.000020
 360	3.5721e+01	3.5674	-5.585685	0.000221	2.212218	0.374760	0.000022
 361	3.5820e+01	3.5760	-5.563688	0.000221	2.212218	0.374760	0.000022
 362	3.5919e+01	3.5865	-5.544543	0.000193	1.925449	0.326180	0.000019
 363	3.6019e+01	3.5979	-5.522954	0.000217	2.171251	0.367820	0.000022
 364	3.6118e+01	3.6065	-5.501772	0.000213	2.130284	0.360880	0.000021
 365	3.6218e+01	3.6157	-5.483849	0.000180	1.802548	0.305360	0.000018
 366	3.6318e+01	3.6254	-5.458187	0.000258	2.580921	0.437220	0.000026
 367	3.6417e+01	3.6349	-5.438634	0.000197	1.966416	0.333120	0.000020
 368	3.6517e+01	3.6470	-5.417452	0.000213	2.130284	0.360880	0.000021
 369	3.6616e+01	3.6587	-5.400344	0.000172	1.720614	0.291480	0.000017
 370	3.6715e+01	3.6662	-5.379977	0.000205	2.048350	0.347000	0.000020
 371	3.6815e+01	3.6787	-5.357573	0.000225	2.253185	0.381700	0.000023
 372	3.6914e+01	3.6884	-5.336391	0.000213	2.130284	0.360880	0.000021
 373	3.7014e+01	3.6976	-5.313987	0.000225	2.253185	0.381700	0.000023
 374	3.7114e+01	3.7071	-5.291991	0.000221	2.212218	0.374760	0.000022
 375	3.7213e+01	3.7151	-5.274475	0.000176	1.761581	0.298420	0.000018
 376	3.7313e+01	3.7273	-5.253701	0.000209	2.089317	0.353940	0.000021
 377	3.7412e+01	3.7375	-5.235370	0.000184	1.843515	0.312300	0.000018
 378	3.7511e+01	3.7479	-5.210522	0.000250	2.498987	0.423340	0.000025
 379	3.7611e+01	3.7562	-5.193007	0.000176	1.761581	0.298420	0.000018
 380	3.7711e+01	3.7669	-5.169381	0.000238	2.376086	0.402520	0.000024
 381	3.7810e+01	3.7759	-5.148606	0.000209	2.089317	0.353940	0.000021
 382	3.7910e+01	3.7854	-5.129054	0.000197	1.966416	0.333120	0.000020
 383	3.8009e+01	3.7973	-5.109094	0.000201	2.007383	0.340060	0.000020
 384	3.8108e+01	3.8067	-5.088319	0.000209	2.089317	0.353940	0.000021
 385	3.8208e+01	3.8149	-5.065916	0.000225	2.253185	0.381700	0.000023
 386	3.8307e+01	3.8270	-5.047585	0.000184	1.843515	0.312300	0.000018
 387	3.8407e+01	3.8360	-5.026811	0.000209	2.089317	0.353940	0.000021
 388	3.8507e+01	3.8464	-5.006036	0.000209	2.089317	0.353940	0.000021
 389	3.8606e+01	3.8563	-4.986891	0.000193	1.925449	0.326180	0.000019
 390	3.8706e+01	3.8695	-4.968153	0.000188	1.884482	0.319240	0.000019
 391	3.8805e+01	3.8760	-4.950230	0.000180	1.802548	0.305360	0.000018
 392	3.8904e+01	3.8845	-4.930678	0.000197	1.966416	0.333120	0.000020
 393	3.9004e+01	3.8936	-4.910311	0.000205	2.048350	0.347000	0.000020
 394	3.9103e+01	3.9059	-4.891573	0.000188	1.884482	0.319240	0.000019
 395	3.9203e+01	3.9175	-4.874057	0.000176	1.761581	0.298420	0.000018
 396	3.9303e+01	3.9228	-4.854098	0.000201	2.007383	0.340060	0.000020
 397	3.9402e+01	3.9346	-4.834952	0.000193	1.925449	0.326180	0.000019
 398	3.9502e+01	3.9442	-4.818659	0.000164	1.638680	0.277600	0.000016
 399	3.9601e+01	3.9561	-4.795440	0.000234	2.335119	0.395580	0.000023
 400	3.9700e+01	3.9628	-4.776702	0.000188	1.884482	0.319240	0.000019
 401	3.9800e+01	3.9770	-4.759187	0.000176	1.761581	0.298420	0.000018
 402	3.9900e+01	3.9857	-4.741264	0.000180	1.802548	0.305360	0.000018
 403	3.9999e+01	3.9939	-4.719674	0.000217	2.171251	0.367820	0.000022
 404	4.0099e+01	4.0029	-4.703788	0.000160	1.597713	0.270660	0.000016
 405	4.0198e+01	4.0148	-4.686680	0.000172	1.720614	0.291480	0.000017
 406	4.0297e+01	4.0260	-4.667535	0.000193	1.925449	0.326180	0.000019
 407	4.0397e+01	4.0372	-4.644316	0.000234	2.335119	0.395580	0.000023
 408	4.0496e+01	4.0467	-4.623542	0.000209	2.089317	0.353940	0.000021
 409	4.0596e+01	4.0549	-4.610507	0.000131	1.310944	0.222080	0.000013
 410	4.0696e+01	4.0652	-4.585659	0.000250	2.498987	0.423340	0.000025
 411	4.0795e+01	4.0765	-4.571402	0.000143	1.433845	0.242900	0.000014
 412	4.0895e+01	4.0846	-4.547369	0.000242	2.417053	0.409460	0.000024
 413	4.0994e+01	4.0952	-4.525779	0.000217	2.171251	0.367820	0.000022
 414	4.1093e+01	4.1074	-4.510300	0.000156	1.556746	0.263720	0.000016
 415	4.1193e+01	4.1145	-4.494414	0.000160	1.597713	0.270660	0.000016
 416	4.1292e+01	4.1253	-4.472825	0.000217	2.171251	0.367820	0.000022
 417	4.1392e+01	4.1351	-4.455716	0.000172	1.720614	0.291480	0.000017
 418	4.1492e+01	4.1444	-4.436571	0.000193	1.925449	0.326180	0.000019
 419	4.1591e+01	4.1578	-4.417426	0.000193	1.925449	0.326180	0.000019
 420	4.1691e+01	4.1653	-4.395430	0.000221	2.212218	0.374760	0.000022
 421	4.1790e+01	4.1784	-4.374248	0.000213	2.130284	0.360880	0.000021
 422	4.1889e+01	4.1869	-4.356325	0.000180	1.802548	0.305360	0.000018
 423	4.1989e+01	4.1979	-4.335143	0.000213	2.130284	0.360880	0.000021
 424	4.2089e+01	4.2023	-4.317627	0.000176	1.761581	0.298420	0.000018
 425	4.2188e+01	4.2147	-4.297668	0.000201	2.007383	0.340060	0.000020
 426	4.2288e+01	4.2230	-4.274449	0.000234	2.335119	0.395580	0.000023
 427	4.2387e+01	4.2348	-4.258970	0.000156	1.556746	0.263720	0.000016
 428	4.2486e+01	4.2474	-4.240640	0.000184	1.843515	0.312300	0.000018
 429	4.2586e+01	4.2550	-4.221495	0.000193	1.925449	0.326180	0.000019
 430	4.2685e+01	4.2629	-4.201535	0.000201	2.007383	0.340060	0.000020
 431	4.2785e+01	4.2750	-4.181168	0.000205	2.048350	0.347000	0.000020
 432	4.2885e+01	4.2837	-4.159578	0.000217	2.171251	0.367820	0.000022
 433	4.2984e+01	4.2942	-4.140026	0.000197	1.966416	0.333120	0.000020
 434	4.3084e+01	4.3047	-4.115178	0.000250	2.498987	0.423340	0.000025
 435	4.3183e+01	4.3191	-4.096033	0.000193	1.925449	0.326180	0.000019
 436	4.3282e+01	4.3228	-4.076888	0.000193	1.925449	0.326180	0.000019
 437	4.3382e+01	4.3337	-4.055299	0.000217	2.171251	0.367820	0.000022
 438	4.3481e+01	4.3447	-4.034524	0.000209	2.089317	0.353940	0.000021
 439	4.3581e+01	4.3535	-4.010898	0.000238	2.376086	0.402520	0.000024
 440	4.3681e+01	4.3639	-3.989309	0.000217	2.171251	0.367820	0.000022
 441	4.3780e+01	4.3768	-3.968127	0.000213	2.130284	0.360880	0.000021
 442	4.3880e+01	4.3816	-3.946538	0.000217	2.171251	0.367820	0.000022
 443	4.3979e+01	4.3934	-3.922912	0.000238	2.376086	0.402520	0.000024
 444	4.4078e+01	4.4020	-3.900916	0.000221	2.212218	0.374760	0.000022
 445	4.4178e+01	4.4141	-3.878919	0.000221	2.212218	0.374760	0.000022
 446	4.4278e+01	4.4212	-3.860182	0.000188	1.884482	0.319240	0.000019
 447	4.4377e+01	4.4326	-3.834112	0.000262	2.621888	0.444160	0.000026
 448	4.4477e+01	4.4463	-3.812930	0.000213	2.130284	0.360880	0.000021
 449	4.4576e+01	4.4518	-3.790119	0.000229	2.294152	0.388640	0.000023
 450	4.4675e+01	4.4639	-3.770566	0.000197	1.966416	0.333120	0.000020
 451	4.4775e+01	4.4735	-3.748570	0.000221	2.212218	0.374760	0.000022
 452	4.4874e+01	4.4818	-3.724537	0.000242	2.417053	0.409460	0.000024
 453	4.4974e+01	4.4923	-3.703355	0.000213	2.130284	0.360880	0.000021
 454	4.5074e+01	4.5008	-3.681766	0.000217	2.171251	0.367820	0.000022
 455	4.5173e+01	4.5131	-3.661399	0.000205	2.048350	0.347000	0.000020
 456	4.5273e+01	4.5232	-3.637365	0.000242	2.417053	0.409460	0.000024
 457	4.5372e+01	4.5303	-3.614554	0.000229	2.294152	0.388640	0.000023
 458	4.5471e+01	4.5428	-3.593780	0.000209	2.089317	0.353940	0.000021
 459	4.5571e+01	4.5547	-3.568524	0.000254	2.539954	0.430280	0.000025
 460	4.5670e+01	4.5639	-3.546935	0.000217	2.171251	0.367820	0.000022
 461	4.5770e+01	4.5734	-3.523717	0.000234	2.335119	0.395580	0.000023
 462	4.5870e+01	4.5831	-3.503757	0.000201	2.007383	0.340060	0.000020
 463	4.5969e+01	4.5937	-3.482575	0.000213	2.130284	0.360880	0.000021
 464	4.6069e+01	4.6037	-3.457727	0.000250	2.498987	0.423340	0.000025
 465	4.6168e+01	4.6122	-3.435323	0.000225	2.253185	0.381700	0.000023
 466	4.6267e+01	4.6219	-3.413734	0.000217	2.171251	0.367820	0.000022
 467	4.6367e+01	4.6323	-3.388886	0.000250	2.498987	0.423340	0.000025
 468	4.6467e+01	4.6413	-3.367705	0.000213	2.130284	0.360880	0.000021
 469	4.6566e+01	4.6538	-3.343671	0.000242	2.417053	0.409460	0.000024
 470	4.6666e+01	4.6635	-3.319231	0.000246	2.458020	0.416400	0.000025
 471	4.6765e+01	4.6693	-3.301308	0.000180	1.802548	0.305360	0.000018
 472	4.6864e+01	4.6850	-3.269535	0.000320	3.195426	0.541320	0.000032
 473	4.6964e+01	4.6912	-3.253241	0.000164	1.638680	0.277600	0.000016
 474	4.7063e+01	4.7005	-3.226357	0.000270	2.703822	0.458040	0.000027
 475	4.7163e+01	4.7096	-3.203953	0.000225	2.253185	0.381700	0.000023
 476	4.7263e+01	4.7239	-3.181142	0.000229	2.294152	0.388640	0.000023
 477	4.7362e+01	4.7326	-3.157923	0.000234	2.335119	0.395580	0.000023
 478	4.7462e+01	4.7430	-3.130631	0.000274	2.744789	0.464980	0.000027
 479	4.7561e+01	4.7520	-3.109042	0.000217	2.171251	0.367820	0.000022
 480	4.7660e+01	4.7604	-3.082157	0.000270	2.703822	0.458040	0.000027
 481	4.7760e+01	4.7725	-3.059346	0.000229	2.294152	0.388640	0.000023
 482	4.7859e+01	4.7832	-3.036535	0.000229	2.294152	0.388640	0.000023
 483	4.7959e+01	4.7941	-3.011687	0.000250	2.498987	0.423340	0.000025
 484	4.8059e+01	4.8028	-2.991727	0.000201	2.007383	0.340060	0.000020
 485	4.8158e+01	4.8096	-2.964028	0.000279	2.785756	0.471920	0.000028
 486	4.8258e+01	4.8203	-2.939588	0.000246	2.458020	0.416400	0.000025
 487	4.8357e+01	4.8325	-2.914740	0.000250	2.498987	0.423340	0.000025
 488	4.8456e+01	4.8421	-2.891521	0.000234	2.335119	0.395580	0.000023
 489	4.8556e+01	4.8510	-2.865044	0.000266	2.662855	0.451100	0.000027
 490	4.8656e+01	4.8609	-2.843455	0.000217	2.171251	0.367820	0.000022
 491	4.8755e+01	4.8700	-2.819829	0.000238	2.376086	0.402520	0.000024
 492	4.8855e+01	4.8821	-2.798240	0.000217	2.171251	0.367820	0.000022
 493	4.8954e+01	4.8916	-2.772170	0.000262	2.621888	0.444160	0.000026
 494	4.9053e+01	4.9007	-2.750173	0.000221	2.212218	0.374760	0.000022
 495	4.9153e+01	4.9122	-2.723289	0.000270	2.703822	0.458040	0.000027
 496	4.9252e+01	4.9206	-2.702107	0.000213	2.130284	0.360880	0.000021
 497	4.9352e+01	4.9291	-2.679296	0.000229	2.294152	0.388640	0.000023
 498	4.9452e+01	4.9393	-2.656484	0.000229	2.294152	0.388640	0.000023
 499	4.9551e+01	4.9487	-2.630007	0.000266	2.662855	0.451100	0.000027
 500	4.9651e+01	4.9612	-2.604752	0.000254	2.539954	0.430280	0.000025
 501	4.9750e+01	4.9706	-2.582348	0.000225	2.253185	0.381700	0.000023
 502	4.9849e+01	4.9795	-2.562796	0.000197	1.966416	0.333120	0.000020
 503	4.9949e+01	4.9918	-2.535096	0.000279	2.785756	0.471920	0.000028
 504	5.0048e+01	5.0002	-2.515544	0.000197	1.966416	0.333120	0.000020
 505	5.0148e+01	5.0109	-2.490289	0.000254	2.539954	0.430280	0.000025
 506	5.0248e+01	5.0234	-2.465441	0.000250	2.498987	0.423340	0.000025
 507	5.0347e+01	5.0301	-2.441000	0.000246	2.458020	0.416400	0.000025
 508	5.0447e+01	5.0404	-2.418596	0.000225	2.253185	0.381700	0.000023
 509	5.0546e+01	5.0505	-2.394971	0.000238	2.376086	0.402520	0.000024
 510	5.0645e+01	5.0594	-2.374196	0.000209	2.089317	0.353940	0.000021
 511	5.0745e+01	5.0710	-2.351385	0.000229	2.294152	0.388640	0.000023
 512	5.0844e+01	5.0790	-2.324093	0.000274	2.744789	0.464980	0.000027
 513	5.0944e+01	5.0903	-2.304540	0.000197	1.966416	0.333120	0.000020
 514	5.1044e+01	5.1008	-2.279693	0.000250	2.498987	0.423340	0.000025
 515	5.1143e+01	5.1081	-2.259733	0.000201	2.007383	0.340060	0.000020
 516	5.1242e+01	5.1200	-2.236107	0.000238	2.376086	0.402520	0.000024
 517	5.1342e+01	5.1301	-2.211666	0.000246	2.458020	0.416400	0.000025
 518	5.1441e+01	5.1394	-2.192929	0.000188	1.884482	0.319240	0.000019
 519	5.1541e+01	5.1502	-2.167673	0.000254	2.539954	0.430280	0.000025
 520	5.1641e+01	5.1589	-2.146492	0.000213	2.130284	0.360880	0.000021
 521	5.1740e+01	5.1692	-2.126124	0.000205	2.048350	0.347000	0.000020
 522	5.1840e+01	5.1795	-2.106572	0.000197	1.966416	0.333120	0.000020
 523	5.1939e+01	5.1884	-2.083353	0.000234	2.335119	0.395580	0.000023
 524	5.2038e+01	5.1980	-2.060135	0.000234	2.335119	0.395580	0.000023
 525	5.2138e+01	5.2090	-2.039360	0.000209	2.089317	0.353940	0.000021
 526	5.2237e+01	5.2207	-2.018993	0.000205	2.048350	0.347000	0.000020
 527	5.2337e+01	5.2287	-2.002292	0.000168	1.679647	0.284540	0.000017
 528	5.2437e+01	5.2386	-1.977852	0.000246	2.458020	0.416400	0.000025
 529	5.2536e+01	5.2485	-1.957485	0.000205	2.048350	0.347000	0.000020
 530	5.2636e+01	5.2578	-1.937525	0.000201	2.007383	0.340060	0.000020
 531	5.2735e+01	5.2700	-1.913899	0.000238	2.376086	0.402520	0.000024
 532	5.2834e+01	5.2796	-1.893125	0.000209	2.089317	0.353940	0.000021
 533	5.2934e+01	5.2874	-1.872350	0.000209	2.089317	0.353940	0.000021
 534	5.3033e+01	5.2991	-1.852390	0.000201	2.007383	0.340060	0.000020
 535	5.3133e+01	5.3098	-1.834467	0.000180	1.802548	0.305360	0.000018
 536	5.3233e+01	5.3194	-1.807175	0.000274	2.744789	0.464980	0.000027
 537	5.3332e+01	5.3271	-1.789659	0.000176	1.761581	0.298420	0.000018
 538	5.3431e+01	5.3388	-1.764812	0.000250	2.498987	0.423340	0.000025
 539	5.3531e+01	5.3500	-1.745259	0.000197	1.966416	0.333120	0.000020
 540	5.3630e+01	5.3564	-1.726929	0.000184	1.843515	0.312300	0.000018
 541	5.3730e+01	5.3663	-1.707784	0.000193	1.925449	0.326180	0.000019
 542	5.3830e+01	5.3786	-1.686602	0.000213	2.130284	0.360880	0.000021
 543	5.3929e+01	5.3876	-1.665420	0.000213	2.130284	0.360880	0.000021
 544	5.4029e+01	5.3985	-1.643424	0.000221	2.212218	0.374760	0.000022
 545	5.4128e+01	5.4082	-1.626722	0.000168	1.679647	0.284540	0.000017
 546	5.4227e+01	5.4168	-1.603504	0.000234	2.335119	0.395580	0.000023
 547	5.4327e+01	5.4283	-1.583952	0.000197	1.966416	0.333120	0.000020
 548	5.4426e+01	5.4368	-1.560326	0.000238	2.376086	0.402520	0.000024
 549	5.4526e+01	5.4499	-1.542403	0.000180	1.802548	0.305360	0.000018
 550	5.4626e+01	5.4556	-1.521628	0.000209	2.089317	0.353940	0.000021
 551	5.4725e+01	5.4690	-1.501261	0.000205	2.048350	0.347000	0.000020
 552	5.4825e+01	5.4778	-1.477228	0.000242	2.417053	0.409460	0.000024
 553	5.4924e+01	5.4859	-1.458083	0.000193	1.925449	0.326180	0.000019
 554	5.5023e+01	5.4978	-1.440974	0.000172	1.720614	0.291480	0.000017
 555	5.5123e+01	5.5047	-1.418978	0.000221	2.212218	0.374760	0.000022
 556	5.5222e+01	5.5166	-1.398611	0.000205	2.048350	0.347000	0.000020
 557	5.5322e+01	5.5283	-1.378651	0.000201	2.007383	0.340060	0.000020
 558	5.5422e+01	5.5361	-1.357876	0.000209	2.089317	0.353940	0.000021
 559	5.5521e+01	5.5483	-1.337509	0.000205	2.048350	0.347000	0.000020
 560	5.5620e+01	5.5574	-1.322030	0.000156	1.556746	0.263720	0.000016
 561	5.5720e+01	5.5686	-1.302478	0.000197	1.966416	0.333120	0.000020
 562	5.5819e+01	5.5790	-1.280074	0.000225	2.253185	0.381700	0.000023
 563	5.5919e+01	5.5875	-1.264188	0.000160	1.597713	0.270660	0.000016
 564	5.6019e+01	5.5961	-1.242598	0.000217	2.171251	0.367820	0.000022
 565	5.6118e+01	5.6040	-1.225897	0.000168	1.679647	0.284540	0.000017
 566	5.6218e+01	5.6188	-1.206752	0.000193	1.925449	0.326180	0.000019
 567	5.6317e+01	5.6261	-1.183534	0.000234	2.335119	0.395580	0.000023
 568	5.6416e+01	5.6374	-1.164389	0.000193	1.925449	0.326180	0.000019
 569	5.6516e+01	5.6466	-1.146058	0.000184	1.843515	0.312300	0.000018
 570	5.6615e+01	5.6556	-1.130172	0.000160	1.597713	0.270660	0.000016
 571	5.6715e+01	5.6678	-1.107361	0.000229	2.294152	0.388640	0.000023
 572	5.6815e+01	5.6778	-1.088216	0.000193	1.925449	0.326180	0.000019
 573	5.6914e+01	5.6860	-1.070293	0.000180	1.802548	0.305360	0.000018
 574	5.7014e+01	5.6969	-1.053592	0.000168	1.679647	0.284540	0.000017
 575	5.7113e+01	5.7081	-1.031595	0.000221	2.212218	0.374760	0.000022
 576	5.7212e+01	5.7171	-1.014894	0.000168	1.679647	0.284540	0.000017
 577	5.7312e+01	5.7278	-0.996971	0.000180	1.802548	0.305360	0.000018
 578	5.7411e+01	5.7357	-0.971308	0.000258	2.580921	0.437220	0.000026
 579	5.7511e+01	5.7461	-0.955015	0.000164	1.638680	0.277600	0.000016
 580	5.7611e+01	5.7551	-0.929352	0.000258	2.580921	0.437220	0.000026
 581	5.7710e+01	5.7672	-0.911429	0.000180	1.802548	0.305360	0.000018
 582	5.7809e+01	5.7774	-0.891062	0.000205	2.048350	0.347000	0.000020
 583	5.7909e+01	5.7839	-0.873953	0.000172	1.720614	0.291480	0.000017
 584	5.8008e+01	5.7959	-0.858067	0.000160	1.597713	0.270660	0.000016
 585	5.8108e+01	5.8083	-0.836071	0.000221	2.212218	0.374760	0.000022
 586	5.8208e+01	5.8167	-0.822221	0.000139	1.392878	0.235960	0.000014
 587	5.8307e+01	5.8253	-0.794929	0.000274	2.744789	0.464980	0.000027
 588	5.8407e+01	5.8360	-0.774155	0.000209	2.089317	0.353940	0.000021
 589	5.8506e+01	5.8460	-0.756231	0.000180	1.802548	0.305360	0.000018
 590	5.8605e+01	5.8558	-0.739530	0.000168	1.679647	0.284540	0.000017
 591	5.8705e+01	5.8675	-0.717534	0.000221	2.212218	0.374760	0.000022
 592	5.8804e+01	5.8779	-0.697981	0.000197	1.966416	0.333120	0.000020
 593	5.8904e+01	5.8846	-0.676392	0.000217	2.171251	0.367820	0.000022
 594	5.9004e+01	5.9017	-0.659284	0.000172	1.720614	0.291480	0.000017
 595	5.9103e+01	5.9080	-0.640139	0.000193	1.925449	0.326180	0.000019
 596	5.9203e+01	5.9161	-0.617328	0.000229	2.294152	0.388640	0.000023
 597	5.9302e+01	5.9238	-0.598183	0.000193	1.925449	0.326180	0.000019
 598	5.9401e+01	5.9364	-0.573335	0.000250	2.498987	0.423340	0.000025
 599	5.9501e+01	5.9460	-0.555004	0.000184	1.843515	0.312300	0.000018
 600	5.9600e+01	5.9545	-0.534230	0.000209	2.089317	0.353940	0.000021
 601	5.9700e+01	5.9670	-0.513863	0.000205	2.048350	0.347000	0.000020
 602	5.9800e+01	5.9762	-0.491459	0.000225	2.253185	0.381700	0.000023
 603	5.9899e+01	5.9856	-0.467426	0.000242	2.417053	0.409460	0.000024
 604	5.9998e+01	5.9969	-0.448688	0.000188	1.884482	0.319240	0.000019
 605	6.0098e+01	6.0076	-0.427099	0.000217	2.171251	0.367820	0.000022
 606	6.0197e+01	6.0152	-0.405102	0.000221	2.212218	0.374760	0.000022
 607	6.0297e+01	6.0239	-0.380254	0.000250	2.498987	0.423340	0.000025
 608	6.0397e+01	6.0348	-0.358665	0.000217	2.171251	0.367820	0.000022
 609	6.0496e+01	6.0441	-0.332188	0.000266	2.662855	0.451100	0.000027
 610	6.0596e+01	6.0561	-0.313450	0.000188	1.884482	0.319240	0.000019
 611	6.0695e+01	6.0671	-0.291046	0.000225	2.253185	0.381700	0.000023
 612	6.0794e+01	6.0751	-0.267828	0.000234	2.335119	0.395580	0.000023
 613	6.0894e+01	6.0867	-0.244202	0.000238	2.376086	0.402520	0.000024
 614	6.0993e+01	6.0954	-0.220983	0.000234	2.335119	0.395580	0.000023
 615	6.1093e+01	6.1062	-0.198579	0.000225	2.253185	0.381700	0.000023
 616	6.1193e+01	6.1150	-0.174954	0.000238	2.376086	0.402520	0.000024
 617	6.1292e+01	6.1277	-0.153772	0.000213	2.130284	0.360880	0.000021
 618	6.1392e+01	6.1347	-0.128924	0.000250	2.498987	0.423340	0.000025
 619	6.1491e+01	6.1443	-0.104483	0.000246	2.458020	0.416400	0.000025
 620	6.1590e+01	6.1561	-0.082080	0.000225	2.253185	0.381700	0.000023
 621	6.1690e+01	6.1648	-0.063342	0.000188	1.884482	0.319240	0.000019
 622	6.1789e+01	6.1758	-0.038087	0.000254	2.539954	0.430280	0.000025
 623	6.1889e+01	6.1829	-0.015275	0.000229	2.294152	0.388640	0.000023
 624	6.1989e+01	6.1956	0.012017	0.000274	2.744789	0.464980	0.000027
 625	6.2088e+01	6.2054	0.031976	0.000201	2.007383	0.340060	0.000020
 626	6.2188e+01	6.2161	0.055195	0.000234	2.335119	0.395580	0.000023
 627	6.2287e+01	6.2254	0.082894	0.000279	2.785756	0.471920	0.000028
 628	6.2386e+01	6.2331	0.103669	0.000209	2.089317	0.353940	0.000021
 629	6.2486e+01	6.2449	0.130553	0.000270	2.703822	0.458040	0.000027
 630	6.2586e+01	6.2542	0.153364	0.000229	2.294152	0.388640	0.000023
 631	6.2685e+01	6.2653	0.178620	0.000254	2.539954	0.430280	0.000025
 632	6.2785e+01	6.2744	0.202653	0.000242	2.417053	0.409460	0.000024
 633	6.2884e+01	6.2833	0.226279	0.000238	2.376086	0.402520	0.000024
 634	6.2983e+01	6.2934	0.249905	0.000238	2.376086	0.402520	0.000024
 635	6.3083e+01	6.3049	0.274753	0.000250	2.498987	0.423340	0.000025
 636	6.3182e+01	6.3143	0.294305	0.000197	1.966416	0.333120	0.000020
 637	6.3282e+01	6.3247	0.323634	0.000295	2.949624	0.499680	0.000029
 638	6.3382e+01	6.3337	0.349296	0.000258	2.580921	0.437220	0.000026
 639	6.3481e+01	6.3416	0.371293	0.000221	2.212218	0.374760	0.000022
 640	6.3581e+01	6.3537	0.395733	0.000246	2.458020	0.416400	0.000025
 641	6.3680e+01	6.3628	0.418952	0.000234	2.335119	0.395580	0.000023
 642	6.3779e+01	6.3726	0.447058	0.000283	2.826723	0.478860	0.000028
 643	6.3879e+01	6.3824	0.468240	0.000213	2.130284	0.360880	0.000021
 644	6.3978e+01	6.3917	0.497976	0.000299	2.990591	0.506620	0.000030
 645	6.4078e+01	6.4031	0.519973	0.000221	2.212218	0.374760	0.000022
 646	6.4177e+01	6.4109	0.546450	0.000266	2.662855	0.451100	0.000027
 647	6.4277e+01	6.4224	0.571705	0.000254	2.539954	0.430280	0.000025
 648	6.4376e+01	6.4297	0.596553	0.000250	2.498987	0.423340	0.000025
 649	6.4476e+01	6.4417	0.621808	0.000254	2.539954	0.430280	0.000025
 650	6.4576e+01	6.4525	0.652359	0.000307	3.072525	0.520500	0.000031
 651	6.4675e+01	6.4632	0.677207	0.000250	2.498987	0.423340	0.000025
 652	6.4775e+01	6.4698	0.699611	0.000225	2.253185	0.381700	0.000023
 653	6.4874e+01	6.4826	0.727310	0.000279	2.785756	0.471920	0.000028
 654	6.4974e+01	6.4934	0.750529	0.000234	2.335119	0.395580	0.000023
 655	6.5073e+01	6.5022	0.779043	0.000287	2.867690	0.485800	0.000029
 656	6.5172e+01	6.5121	0.806335	0.000274	2.744789	0.464980	0.000027
 657	6.5272e+01	6.5224	0.832405	0.000262	2.621888	0.444160	0.000026
 658	6.5371e+01	6.5337	0.857252	0.000250	2.498987	0.423340	0.000025
 659	6.5471e+01	6.5417	0.884137	0.000270	2.703822	0.458040	0.000027
 660	6.5570e+01	6.5521	0.906134	0.000221	2.212218	0.374760	0.000022
 661	6.5670e+01	6.5627	0.931796	0.000258	2.580921	0.437220	0.000026
 662	6.5769e+01	6.5724	0.957459	0.000258	2.580921	0.437220	0.000026
 663	6.5869e+01	6.5823	0.986380	0.000291	2.908657	0.492740	0.000029
 664	6.5969e+01	6.5943	1.007969	0.000217	2.171251	0.367820	0.000022
 665	6.6068e+01	6.6033	1.034446	0.000266	2.662855	0.451100	0.000027
 666	6.6168e+01	6.6122	1.062553	0.000283	2.826723	0.478860	0.000028
 667	6.6267e+01	6.6216	1.089030	0.000266	2.662855	0.451100	0.000027
 668	6.6367e+01	6.6315	1.112656	0.000238	2.376086	0.402520	0.000024
 669	6.6466e+01	6.6412	1.142800	0.000303	3.031558	0.513560	0.000030
 670	6.6566e+01	6.6514	1.163574	0.000209	2.089317	0.353940	0.000021
 671	6.6665e+01	6.6613	1.189644	0.000262	2.621888	0.444160	0.000026
 672	6.6764e+01	6.6718	1.220602	0.000311	3.113492	0.527440	0.000031
 673	6.6864e+01	6.6817	1.242191	0.000217	2.171251	0.367820	0.000022
 674	6.6963e+01	6.6921	1.267854	0.000258	2.580921	0.437220	0.000026
 675	6.7063e+01	6.7068	1.293109	0.000254	2.539954	0.430280	0.000025
 676	6.7162e+01	6.7142	1.320808	0.000279	2.785756	0.471920	0.000028
 677	6.7262e+01	6.7214	1.348915	0.000283	2.826723	0.478860	0.000028
 678	6.7362e+01	6.7321	1.372541	0.000238	2.376086	0.402520	0.000024
 679	6.7461e+01	6.7440	1.401869	0.000295	2.949624	0.499680	0.000029
 680	6.7561e+01	6.7504	1.425495	0.000238	2.376086	0.402520	0.000024
 681	6.7660e+01	6.7617	1.451973	0.000266	2.662855	0.451100	0.000027
 682	6.7760e+01	6.7731	1.477635	0.000258	2.580921	0.437220	0.000026
 683	6.7859e+01	6.7797	1.500446	0.000229	2.294152	0.388640	0.000023
 684	6.7959e+01	6.7912	1.532219	0.000320	3.195426	0.541320	0.000032
 685	6.8058e+01	6.7997	1.551364	0.000193	1.925449	0.326180	0.000019
 686	6.8157e+01	6.8119	1.575805	0.000246	2.458020	0.416400	0.000025
 687	6.8257e+01	6.8229	1.605541	0.000299	2.990591	0.506620	0.000030
 688	6.8356e+01	6.8276	1.625908	0.000205	2.048350	0.347000	0.000020
 689	6.8456e+01	6.8432	1.653607	0.000279	2.785756	0.471920	0.000028
 690	6.8555e+01	6.8488	1.675196	0.000217	2.171251	0.367820	0.000022
 691	6.8655e+01	6.8612	1.699229	0.000242	2.417053	0.409460	0.000024
 692	6.8754e+01	6.8713	1.724892	0.000258	2.580921	0.437220	0.000026
 693	6.8854e+01	6.8800	1.750555	0.000258	2.580921	0.437220	0.000026
 694	6.8954e+01	6.8904	1.777032	0.000266	2.662855	0.451100	0.000027
 695	6.9053e+01	6.9021	1.798214	0.000213	2.130284	0.360880	0.000021
 696	6.9153e+01	6.9114	1.821432	0.000234	2.335119	0.395580	0.000023
 697	6.9252e+01	6.9207	1.848317	0.000270	2.703822	0.458040	0.000027
 698	6.9352e+01	6.9308	1.870313	0.000221	2.212218	0.374760	0.000022
 699	6.9451e+01	6.9410	1.893939	0.000238	2.376086	0.402520	0.000024
 700	6.9550e+01	6.9491	1.915936	0.000221	2.212218	0.374760	0.000022
 701	6.9650e+01	6.9596	1.943635	0.000279	2.785756	0.471920	0.000028
 702	6.9749e+01	6.9688	1.969705	0.000262	2.621888	0.444160	0.000026
 703	6.9849e+01	6.9793	1.993738	0.000242	2.417053	0.409460	0.000024
 704	6.9948e+01	6.9933	2.017364	0.000238	2.376086	0.402520	0.000024
 705	7.0048e+01	6.9978	2.038953	0.000217	2.171251	0.367820	0.000022
 706	7.0147e+01	7.0081	2.065430	0.000266	2.662855	0.451100	0.000027
 707	7.0247e+01	7.0208	2.093130	0.000279	2.785756	0.471920	0.000028
 708	7.0347e+01	7.0303	2.113904	0.000209	2.089317	0.353940	0.000021
 709	7.0446e+01	7.0377	2.140381	0.000266	2.662855	0.451100	0.000027
 710	7.0546e+01	7.0475	2.164007	0.000238	2.376086	0.402520	0.000024
 711	7.0645e+01	7.0606	2.190485	0.000266	2.662855	0.451100	0.000027
 712	7.0745e+01	7.0692	2.211666	0.000213	2.130284	0.360880	0.000021
 713	7.0844e+01	7.0825	2.234885	0.000234	2.335119	0.395580	0.000023
 714	7.0944e+01	7.0892	2.258511	0.000238	2.376086	0.402520	0.000024
 715	7.1043e+01	7.0992	2.284173	0.000258	2.580921	0.437220	0.000026
 716	7.1142e+01	7.1101	2.308614	0.000246	2.458020	0.416400	0.000025
 717	7.1242e+01	7.1198	2.334276	0.000258	2.580921	0.437220	0.000026
 718	7.1341e+01	7.1321	2.357902	0.000238	2.376086	0.402520	0.000024
 719	7.1441e+01	7.1378	2.381121	0.000234	2.335119	0.395580	0.000023
 720	7.1540e+01	7.1478	2.408413	0.000274	2.744789	0.464980	0.000027
 721	7.1640e+01	7.1571	2.430002	0.000217	2.171251	0.367820	0.000022
 722	7.1740e+01	7.1684	2.458109	0.000283	2.826723	0.478860	0.000028
 723	7.1839e+01	7.1810	2.477254	0.000193	1.925449	0.326180	0.000019
 724	7.1939e+01	7.1880	2.504953	0.000279	2.785756	0.471920	0.000028
 725	7.2038e+01	7.1981	2.527764	0.000229	2.294152	0.388640	0.000023
 726	7.2138e+01	7.2089	2.553019	0.000254	2.539954	0.430280	0.000025
 727	7.2237e+01	7.2198	2.574609	0.000217	2.171251	0.367820	0.000022
 728	7.2337e+01	7.2289	2.601493	0.000270	2.703822	0.458040	0.000027
 729	7.2436e+01	7.2370	2.623490	0.000221	2.212218	0.374760	0.000022
 730	7.2535e+01	7.2478	2.647523	0.000242	2.417053	0.409460	0.000024
 731	7.2635e+01	7.2588	2.673185	0.000258	2.580921	0.437220	0.000026
 732	7.2734e+01	7.2683	2.693553	0.000205	2.048350	0.347000	0.000020
 733	7.2834e+01	7.2778	2.715956	0.000225	2.253185	0.381700	0.000023
 734	7.2933e+01	7.2895	2.738768	0.000229	2.294152	0.388640	0.000023
 735	7.3033e+01	7.2985	2.760357	0.000217	2.171251	0.367820	0.000022
 736	7.3132e+01	7.3061	2.785205	0.000250	2.498987	0.423340	0.000025
 737	7.3232e+01	7.3209	2.808423	0.000234	2.335119	0.395580	0.000023
 738	7.3332e+01	7.3292	2.829605	0.000213	2.130284	0.360880	0.000021
 739	7.3431e+01	7.3389	2.854453	0.000250	2.498987	0.423340	0.000025
 740	7.3531e+01	7.3479	2.879301	0.000250	2.498987	0.423340	0.000025
 741	7.3630e+01	7.3576	2.903741	0.000246	2.458020	0.416400	0.000025
 742	7.3730e+01	7.3707	2.924516	0.000209	2.089317	0.353940	0.000021
 743	7.3829e+01	7.3779	2.949364	0.000250	2.498987	0.423340	0.000025
 744	7.3928e+01	7.3898	2.973397	0.000242	2.417053	0.409460	0.000024
 745	7.4028e+01	7.3978	2.995801	0.000225	2.253185	0.381700	0.000023
 746	7.4127e+01	7.4068	3.018205	0.000225	2.253185	0.381700	0.000023
 747	7.4227e+01	7.4180	3.043460	0.000254	2.539954	0.430280	0.000025
 748	7.4326e+01	7.4276	3.070344	0.000270	2.703822	0.458040	0.000027
 749	7.4426e+01	7.4388	3.094785	0.000246	2.458020	0.416400	0.000025
 750	7.4525e+01	7.4493	3.121262	0.000266	2.662855	0.451100	0.000027
 751	7.4625e+01	7.4596	3.144481	0.000234	2.335119	0.395580	0.000023
 752	7.4725e+01	7.4660	3.165255	0.000209	2.089317	0.353940	0.000021
 753	7.4824e+01	7.4784	3.189696	0.000246	2.458020	0.416400	0.000025
 754	7.4924e+01	7.4889	3.217802	0.000283	2.826723	0.478860	0.000028
 755	7.5023e+01	7.4980	3.238984	0.000213	2.130284	0.360880	0.000021
 756	7.5123e+01	7.5077	3.265054	0.000262	2.621888	0.444160	0.000026
 757	7.5222e+01	7.5185	3.290309	0.000254	2.539954	0.430280	0.000025
 758	7.5322e+01	7.5258	3.314750	0.000246	2.458020	0.416400	0.000025
 759	7.5421e+01	7.5372	3.337969	0.000234	2.335119	0.395580	0.000023
 760	7.5520e+01	7.5488	3.364446	0.000266	2.662855	0.451100	0.000027
 761	7.5620e+01	7.5578	3.389294	0.000250	2.498987	0.423340	0.000025
 762	7.5719e+01	7.5646	3.416586	0.000274	2.744789	0.464980	0.000027
 763	7.5819e+01	7.5760	3.441434	0.000250	2.498987	0.423340	0.000025
 764	7.5918e+01	7.5856	3.467096	0.000258	2.580921	0.437220	0.000026
 765	7.6018e+01	7.5964	3.490315	0.000234	2.335119	0.395580	0.000023
 766	7.6118e+01	7.6067	3.516792	0.000266	2.662855	0.451100	0.000027
 767	7.6217e+01	7.6178	3.541232	0.000246	2.458020	0.416400	0.000025
 768	7.6317e+01	7.6291	3.574635	0.000336	3.359293	0.569080	0.000034
 769	7.6416e+01	7.6368	3.599890	0.000254	2.539954	0.430280	0.000025
 770	7.6516e+01	7.6452	3.627589	0.000279	2.785756	0.471920	0.000028
 771	7.6615e+01	7.6568	3.654881	0.000274	2.744789	0.464980	0.000027
 772	7.6715e+01	7.6652	3.685839	0.000311	3.113492	0.527440	0.000031
 773	7.6814e+01	7.6754	3.710687	0.000250	2.498987	0.423340	0.000025
 774	7.6913e+01	7.6856	3.739608	0.000291	2.908657	0.492740	0.000029
 775	7.7013e+01	7.6974	3.763642	0.000242	2.417053	0.409460	0.000024
 776	7.7112e+01	7.7064	3.794192	0.000307	3.072525	0.520500	0.000031
 777	7.7212e+01	7.7152	3.826372	0.000324	3.236393	0.548260	0.000032
 778	7.7311e+01	7.7271	3.850405	0.000242	2.417053	0.409460	0.000024
 779	7.7411e+01	7.7354	3.883808	0.000336	3.359293	0.569080	0.000034
 780	7.7510e+01	7.7444	3.911100	0.000274	2.744789	0.464980	0.000027
 781	7.7610e+01	7.7570	3.939206	0.000283	2.826723	0.478860	0.000028
 782	7.7710e+01	7.7666	3.974238	0.000352	3.523161	0.596840	0.000035
 783	7.7809e+01	7.7776	3.999900	0.000258	2.580921	0.437220	0.000026
 784	7.7909e+01	7.7866	4.030044	0.000303	3.031558	0.513560	0.000030
 785	7.8008e+01	7.7943	4.057743	0.000279	2.785756	0.471920	0.000028
 786	7.8108e+01	7.8051	4.089923	0.000324	3.236393	0.548260	0.000032
 787	7.8207e+01	7.8157	4.120881	0.000311	3.113492	0.527440	0.000031
 788	7.8306e+01	7.8266	4.151839	0.000311	3.113492	0.527440	0.000031
 789	7.8406e+01	7.8333	4.183204	0.000315	3.154459	0.534380	0.000032
 790	7.8505e+01	7.8448	4.210904	0.000279	2.785756	0.471920	0.000028
 791	7.8605e+01	7.8559	4.243898	0.000332	3.318327	0.562140	0.000033
 792	7.8704e+01	7.8638	4.272005	0.000283	2.826723	0.478860	0.000028
 793	7.8804e+01	7.8748	4.300519	0.000287	2.867690	0.485800	0.000029
 794	7.8903e+01	7.8858	4.333921	0.000336	3.359293	0.569080	0.000034
 795	7.9003e+01	7.8965	4.365286	0.000315	3.154459	0.534380	0.000032
 796	7.9103e+01	7.9079	4.391764	0.000266	2.662855	0.451100	0.000027
 797	7.9202e+01	7.9135	4.425573	0.000340	3.400260	0.576020	0.000034
 798	7.9302e+01	7.9238	4.454902	0.000295	2.949624	0.499680	0.000029
 799	7.9401e+01	7.9347	4.490748	0.000361	3.605095	0.610720	0.000036
 800	7.9501e+01	7.9444	4.520077	0.000295	2.949624	0.499680	0.000029
 801	7.9600e+01	7.9561	4.553071	0.000332	3.318327	0.562140	0.000033
 802	7.9700e+01	7.9659	4.581585	0.000287	2.867690	0.485800	0.000029
 803	7.9799e+01	7.9756	4.616617	0.000352	3.523161	0.596840	0.000035
 804	7.9898e+01	7.9840	4.647167	0.000307	3.072525	0.520500	0.000031
 805	7.9998e+01	7.9972	4.678940	0.000320	3.195426	0.541320	0.000032
 806	8.0097e+01	8.0044	4.713564	0.000348	3.482194	0.589900	0.000035
 807	8.0197e+01	8.0176	4.748188	0.000348	3.482194	0.589900	0.000035
 808	8.0296e+01	8.0243	4.779146	0.000311	3.113492	0.527440	0.000031
 809	8.0396e+01	8.0328	4.810105	0.000311	3.113492	0.527440	0.000031
 810	8.0496e+01	8.0457	4.846358	0.000365	3.646062	0.617660	0.000036
 811	8.0595e+01	8.0558	4.880167	0.000340	3.400260	0.576020	0.000034
 812	8.0695e+01	8.0625	4.916828	0.000369	3.687029	0.624600	0.000037
 813	8.0794e+01	8.0732	4.950230	0.000336	3.359293	0.569080	0.000034
 814	8.0894e+01	8.0836	4.984854	0.000348	3.482194	0.589900	0.000035
 815	8.0993e+01	8.0957	5.023145	0.000385	3.850897	0.652360	0.000038
 816	8.1093e+01	8.1055	5.058176	0.000352	3.523161	0.596840	0.000035
 817	8.1192e+01	8.1131	5.093208	0.000352	3.523161	0.596840	0.000035
 818	8.1291e+01	8.1250	5.131498	0.000385	3.850897	0.652360	0.000038
 819	8.1391e+01	8.1351	5.164900	0.000336	3.359293	0.569080	0.000034
 820	8.1490e+01	8.1424	5.197080	0.000324	3.236393	0.548260	0.000032
 821	8.1590e+01	8.1554	5.236592	0.000397	3.973798	0.673180	0.000040
 822	8.1689e+01	8.1655	5.274475	0.000381	3.809930	0.645420	0.000038
 823	8.1789e+01	8.1746	5.308284	0.000340	3.400260	0.576020	0.000034
 824	8.1888e+01	8.1841	5.343316	0.000352	3.523161	0.596840	0.000035
 825	8.1988e+01	8.1937	5.379162	0.000361	3.605095	0.610720	0.000036
 826	8.2088e+01	8.2034	5.415416	0.000365	3.646062	0.617660	0.000036
 827	8.2187e+01	8.2133	5.451262	0.000361	3.605095	0.610720	0.000036
 828	8.2287e+01	8.2224	5.487108	0.000361	3.605095	0.610720	0.000036
 829	8.2386e+01	8.2352	5.524583	0.000377	3.768963	0.638480	0.000038
 830	8.2486e+01	8.2449	5.559615	0.000352	3.523161	0.596840	0.000035
 831	8.2585e+01	8.2556	5.601164	0.000418	4.178633	0.707880	0.000042
 832	8.2684e+01	8.2682	5.638232	0.000373	3.727996	0.631540	0.000037
 833	8.2784e+01	8.2753	5.672449	0.000344	3.441227	0.582960	0.000034
 834	8.2883e+01	8.2830	5.713590	0.000414	4.137666	0.700940	0.000041
 835	8.2983e+01	8.2935	5.751066	0.000377	3.768963	0.638480	0.000038
 836	8.3082e+01	8.3023	5.784468	0.000336	3.359293	0.569080	0.000034
 837	8.3182e+01	8.3132	5.820721	0.000365	3.646062	0.617660	0.000036
 838	8.3281e+01	8.3215	5.855753	0.000352	3.523161	0.596840	0.000035
 839	8.3381e+01	8.3309	5.895265	0.000397	3.973798	0.673180	0.000040
 840	8.3481e+01	8.3438	5.933963	0.000389	3.891864	0.659300	0.000039
 841	8.3580e+01	8.3525	5.970216	0.000365	3.646062	0.617660	0.000036
 842	8.3680e+01	8.3627	6.006062	0.000361	3.605095	0.610720	0.000036
 843	8.3779e+01	8.3728	6.045167	0.000393	3.932831	0.666240	0.000039
 844	8.3879e+01	8.3828	6.081013	0.000361	3.605095	0.610720	0.000036
 845	8.3978e+01	8.3961	6.117267	0.000365	3.646062	0.617660	0.000036
 846	8.4078e+01	8.4023	6.156372	0.000393	3.932831	0.666240	0.000039
 847	8.4177e+01	8.4123	6.195477	0.000393	3.932831	0.666240	0.000039
 848	8.4276e+01	8.4229	6.229693	0.000344	3.441227	0.582960	0.000034
 849	8.4376e+01	8.4330	6.270835	0.000414	4.137666	0.700940	0.000041
 850	8.4475e+01	8.4428	6.306681	0.000361	3.605095	0.610720	0.000036
 851	8.4575e+01	8.4534	6.345786	0.000393	3.932831	0.666240	0.000039
 852	8.4674e+01	8.4624	6.382854	0.000373	3.727996	0.631540	0.000037
 853	8.4774e+01	8.4717	6.416664	0.000340	3.400260	0.576020	0.000034
 854	8.4874e+01	8.4827	6.456990	0.000406	4.055732	0.687060	0.000041
 855	8.4973e+01	8.4925	6.492429	0.000356	3.564128	0.603780	0.000036
 856	8.5073e+01	8.5034	6.528275	0.000361	3.605095	0.610720	0.000036
 857	8.5172e+01	8.5114	6.566973	0.000389	3.891864	0.659300	0.000039
 858	8.5272e+01	8.5221	6.602819	0.000361	3.605095	0.610720	0.000036
 859	8.5371e+01	8.5332	6.642739	0.000401	4.014765	0.680120	0.000040
 860	8.5471e+01	8.5416	6.678177	0.000356	3.564128	0.603780	0.000036
 861	8.5570e+01	8.5498	6.720134	0.000422	4.219600	0.714820	0.000042
 862	8.5669e+01	8.5634	6.753943	0.000340	3.400260	0.576020	0.000034
 863	8.5769e+01	8.5712	6.795492	0.000418	4.178633	0.707880	0.000042
 864	8.5868e+01	8.5822	6.830524	0.000352	3.523161	0.596840	0.000035
 865	8.5968e+01	8.5926	6.870443	0.000401	4.014765	0.680120	0.000040
 866	8.6067e+01	8.6002	6.903031	0.000328	3.277360	0.555200	0.000033
 867	8.6167e+01	8.6133	6.945394	0.000426	4.260567	0.721760	0.000043
 868	8.6266e+01	8.6236	6.982870	0.000377	3.768963	0.638480	0.000038
 869	8.6366e+01	8.6317	7.025233	0.000426	4.260567	0.721760	0.000043
 870	8.6466e+01	8.6410	7.065153	0.000401	4.014765	0.680120	0.000040
 871	8.6565e+01	8.6526	7.101814	0.000369	3.687029	0.624600	0.000037
 872	8.6665e+01	8.6617	7.140104	0.000385	3.850897	0.652360	0.000038
 873	8.6764e+01	8.6697	7.183282	0.000434	4.342501	0.735640	0.000043
 874	8.6864e+01	8.6816	7.218314	0.000352	3.523161	0.596840	0.000035
 875	8.6963e+01	8.6941	7.259048	0.000410	4.096699	0.694000	0.000041
 876	8.7063e+01	8.7016	7.296116	0.000373	3.727996	0.631540	0.000037
 877	8.7162e+01	8.7126	7.334814	0.000389	3.891864	0.659300	0.000039
 878	8.7261e+01	8.7225	7.374733	0.000401	4.014765	0.680120	0.000040
 879	8.7361e+01	8.7315	7.416690	0.000422	4.219600	0.714820	0.000042
 880	8.7460e+01	8.7451	7.453758	0.000373	3.727996	0.631540	0.000037
 881	8.7560e+01	8.7521	7.491641	0.000381	3.809930	0.645420	0.000038
 882	8.7659e+01	8.7616	7.529523	0.000381	3.809930	0.645420	0.000038
 883	8.7759e+01	8.7704	7.571072	0.000418	4.178633	0.707880	0.000042
 884	8.7859e+01	8.7794	7.609770	0.000389	3.891864	0.659300	0.000039
 885	8.7958e+01	8.7868	7.650911	0.000414	4.137666	0.700940	0.000041
 886	8.8058e+01	8.8009	7.687572	0.000369	3.687029	0.624600	0.000037
 887	8.8157e+01	8.8111	7.725863	0.000385	3.850897	0.652360	0.000038
 888	8.8257e+01	8.8232	7.768633	0.000430	4.301534	0.728700	0.000043
 889	8.8356e+01	8.8302	7.806516	0.000381	3.809930	0.645420	0.000038
 890	8.8456e+01	8.8403	7.848880	0.000426	4.260567	0.721760	0.000043
 891	8.8555e+01	8.8498	7.886763	0.000381	3.809930	0.645420	0.000038
 892	8.8654e+01	8.8615	7.926682	0.000401	4.014765	0.680120	0.000040
 893	8.8754e+01	8.8693	7.965380	0.000389	3.891864	0.659300	0.000039
 894	8.8853e+01	8.8773	8.004077	0.000389	3.891864	0.659300	0.000039
 895	8.8953e+01	8.8930	8.046034	0.000422	4.219600	0.714820	0.000042
 896	8.9052e+01	8.8983	8.085546	0.000397	3.973798	0.673180	0.000040
 897	8.9152e+01	8.9087	8.124244	0.000389	3.891864	0.659300	0.000039
 898	8.9251e+01	8.9189	8.161719	0.000377	3.768963	0.638480	0.000038
 899	8.9351e+01	8.9294	8.201231	0.000397	3.973798	0.673180	0.000040
 900	8.9451e+01	8.9417	8.239521	0.000385	3.850897	0.652360	0.000038
 901	8.9550e+01	8.9482	8.280663	0.000414	4.137666	0.700940	0.000041
 902	8.9650e+01	8.9600	8.320175	0.000397	3.973798	0.673180	0.000040
 903	8.9749e+01	8.9680	8.357243	0.000373	3.727996	0.631540	0.000037
 904	8.9849e+01	8.9789	8.394719	0.000377	3.768963	0.638480	0.000038
 905	8.9948e+01	8.9893	8.437083	0.000426	4.260567	0.721760	0.000043
 906	9.0047e+01	9.0015	8.479039	0.000422	4.219600	0.714820	0.000042
 907	9.0147e+01	9.0079	8.516514	0.000377	3.768963	0.638480	0.000038
 908	9.0246e+01	9.0189	8.556434	0.000401	4.014765	0.680120	0.000040
 909	9.0346e+01	9.0308	8.599612	0.000434	4.342501	0.735640	0.000043
 910	9.0445e+01	9.0410	8.643605	0.000442	4.424435	0.749520	0.000044
 911	9.0545e+01	9.0485	8.683117	0.000397	3.973798	0.673180	0.000040
 912	9.0644e+01	9.0598	8.726296	0.000434	4.342501	0.735640	0.000043
 913	9.0744e+01	9.0683	8.767437	0.000414	4.137666	0.700940	0.000041
 914	9.0844e+01	9.0784	8.811838	0.000447	4.465402	0.756460	0.000045
 915	9.0943e+01	9.0871	8.851757	0.000401	4.014765	0.680120	0.000040
 916	9.1043e+01	9.1016	8.892492	0.000410	4.096699	0.694000	0.000041
 917	9.1142e+01	9.1071	8.936077	0.000438	4.383468	0.742580	0.000044
 918	9.1242e+01	9.1199	8.973960	0.000381	3.809930	0.645420	0.000038
 919	9.1341e+01	9.1276	9.015916	0.000422	4.219600	0.714820	0.000042
 920	9.1441e+01	9.1380	9.061539	0.000459	4.588303	0.777280	0.000046
 921	9.1540e+01	9.1476	9.099014	0.000377	3.768963	0.638480	0.000038
 922	9.1639e+01	9.1569	9.141378	0.000426	4.260567	0.721760	0.000043
 923	9.1739e+01	9.1688	9.180890	0.000397	3.973798	0.673180	0.000040
 924	9.1838e+01	9.1798	9.222846	0.000422	4.219600	0.714820	0.000042
 925	9.1938e+01	9.1895	9.267247	0.000447	4.465402	0.756460	0.000045
 926	9.2037e+01	9.1980	9.310018	0.000430	4.301534	0.728700	0.000043
 927	9.2137e+01	9.2091	9.351974	0.000422	4.219600	0.714820	0.000042
 928	9.2237e+01	9.2188	9.391486	0.000397	3.973798	0.673180	0.000040
 929	9.2336e+01	9.2274	9.435072	0.000438	4.383468	0.742580	0.000044
 930	9.2436e+01	9.2389	9.474177	0.000393	3.932831	0.666240	0.000039
 931	9.2535e+01	9.2475	9.515726	0.000418	4.178633	0.707880	0.000042
 932	9.2635e+01	9.2578	9.558904	0.000434	4.342501	0.735640	0.000043
 933	9.2734e+01	9.2668	9.598416	0.000397	3.973798	0.673180	0.000040
 934	9.2834e+01	9.2773	9.642817	0.000447	4.465402	0.756460	0.000045
 935	9.2933e+01	9.2879	9.689661	0.000471	4.711204	0.798100	0.000047
 936	9.3032e+01	9.2988	9.727544	0.000381	3.809930	0.645420	0.000038
 937	9.3132e+01	9.3094	9.778054	0.000508	5.079907	0.860560	0.000051
 938	9.3231e+01	9.3169	9.822455	0.000447	4.465402	0.756460	0.000045
 939	9.3331e+01	9.3286	9.868077	0.000459	4.588303	0.777280	0.000046
 940	9.3430e+01	9.3341	9.915736	0.000479	4.793138	0.811980	0.000048
 941	9.3530e+01	9.3479	9.957692	0.000422	4.219600	0.714820	0.000042
 942	9.3629e+01	9.3574	10.006573	0.000492	4.916039	0.832800	0.000049
 943	9.3729e+01	9.3652	10.048122	0.000418	4.178633	0.707880	0.000042
 944	9.3829e+01	9.3761	10.092930	0.000451	4.506369	0.763400	0.000045
 945	9.3928e+01	9.3850	10.139367	0.000467	4.670237	0.791160	0.000047
 946	9.4028e+01	9.3949	10.185397	0.000463	4.629270	0.784220	0.000046
 947	9.4127e+01	9.4070	10.231427	0.000463	4.629270	0.784220	0.000046
 948	9.4227e+01	9.4196	10.279493	0.000483	4.834105	0.818920	0.000048
 949	9.4326e+01	9.4256	10.325115	0.000459	4.588303	0.777280	0.000046
 950	9.4425e+01	9.4346	10.371552	0.000467	4.670237	0.791160	0.000047
 951	9.4525e+01	9.4459	10.419619	0.000483	4.834105	0.818920	0.000048
 952	9.4624e+01	9.4550	10.468093	0.000488	4.875072	0.825860	0.000049
 953	9.4724e+01	9.4630	10.519010	0.000512	5.120874	0.867500	0.000051
 954	9.4823e+01	9.4763	10.568706	0.000500	4.997973	0.846680	0.000050
 955	9.4923e+01	9.4861	10.611070	0.000426	4.260567	0.721760	0.000043
 956	9.5022e+01	9.4975	10.664024	0.000533	5.325709	0.902200	0.000053
 957	9.5122e+01	9.5045	10.710461	0.000467	4.670237	0.791160	0.000047
 958	9.5222e+01	9.5166	10.757713	0.000475	4.752171	0.805040	0.000047
 959	9.5321e+01	9.5271	10.806594	0.000492	4.916039	0.832800	0.000049
 960	9.5421e+01	9.5383	10.852217	0.000459	4.588303	0.777280	0.000046
 961	9.5520e+01	9.5453	10.903134	0.000512	5.120874	0.867500	0.000051
 962	9.5620e+01	9.5571	10.951608	0.000488	4.875072	0.825860	0.000049
 963	9.5719e+01	9.5679	10.998860	0.000475	4.752171	0.805040	0.000047
 964	9.5819e+01	9.5746	11.049778	0.000512	5.120874	0.867500	0.000051
 965	9.5918e+01	9.5844	11.095807	0.000463	4.629270	0.784220	0.000046
 966	9.6017e+01	9.5937	11.145096	0.000496	4.957006	0.839740	0.000050
 967	9.6117e+01	9.6045	11.193570	0.000488	4.875072	0.825860	0.000049
 968	9.6216e+01	9.6133	11.241636	0.000483	4.834105	0.818920	0.000048
 969	9.6316e+01	9.6253	11.290517	0.000492	4.916039	0.832800	0.000049
 970	9.6415e+01	9.6359	11.338176	0.000479	4.793138	0.811980	0.000048
 971	9.6515e+01	9.6448	11.389094	0.000512	5.120874	0.867500	0.000051
 972	9.6615e+01	9.6533	11.437975	0.000492	4.916039	0.832800	0.000049
 973	9.6714e+01	9.6645	11.488078	0.000504	5.038940	0.853620	0.000050
 974	9.6814e+01	9.6732	11.537367	0.000496	4.957006	0.839740	0.000050
 975	9.6913e+01	9.6859	11.588285	0.000512	5.120874	0.867500	0.000051
 976	9.7013e+01	9.6951	11.636351	0.000483	4.834105	0.818920	0.000048
 977	9.7112e+01	9.7070	11.687676	0.000516	5.161841	0.874440	0.000052
 978	9.7212e+01	9.7168	11.738594	0.000512	5.120874	0.867500	0.000051
 979	9.7311e+01	9.7253	11.789919	0.000516	5.161841	0.874440	0.000052
 980	9.7410e+01	9.7363	11.843688	0.000541	5.407643	0.916080	0.000054
 981	9.7510e+01	9.7446	11.895421	0.000520	5.202808	0.881380	0.000052
 982	9.7609e+01	9.7550	11.947561	0.000524	5.243775	0.888320	0.000052
 983	9.7709e+01	9.7649	12.000923	0.000537	5.366676	0.909140	0.000054
 984	9.7808e+01	9.7758	12.052248	0.000516	5.161841	0.874440	0.000052
 985	9.7908e+01	9.7878	12.103980	0.000520	5.202808	0.881380	0.000052
 986	9.8007e+01	9.7968	12.155713	0.000520	5.202808	0.881380	0.000052
 987	9.8107e+01	9.8061	12.209482	0.000541	5.407643	0.916080	0.000054
 988	9.8207e+01	9.8156	12.261622	0.000524	5.243775	0.888320	0.000052
 989	9.8306e+01	9.8267	12.319872	0.000586	5.858280	0.992420	0.000059
 990	9.8406e+01	9.8358	12.370790	0.000512	5.120874	0.867500	0.000051
 991	9.8505e+01	9.8447	12.423744	0.000533	5.325709	0.902200	0.000053
 992	9.8605e+01	9.8535	12.480365	0.000569	5.694412	0.964660	0.000057
 993	9.8704e+01	9.8645	12.532912	0.000528	5.284742	0.895260	0.000053
 994	9.8803e+01	9.8730	12.589533	0.000569	5.694412	0.964660	0.000057
 995	9.8903e+01	9.8858	12.643302	0.000541	5.407643	0.916080	0.000054
 996	9.9002e+01	9.8957	12.697071	0.000541	5.407643	0.916080	0.000054
 997	9.9102e+01	9.9049	12.753284	0.000565	5.653445	0.957720	0.000056
 998	9.9201e+01	9.9124	12.804202	0.000512	5.120874	0.867500	0.000051
 999	9.9301e+01	9.9255	12.865303	0.000615	6.145049	1.040999	0.000061
1000	9.9400e+01	9.9365	12.920702	0.000557	5.571511	0.943840	0.000056
1001	9.9500e+01	9.9435	12.976915	0.000565	5.653445	0.957720	0.000056
1002	9.9600e+01	9.9543	13.033943	0.000574	5.735379	0.971600	0.000057
1003	9.9699e+01	9.9648	13.092193	0.000586	5.858280	0.992420	0.000059
1004	9.9799e+01	9.9719	13.147185	0.000553	5.530544	0.936900	0.000055
1005	9.9898e+01	9.9842	13.203805	0.000569	5.694412	0.964660	0.000057
1006	9.9998e+01	9.9902	13.260018	0.000565	5.653445	0.957720	0.000056
1007	1.0010e+02	9.9837	13.286903	-0.000270	-2.703822	-0.458040	0.000027
1008	1.0020e+02	9.9744	13.312158	-0.000254	-2.539954	-0.430280	0.000025
1009	1.0030e+02	9.9609	13.337006	-0.000250	-2.498987	-0.423340	0.000025
1010	1.0040e+02	9.9537	13.362669	-0.000258	-2.580921	-0.437220	0.000026
1011	1.0050e+02	9.9448	13.384665	-0.000221	-2.212218	-0.374760	0.000022
1012	1.0059e+02	9.9337	13.404625	-0.000201	-2.007383	-0.340060	0.000020
1013	1.0069e+02	9.9247	13.424177	-0.000197	-1.966416	-0.333120	0.000020
1014	1.0079e+02	9.9146	13.443323	-0.000193	-1.925449	-0.326180	0.000019
1015	1.0089e+02	9.9061	13.462875	-0.000197	-1.966416	-0.333120	0.000020
1016	1.0099e+02	9.8951	13.482427	-0.000197	-1.966416	-0.333120	0.000020
1017	1.0109e+02	9.8853	13.499536	-0.000172	-1.720614	-0.291480	0.000017
1018	1.0119e+02	9.8756	13.515015	-0.000156	-1.556746	-0.263720	0.000016
1019	1.0129e+02	9.8666	13.529679	-0.000147	-1.474812	-0.249840	0.000015
1020	1.0139e+02	9.8544	13.548824	-0.000193	-1.925449	-0.326180	0.000019
1021	1.0149e+02	9.8462	13.559415	-0.000107	-1.065142	-0.180440	0.000011
1022	1.0159e+02	9.8349	13.574080	-0.000147	-1.474812	-0.249840	0.000015
1023	1.0169e+02	9.8273	13.586707	-0.000127	-1.269977	-0.215140	0.000013
1024	1.0179e+02	9.8138	13.598520	-0.000119	-1.188043	-0.201260	0.000012
1025	1.0189e+02	9.8047	13.607889	-0.000094	-0.942241	-0.159620	0.000009
1026	1.0199e+02	9.7906	13.619295	-0.000115	-1.147076	-0.194320	0.000011
1027	1.0209e+02	9.7852	13.630700	-0.000115	-1.147076	-0.194320	0.000011
1028	1.0219e+02	9.7743	13.637625	-0.000070	-0.696439	-0.117980	0.000007
1029	1.0229e+02	9.7645	13.646994	-0.000094	-0.942241	-0.159620	0.000009
1030	1.0239e+02	9.7583	13.662066	-0.000152	-1.515779	-0.256780	0.000015
1031	1.0248e+02	9.7466	13.669398	-0.000074	-0.737406	-0.124920	0.000007
1032	1.0258e+02	9.7357	13.673471	-0.000041	-0.409670	-0.069400	0.000004
1033	1.0268e+02	9.7266	13.684877	-0.000115	-1.147076	-0.194320	0.000011
1034	1.0278e+02	9.7157	13.686913	-0.000020	-0.204835	-0.034700	0.000002
1035	1.0288e+02	9.7034	13.693431	-0.000066	-0.655472	-0.111040	0.000007
1036	1.0298e+02	9.6976	13.701985	-0.000086	-0.860307	-0.145740	0.000009
1037	1.0308e+02	9.6838	13.709317	-0.000074	-0.737406	-0.124920	0.000007
1038	1.0318e+02	9.6761	13.713391	-0.000041	-0.409670	-0.069400	0.000004
1039	1.0328e+02	9.6650	13.719908	-0.000066	-0.655472	-0.111040	0.000007
1040	1.0338e+02	9.6545	13.728055	-0.000082	-0.819340	-0.138800	0.000008
1041	1.0348e+02	9.6460	13.732128	-0.000041	-0.409670	-0.069400	0.000004
1042	1.0358e+02	9.6341	13.737017	-0.000049	-0.491604	-0.083280	0.000005
1043	1.0368e+02	9.6274	13.741497	-0.000045	-0.450637	-0.076340	0.000005
1044	1.0378e+02	9.6171	13.747200	-0.000057	-0.573538	-0.097160	0.000006
1045	1.0388e+02	9.6082	13.747200	-0.000000	-0.000000	-0.000000	0.000000
1046	1.0398e+02	9.5978	13.754940	-0.000078	-0.778373	-0.131860	0.000008
1047	1.0408e+02	9.5859	13.756976	-0.000020	-0.204835	-0.034700	0.000002
1048	1.0418e+02	9.5776	13.759828	-0.000029	-0.286769	-0.048580	0.000003
1049	1.0428e+02	9.5645	13.764716	-0.000049	-0.491604	-0.083280	0.000005
1050	1.0438e+02	9.5559	13.764716	-0.000000	-0.000000	-0.000000	0.000000
1051	1.0447e+02	9.5459	13.768382	-0.000037	-0.368703	-0.062460	0.000004
1052	1.0457e+02	9.5377	13.768789	-0.000004	-0.040967	-0.006940	0.000000
1053	1.0467e+02	9.5249	13.766753	0.000020	0.204835	0.034700	-0.000002
1054	1.0477e+02	9.5182	13.772048	-0.000053	-0.532571	-0.090220	0.000005
1055	1.0487e+02	9.5074	13.773270	-0.000012	-0.122901	-0.020820	0.000001
1056	1.0497e+02	9.4946	13.775714	-0.000025	-0.245802	-0.041640	0.000002
1057	1.0507e+02	9.4843	13.776936	-0.000012	-0.122901	-0.020820	0.000001
1058	1.0517e+02	9.4751	13.776936	-0.000000	-0.000000	-0.000000	0.000000
1059	1.0527e+02	9.4664	13.776529	0.000004	0.040967	0.006940	-0.000000
1060	1.0537e+02	9.4553	13.778158	-0.000016	-0.163868	-0.027760	0.000002
1061	1.0547e+02	9.4464	13.776529	0.000016	0.163868	0.027760	-0.000002
1062	1.0557e+02	9.4351	13.781010	-0.000045	-0.450637	-0.076340	0.000005
1063	1.0567e+02	9.4276	13.775307	0.000057	0.573538	0.097160	-0.000006
1064	1.0577e+02	9.4159	13.770011	0.000053	0.532571	0.090220	-0.000005
1065	1.0587e+02	9.4064	13.772863	-0.000029	-0.286769	-0.048580	0.000003
1066	1.0597e+02	9.3983	13.770011	0.000029	0.286769	0.048580	-0.000003
1067	1.0607e+02	9.3872	13.763086	0.000070	0.696439	0.117980	-0.000007
1068	1.0617e+02	9.3788	13.761457	0.000016	0.163868	0.027760	-0.000002
1069	1.0627e+02	9.3671	13.758198	0.000033	0.327736	0.055520	-0.000003
1070	1.0637e+02	9.3577	13.759013	-0.000008	-0.081934	-0.013880	0.000001
1071	1.0647e+02	9.3457	13.758198	0.000008	0.081934	0.013880	-0.000001
1072	1.0656e+02	9.3366	13.753718	0.000045	0.450637	0.076340	-0.000005
1073	1.0666e+02	9.3246	13.750051	0.000037	0.368703	0.062460	-0.000004
1074	1.0676e+02	9.3189	13.746793	0.000033	0.327736	0.055520	-0.000003
1075	1.0686e+02	9.3100	13.734572	0.000123	1.229010	0.208200	-0.000012
1076	1.0696e+02	9.2987	13.736609	-0.000020	-0.204835	-0.034700	0.000002
1077	1.0706e+02	9.2871	13.730906	0.000057	0.573538	0.097160	-0.000006
1078	1.0716e+02	9.2786	13.728462	0.000025	0.245802	0.041640	-0.000002
1079	1.0726e+02	9.2715	13.721538	0.000070	0.696439	0.117980	-0.000007
1080	1.0736e+02	9.2578	13.718686	0.000029	0.286769	0.048580	-0.000003
1081	1.0746e+02	9.2481	13.712169	0.000066	0.655472	0.111040	-0.000007
1082	1.0756e+02	9.2394	13.707688	0.000045	0.450637	0.076340	-0.000005
1083	1.0766e+02	9.2298	13.699541	0.000082	0.819340	0.138800	-0.000008
1084	1.0776e+02	9.2201	13.695468	0.000041	0.409670	0.069400	-0.000004
1085	1.0786e+02	9.2075	13.689765	0.000057	0.573538	0.097160	-0.000006
1086	1.0796e+02	9.1980	13.680803	0.000090	0.901274	0.152680	-0.000009
1087	1.0806e+02	9.1874	13.674693	0.000061	0.614505	0.104100	-0.000006
1088	1.0816e+02	9.1760	13.669398	0.000053	0.532571	0.090220	-0.000005
1089	1.0826e+02	9.1693	13.663695	0.000057	0.573538	0.097160	-0.000006
1090	1.0836e+02	9.1578	13.655955	0.000078	0.778373	0.131860	-0.000008
1091	1.0845e+02	9.1490	13.649845	0.000061	0.614505	0.104100	-0.000006
1092	1.0855e+02	9.1412	13.647401	0.000025	0.245802	0.041640	-0.000002
1093	1.0865e+02	9.1272	13.640476	0.000070	0.696439	0.117980	-0.000007
1094	1.0875e+02	9.1196	13.637218	0.000033	0.327736	0.055520	-0.000003
1095	1.0885e+02	9.1138	13.626627	0.000107	1.065142	0.180440	-0.000011
1096	1.0895e+02	9.0985	13.618887	0.000078	0.778373	0.131860	-0.000008
1097	1.0905e+02	9.0869	13.612370	0.000066	0.655472	0.111040	-0.000007
1098	1.0915e+02	9.0797	13.607482	0.000049	0.491604	0.083280	-0.000005
1099	1.0925e+02	9.0701	13.599335	0.000082	0.819340	0.138800	-0.000008
1100	1.0935e+02	9.0593	13.593632	0.000057	0.573538	0.097160	-0.000006
1101	1.0945e+02	9.0488	13.589151	0.000045	0.450637	0.076340	-0.000005
1102	1.0955e+02	9.0394	13.581819	0.000074	0.737406	0.124920	-0.000007
1103	1.0965e+02	9.0283	13.573265	0.000086	0.860307	0.145740	-0.000009
1104	1.0975e+02	9.0195	13.570821	0.000025	0.245802	0.041640	-0.000002
1105	1.0985e+02	9.0075	13.564303	0.000066	0.655472	0.111040	-0.000007
1106	1.0995e+02	9.0005	13.558193	0.000061	0.614505	0.104100	-0.000006
1107	1.1005e+02	8.9902	13.552083	0.000061	0.614505	0.104100	-0.000006
1108	1.1015e+02	8.9771	13.544344	0.000078	0.778373	0.131860	-0.000008
1109	1.1025e+02	8.9661	13.540677	0.000037	0.368703	0.062460	-0.000004
1110	1.1035e+02	8.9606	13.534975	0.000057	0.573538	0.097160	-0.000006
1111	1.1044e+02	8.9502	13.526420	0.000086	0.860307	0.145740	-0.000009
1112	1.1054e+02	8.9388	13.523162	0.000033	0.327736	0.055520	-0.000003
1113	1.1064e+02	8.9275	13.514608	0.000086	0.860307	0.145740	-0.000009
1114	1.1074e+02	8.9206	13.508090	0.000066	0.655472	0.111040	-0.000007
1115	1.1084e+02	8.9091	13.501980	0.000061	0.614505	0.104100	-0.000006
1116	1.1094e+02	8.8985	13.497092	0.000049	0.491604	0.083280	-0.000005
1117	1.1104e+02	8.8905	13.488130	0.000090	0.901274	0.152680	-0.000009
1118	1.1114e+02	8.8792	13.480798	0.000074	0.737406	0.124920	-0.000007
1119	1.1124e+02	8.8696	13.476725	0.000041	0.409670	0.069400	-0.000004
1120	1.1134e+02	8.8595	13.471837	0.000049	0.491604	0.083280	-0.000005
1121	1.1144e+02	8.8502	13.460838	0.000111	1.106109	0.187380	-0.000011
1122	1.1154e+02	8.8390	13.458394	0.000025	0.245802	0.041640	-0.000002
1123	1.1164e+02	8.8311	13.449025	0.000094	0.942241	0.159620	-0.000009
1124	1.1174e+02	8.8199	13.443730	0.000053	0.532571	0.090220	-0.000005
1125	1.1184e+02	8.8137	13.435990	0.000078	0.778373	0.131860	-0.000008
1126	1.1194e+02	8.8008	13.428658	0.000074	0.737406	0.124920	-0.000007
1127	1.1204e+02	8.7912	13.424992	0.000037	0.368703	0.062460	-0.000004
1128	1.1214e+02	8.7824	13.414401	0.000107	1.065142	0.180440	-0.000011
1129	1.1224e+02	8.7687	13.403403	0.000111	1.106109	0.187380	-0.000011
1130	1.1234e+02	8.7598	13.397293	0.000061	0.614505	0.104100	-0.000006
1131	1.1244e+02	8.7500	13.387517	0.000098	0.983208	0.166560	-0.000010
1132	1.1253e+02	8.7437	13.378962	0.000086	0.860307	0.145740	-0.000009
1133	1.1263e+02	8.7321	13.370001	0.000090	0.901274	0.152680	-0.000009
1134	1.1273e+02	8.7212	13.357781	0.000123	1.229010	0.208200	-0.000012
1135	1.1283e+02	8.7103	13.351263	0.000066	0.655472	0.111040	-0.000007
1136	1.1293e+02	8.7021	13.339858	0.000115	1.147076	0.194320	-0.000011
1137	1.1303e+02	8.6886	13.330489	0.000094	0.942241	0.159620	-0.000009
1138	1.1313e+02	8.6807	13.324786	0.000057	0.573538	0.097160	-0.000006
1139	1.1323e+02	8.6698	13.314602	0.000102	1.024175	0.173500	-0.000010
1140	1.1333e+02	8.6605	13.304419	0.000102	1.024175	0.173500	-0.000010
1141	1.1343e+02	8.6515	13.296272	0.000082	0.819340	0.138800	-0.000008
1142	1.1353e+02	8.6422	13.287718	0.000086	0.860307	0.145740	-0.000009
1143	1.1363e+02	8.6328	13.276719	0.000111	1.106109	0.187380	-0.000011
1144	1.1373e+02	8.6224	13.266536	0.000102	1.024175	0.173500	-0.000010
1145	1.1383e+02	8.6116	13.259611	0.000070	0.696439	0.117980	-0.000007
1146	1.1393e+02	8.6041	13.252686	0.000070	0.696439	0.117980	-0.000007
1147	1.1403e+02	8.5926	13.245354	0.000074	0.737406	0.124920	-0.000007
1148	1.1413e+02	8.5828	13.237207	0.000082	0.819340	0.138800	-0.000008
1149	1.1423e+02	8.5730	13.228653	0.000086	0.860307	0.145740	-0.000009
1150	1.1433e+02	8.5635	13.221321	0.000074	0.737406	0.124920	-0.000007
1151	1.1442e+02	8.5523	13.214396	0.000070	0.696439	0.117980	-0.000007
1152	1.1452e+02	8.5419	13.209101	0.000053	0.532571	0.090220	-0.000005
1153	1.1462e+02	8.5332	13.195658	0.000135	1.351911	0.229020	-0.000014
1154	1.1472e+02	8.5223	13.188733	0.000070	0.696439	0.117980	-0.000007
1155	1.1482e+02	8.5157	13.181401	0.000074	0.737406	0.124920	-0.000007
1156	1.1492e+02	8.5038	13.170403	0.000111	1.106109	0.187380	-0.000011
1157	1.1502e+02	8.4918	13.164293	0.000061	0.614505	0.104100	-0.000006
1158	1.1512e+02	8.4827	13.153702	0.000107	1.065142	0.180440	-0.000011
1159	1.1522e+02	8.4719	13.146777	0.000070	0.696439	0.117980	-0.000007
1160	1.1532e+02	8.4621	13.135372	0.000115	1.147076	0.194320	-0.000011
1161	1.1542e+02	8.4510	13.123966	0.000115	1.147076	0.194320	-0.000011
1162	1.1552e+02	8.4433	13.115412	0.000086	0.860307	0.145740	-0.000009
1163	1.1562e+02	8.4319	13.106858	0.000086	0.860307	0.145740	-0.000009
1164	1.1572e+02	8.4238	13.095452	0.000115	1.147076	0.194320	-0.000011
1165	1.1582e+02	8.4119	13.087305	0.000082	0.819340	0.138800	-0.000008
1166	1.1592e+02	8.4027	13.075492	0.000119	1.188043	0.201260	-0.000012
1167	1.1602e+02	8.3964	13.064901	0.000107	1.065142	0.180440	-0.000011
1168	1.1612e+02	8.3858	13.051866	0.000131	1.310944	0.222080	-0.000013
1169	1.1622e+02	8.3716	13.044127	0.000078	0.778373	0.131860	-0.000008
1170	1.1632e+02	8.3637	13.037609	0.000066	0.655472	0.111040	-0.000007
1171	1.1642e+02	8.3550	13.026204	0.000115	1.147076	0.194320	-0.000011
1172	1.1651e+02	8.3434	13.013576	0.000127	1.269977	0.215140	-0.000013
1173	1.1661e+02	8.3319	13.004615	0.000090	0.901274	0.152680	-0.000009
1174	1.1671e+02	8.3232	12.989950	0.000147	1.474812	0.249840	-0.000015
1175	1.1681e+02	8.3158	12.981803	0.000082	0.819340	0.138800	-0.000008
1176	1.1691e+02	8.3023	12.968361	0.000135	1.351911	0.229020	-0.000014
1177	1.1701e+02	8.2916	12.959400	0.000090	0.901274	0.152680	-0.000009
1178	1.1711e+02	8.2841	12.948809	0.000107	1.065142	0.180440	-0.000011
1179	1.1721e+02	8.2728	12.937403	0.000115	1.147076	0.194320	-0.000011
1180	1.1731e+02	8.2642	12.930886	0.000066	0.655472	0.111040	-0.000007
1181	1.1741e+02	8.2527	12.914185	0.000168	1.679647	0.284540	-0.000017
1182	1.1751e+02	8.2442	12.906038	0.000082	0.819340	0.138800	-0.000008
1183	1.1761e+02	8.2314	12.895039	0.000111	1.106109	0.187380	-0.000011
1184	1.1771e+02	8.2227	12.881190	0.000139	1.392878	0.235960	-0.000014
1185	1.1781e+02	8.2125	12.870192	0.000111	1.106109	0.187380	-0.000011
1186	1.1791e+02	8.2017	12.857971	0.000123	1.229010	0.208200	-0.000012
1187	1.1801e+02	8.1934	12.844936	0.000131	1.310944	0.222080	-0.000013
1188	1.1811e+02	8.1847	12.828235	0.000168	1.679647	0.284540	-0.000017
1189	1.1821e+02	8.1742	12.814793	0.000135	1.351911	0.229020	-0.000014
1190	1.1831e+02	8.1628	12.802573	0.000123	1.229010	0.208200	-0.000012
1191	1.1841e+02	8.1538	12.787908	0.000147	1.474812	0.249840	-0.000015
1192	1.1850e+02	8.1445	12.774873	0.000131	1.310944	0.222080	-0.000013
1193	1.1860e+02	8.1359	12.758172	0.000168	1.679647	0.284540	-0.000017
1194	1.1870e+02	8.1226	12.752062	0.000061	0.614505	0.104100	-0.000006
1195	1.1880e+02	8.1138	12.735769	0.000164	1.638680	0.277600	-0.000016
1196	1.1890e+02	8.1032	12.721104	0.000147	1.474812	0.249840	-0.000015
1197	1.1900e+02	8.0938	12.707255	0.000139	1.392878	0.235960	-0.000014
1198	1.1910e+02	8.0845	12.691776	0.000156	1.556746	0.263720	-0.000016
1199	1.1920e+02	8.0759	12.677519	0.000143	1.433845	0.242900	-0.000014
1200	1.1930e+02	8.0664	12.661225	0.000164	1.638680	0.277600	-0.000016
1201	1.1940e+02	8.0539	12.647375	0.000139	1.392878	0.235960	-0.000014
1202	1.1950e+02	8.0447	12.633526	0.000139	1.392878	0.235960	-0.000014
1203	1.1960e+02	8.0349	12.621305	0.000123	1.229010	0.208200	-0.000012
1204	1.1970e+02	8.0251	12.605419	0.000160	1.597713	0.270660	-0.000016
1205	1.1980e+02	8.0151	12.589125	0.000164	1.638680	0.277600	-0.000016
1206	1.1990e+02	8.0041	12.575683	0.000135	1.351911	0.229020	-0.000014
1207	1.2000e+02	7.9952	12.566721	0.000090	0.901274	0.152680	-0.000009
1208	1.2010e+02	7.9849	12.550835	0.000160	1.597713	0.270660	-0.000016
1209	1.2020e+02	7.9749	12.539429	0.000115	1.147076	0.194320	-0.000011
1210	1.2030e+02	7.9671	12.522321	0.000172	1.720614	0.291480	-0.000017
1211	1.2039e+02	7.9555	12.507657	0.000147	1.474812	0.249840	-0.000015
1212	1.2049e+02	7.9450	12.493807	0.000139	1.392878	0.235960	-0.000014
1213	1.2059e+02	7.9371	12.475069	0.000188	1.884482	0.319240	-0.000019
1214	1.2069e+02	7.9239	12.464071	0.000111	1.106109	0.187380	-0.000011
1215	1.2079e+02	7.9140	12.445333	0.000188	1.884482	0.319240	-0.000019
1216	1.2089e+02	7.9042	12.432298	0.000131	1.310944	0.222080	-0.000013
1217	1.2099e+02	7.8946	12.416005	0.000164	1.638680	0.277600	-0.000016
1218	1.2109e+02	7.8848	12.399304	0.000168	1.679647	0.284540	-0.000017
1219	1.2119e+02	7.8770	12.385861	0.000135	1.351911	0.229020	-0.000014
1220	1.2129e+02	7.8659	12.370790	0.000152	1.515779	0.256780	-0.000015
1221	1.2139e+02	7.8558	12.356125	0.000147	1.474812	0.249840	-0.000015
1222	1.2149e+02	7.8481	12.338610	0.000176	1.761581	0.298420	-0.000018
1223	1.2159e+02	7.8358	12.328833	0.000098	0.983208	0.166560	-0.000010
1224	1.2169e+02	7.8255	12.308466	0.000205	2.048350	0.347000	-0.000020
1225	1.2179e+02	7.8150	12.294209	0.000143	1.433845	0.242900	-0.000014
1226	1.2189e+02	7.8027	12.276286	0.000180	1.802548	0.305360	-0.000018
1227	1.2199e+02	7.7946	12.259992	0.000164	1.638680	0.277600	-0.000016
1228	1.2209e+02	7.7858	12.246143	0.000139	1.392878	0.235960	-0.000014
1229	1.2219e+02	7.7741	12.228627	0.000176	1.761581	0.298420	-0.000018
1230	1.2229e+02	7.7671	12.211111	0.000176	1.761581	0.298420	-0.000018
1231	1.2239e+02	7.7545	12.194410	0.000168	1.679647	0.284540	-0.000017
1232	1.2248e+02	7.7441	12.175265	0.000193	1.925449	0.326180	-0.000019
1233	1.2258e+02	7.7353	12.159379	0.000160	1.597713	0.270660	-0.000016
1234	1.2268e+02	7.7272	12.138197	0.000213	2.130284	0.360880	-0.000021
1235	1.2278e+02	7.7184	12.122718	0.000156	1.556746	0.263720	-0.000016
1236	1.2288e+02	7.7061	12.104388	0.000184	1.843515	0.312300	-0.000018
1237	1.2298e+02	7.6960	12.089723	0.000147	1.474812	0.249840	-0.000015
1238	1.2308e+02	7.6878	12.069763	0.000201	2.007383	0.340060	-0.000020
1239	1.2318e+02	7.6759	12.050211	0.000197	1.966416	0.333120	-0.000020
1240	1.2328e+02	7.6669	12.033510	0.000168	1.679647	0.284540	-0.000017
1241	1.2338e+02	7.6547	12.015180	0.000184	1.843515	0.312300	-0.000018
1242	1.2348e+02	7.6453	11.997664	0.000176	1.761581	0.298420	-0.000018
1243	1.2358e+02	7.6368	11.981370	0.000164	1.638680	0.277600	-0.000016
1244	1.2368e+02	7.6244	11.964262	0.000172	1.720614	0.291480	-0.000017
1245	1.2378e+02	7.6193	11.946339	0.000180	1.802548	0.305360	-0.000018
1246	1.2388e+02	7.6094	11.930452	0.000160	1.597713	0.270660	-0.000016
1247	1.2398e+02	7.5990	11.910900	0.000197	1.966416	0.333120	-0.000020
1248	1.2408e+02	7.5880	11.895828	0.000152	1.515779	0.256780	-0.000015
1249	1.2418e+02	7.5759	11.874646	0.000213	2.130284	0.360880	-0.000021
1250	1.2428e+02	7.5676	11.858760	0.000160	1.597713	0.270660	-0.000016
1251	1.2438e+02	7.5551	11.840430	0.000184	1.843515	0.312300	-0.000018
1252	1.2447e+02	7.5469	11.819248	0.000213	2.130284	0.360880	-0.000021
1253	1.2457e+02	7.5366	11.804583	0.000147	1.474812	0.249840	-0.000015
1254	1.2467e+02	7.5261	11.786660	0.000180	1.802548	0.305360	-0.000018
1255	1.2477e+02	7.5165	11.770367	0.000164	1.638680	0.277600	-0.000016
1256	1.2487e+02	7.5082	11.751222	0.000193	1.925449	0.326180	-0.000019
1257	1.2497e+02	7.4969	11.735743	0.000156	1.556746	0.263720	-0.000016
1258	1.2507e+02	7.4871	11.715375	0.000205	2.048350	0.347000	-0.000020
1259	1.2517e+02	7.4780	11.699082	0.000164	1.638680	0.277600	-0.000016
1260	1.2527e+02	7.4668	11.679937	0.000193	1.925449	0.326180	-0.000019
1261	1.2537e+02	7.4589	11.663643	0.000164	1.638680	0.277600	-0.000016
1262	1.2547e+02	7.4475	11.649793	0.000139	1.392878	0.235960	-0.000014
1263	1.2557e+02	7.4377	11.627797	0.000221	2.212218	0.374760	-0.000022
1264	1.2567e+02	7.4287	11.610688	0.000172	1.720614	0.291480	-0.000017
1265	1.2577e+02	7.4191	11.593580	0.000172	1.720614	0.291480	-0.000017
1266	1.2587e+02	7.4093	11.574435	0.000193	1.925449	0.326180	-0.000019
1267	1.2597e+02	7.3963	11.560585	0.000139	1.392878	0.235960	-0.000014
1268	1.2607e+02	7.3850	11.545921	0.000147	1.474812	0.249840	-0.000015
1269	1.2617e+02	7.3781	11.524332	0.000217	2.171251	0.367820	-0.000022
1270	1.2627e+02	7.3699	11.508445	0.000160	1.597713	0.270660	-0.000016
1271	1.2636e+02	7.3557	11.494596	0.000139	1.392878	0.235960	-0.000014
1272	1.2646e+02	7.3479	11.476673	0.000180	1.802548	0.305360	-0.000018
1273	1.2656e+02	7.3363	11.457935	0.000188	1.884482	0.319240	-0.000019
1274	1.2666e+02	7.3292	11.445307	0.000127	1.269977	0.215140	-0.000013
1275	1.2676e+02	7.3201	11.425348	0.000201	2.007383	0.340060	-0.000020
1276	1.2686e+02	7.3082	11.407832	0.000176	1.761581	0.298420	-0.000018
1277	1.2696e+02	7.2999	11.394797	0.000131	1.310944	0.222080	-0.000013
1278	1.2706e+02	7.2880	11.378911	0.000160	1.597713	0.270660	-0.000016
1279	1.2716e+02	7.2795	11.365876	0.000131	1.310944	0.222080	-0.000013
1280	1.2726e+02	7.2701	11.349582	0.000164	1.638680	0.277600	-0.000016
1281	1.2736e+02	7.2615	11.334103	0.000156	1.556746	0.263720	-0.000016
1282	1.2746e+02	7.2462	11.319438	0.000147	1.474812	0.249840	-0.000015
1283	1.2756e+02	7.2402	11.304774	0.000147	1.474812	0.249840	-0.000015
1284	1.2766e+02	7.2286	11.288073	0.000168	1.679647	0.284540	-0.000017
1285	1.2776e+02	7.2184	11.272594	0.000156	1.556746	0.263720	-0.000016
1286	1.2786e+02	7.2066	11.256708	0.000160	1.597713	0.270660	-0.000016
1287	1.2796e+02	7.1996	11.238785	0.000180	1.802548	0.305360	-0.000018
1288	1.2806e+02	7.1899	11.224528	0.000143	1.433845	0.242900	-0.000014
1289	1.2816e+02	7.1795	11.212715	0.000119	1.188043	0.201260	-0.000012
1290	1.2826e+02	7.1691	11.196828	0.000160	1.597713	0.270660	-0.000016
1291	1.2835e+02	7.1600	11.180535	0.000164	1.638680	0.277600	-0.000016
1292	1.2845e+02	7.1474	11.163019	0.000176	1.761581	0.298420	-0.000018
1293	1.2855e+02	7.1365	11.149577	0.000135	1.351911	0.229020	-0.000014
1294	1.2865e+02	7.1302	11.130839	0.000188	1.884482	0.319240	-0.000019
1295	1.2875e+02	7.1178	11.115767	0.000152	1.515779	0.256780	-0.000015
1296	1.2885e+02	7.1100	11.100696	0.000152	1.515779	0.256780	-0.000015
1297	1.2895e+02	7.0986	11.086031	0.000147	1.474812	0.249840	-0.000015
1298	1.2905e+02	7.0882	11.071367	0.000147	1.474812	0.249840	-0.000015
1299	1.2915e+02	7.0826	11.052222	0.000193	1.925449	0.326180	-0.000019
1300	1.2925e+02	7.0692	11.034706	0.000176	1.761581	0.298420	-0.000018
1301	1.2935e+02	7.0596	11.020042	0.000147	1.474812	0.249840	-0.000015
1302	1.2945e+02	7.0505	11.005785	0.000143	1.433845	0.242900	-0.000014
1303	1.2955e+02	7.0425	10.988269	0.000176	1.761581	0.298420	-0.000018
1304	1.2965e+02	7.0286	10.973605	0.000147	1.474812	0.249840	-0.000015
1305	1.2975e+02	7.0208	10.962199	0.000115	1.147076	0.194320	-0.000011
1306	1.2985e+02	7.0077	10.941017	0.000213	2.130284	0.360880	-0.000021
1307	1.2995e+02	6.9993	10.929612	0.000115	1.147076	0.194320	-0.000011
1308	1.3005e+02	6.9901	10.914133	0.000156	1.556746	0.263720	-0.000016
1309	1.3015e+02	6.9802	10.897432	0.000168	1.679647	0.284540	-0.000017
1310	1.3025e+02	6.9691	10.882767	0.000147	1.474812	0.249840	-0.000015
1311	1.3034e+02	6.9594	10.869325	0.000135	1.351911	0.229020	-0.000014
1312	1.3044e+02	6.9521	10.853846	0.000156	1.556746	0.263720	-0.000016
1313	1.3054e+02	6.9415	10.837552	0.000164	1.638680	0.277600	-0.000016
1314	1.3064e+02	6.9287	10.822888	0.000147	1.474812	0.249840	-0.000015
1315	1.3074e+02	6.9215	10.811890	0.000111	1.106109	0.187380	-0.000011
1316	1.3084e+02	6.9137	10.794374	0.000176	1.761581	0.298420	-0.000018
1317	1.3094e+02	6.8987	10.781746	0.000127	1.269977	0.215140	-0.000013
1318	1.3104e+02	6.8905	10.765045	0.000168	1.679647	0.284540	-0.000017
1319	1.3114e+02	6.8837	10.750788	0.000143	1.433845	0.242900	-0.000014
1320	1.3124e+02	6.8715	10.740605	0.000102	1.024175	0.173500	-0.000010
1321	1.3134e+02	6.8609	10.721052	0.000197	1.966416	0.333120	-0.000020
1322	1.3144e+02	6.8523	10.705981	0.000152	1.515779	0.256780	-0.000015
1323	1.3154e+02	6.8427	10.695797	0.000102	1.024175	0.173500	-0.000010
1324	1.3164e+02	6.8322	10.679911	0.000160	1.597713	0.270660	-0.000016
1325	1.3174e+02	6.8217	10.668098	0.000119	1.188043	0.201260	-0.000012
1326	1.3184e+02	6.8104	10.650175	0.000180	1.802548	0.305360	-0.000018
1327	1.3194e+02	6.8009	10.635918	0.000143	1.433845	0.242900	-0.000014
1328	1.3204e+02	6.7937	10.624919	0.000111	1.106109	0.187380	-0.000011
1329	1.3214e+02	6.7815	10.609848	0.000152	1.515779	0.256780	-0.000015
1330	1.3224e+02	6.7696	10.592739	0.000172	1.720614	0.291480	-0.000017
1331	1.3234e+02	6.7614	10.578075	0.000147	1.474812	0.249840	-0.000015
1332	1.3243e+02	6.7522	10.565040	0.000131	1.310944	0.222080	-0.000013
1333	1.3253e+02	6.7427	10.550376	0.000147	1.474812	0.249840	-0.000015
1334	1.3263e+02	6.7312	10.532045	0.000184	1.843515	0.312300	-0.000018
1335	1.3273e+02	6.7216	10.518196	0.000139	1.392878	0.235960	-0.000014
1336	1.3283e+02	6.7098	10.499865	0.000184	1.843515	0.312300	-0.000018
1337	1.3293e+02	6.7018	10.487238	0.000127	1.269977	0.215140	-0.000013
1338	1.3303e+02	6.6900	10.474610	0.000127	1.269977	0.215140	-0.000013
1339	1.3313e+02	6.6811	10.457909	0.000168	1.679647	0.284540	-0.000017
1340	1.3323e+02	6.6724	10.444467	0.000135	1.351911	0.229020	-0.000014
1341	1.3333e+02	6.6624	10.427358	0.000172	1.720614	0.291480	-0.000017
1342	1.3343e+02	6.6480	10.412287	0.000152	1.515779	0.256780	-0.000015
1343	1.3353e+02	6.6419	10.394364	0.000180	1.802548	0.305360	-0.000018
1344	1.3363e+02	6.6336	10.380514	0.000139	1.392878	0.235960	-0.000014
1345	1.3373e+02	6.6236	10.364628	0.000160	1.597713	0.270660	-0.000016
1346	1.3383e+02	6.6128	10.345890	0.000188	1.884482	0.319240	-0.000019
1347	1.3393e+02	6.6017	10.332855	0.000131	1.310944	0.222080	-0.000013
1348	1.3403e+02	6.5910	10.319413	0.000135	1.351911	0.229020	-0.000014
1349	1.3413e+02	6.5824	10.305563	0.000139	1.392878	0.235960	-0.000014
1350	1.3423e+02	6.5728	10.291713	0.000139	1.392878	0.235960	-0.000014
1351	1.3432e+02	6.5622	10.272568	0.000193	1.925449	0.326180	-0.000019
1352	1.3442e+02	6.5542	10.254645	0.000180	1.802548	0.305360	-0.000018
1353	1.3452e+02	6.5438	10.237944	0.000168	1.679647	0.284540	-0.000017
1354	1.3462e+02	6.5295	10.221243	0.000168	1.679647	0.284540	-0.000017
1355	1.3472e+02	6.5243	10.203727	0.000176	1.761581	0.298420	-0.000018
1356	1.3482e+02	6.5144	10.188656	0.000152	1.515779	0.256780	-0.000015
1357	1.3492e+02	6.5022	10.171547	0.000172	1.720614	0.291480	-0.000017
1358	1.3502e+02	6.4931	10.153624	0.000180	1.802548	0.305360	-0.000018
1359	1.3512e+02	6.4847	10.133257	0.000205	2.048350	0.347000	-0.000020
1360	1.3522e+02	6.4730	10.116149	0.000172	1.720614	0.291480	-0.000017
1361	1.3532e+02	6.4635	10.097818	0.000184	1.843515	0.312300	-0.000018
1362	1.3542e+02	6.4484	10.081117	0.000168	1.679647	0.284540	-0.000017
1363	1.3552e+02	6.4425	10.060343	0.000209	2.089317	0.353940	-0.000021
1364	1.3562e+02	6.4371	10.044456	0.000160	1.597713	0.270660	-0.000016
1365	1.3572e+02	6.4240	10.023682	0.000209	2.089317	0.353940	-0.000021
1366	1.3582e+02	6.4138	10.006166	0.000176	1.761581	0.298420	-0.000018
1367	1.3592e+02	6.4033	9.987836	0.000184	1.843515	0.312300	-0.000018
1368	1.3602e+02	6.3955	9.969505	0.000184	1.843515	0.312300	-0.000018
1369	1.3612e+02	6.3821	9.951175	0.000184	1.843515	0.312300	-0.000018
1370	1.3622e+02	6.3730	9.932030	0.000193	1.925449	0.326180	-0.000019
1371	1.3631e+02	6.3624	9.914921	0.000172	1.720614	0.291480	-0.000017
1372	1.3641e+02	6.3519	9.892925	0.000221	2.212218	0.374760	-0.000022
1373	1.3651e+02	6.3432	9.877446	0.000156	1.556746	0.263720	-0.000016
1374	1.3661e+02	6.3313	9.859523	0.000180	1.802548	0.305360	-0.000018
1375	1.3671e+02	6.3239	9.839156	0.000205	2.048350	0.347000	-0.000020
1376	1.3681e+02	6.3134	9.819196	0.000201	2.007383	0.340060	-0.000020
1377	1.3691e+02	6.3029	9.798829	0.000205	2.048350	0.347000	-0.000020
1378	1.3701e+02	6.2955	9.784164	0.000147	1.474812	0.249840	-0.000015
1379	1.3711e+02	6.2833	9.764612	0.000197	1.966416	0.333120	-0.000020
1380	1.3721e+02	6.2762	9.743430	0.000213	2.130284	0.360880	-0.000021
1381	1.3731e+02	6.2627	9.723878	0.000197	1.966416	0.333120	-0.000020
1382	1.3741e+02	6.2523	9.707991	0.000160	1.597713	0.270660	-0.000016
1383	1.3751e+02	6.2437	9.688032	0.000201	2.007383	0.340060	-0.000020
1384	1.3761e+02	6.2342	9.667257	0.000209	2.089317	0.353940	-0.000021
1385	1.3771e+02	6.2231	9.646075	0.000213	2.130284	0.360880	-0.000021
1386	1.3781e+02	6.2135	9.631004	0.000152	1.515779	0.256780	-0.000015
1387	1.3791e+02	6.2028	9.607785	0.000234	2.335119	0.395580	-0.000023
1388	1.3801e+02	6.1956	9.593121	0.000147	1.474812	0.249840	-0.000015
1389	1.3811e+02	6.1860	9.573161	0.000201	2.007383	0.340060	-0.000020
1390	1.3821e+02	6.1749	9.548313	0.000250	2.498987	0.423340	-0.000025
1391	1.3831e+02	6.1650	9.531612	0.000168	1.679647	0.284540	-0.000017
1392	1.3840e+02	6.1570	9.512467	0.000193	1.925449	0.326180	-0.000019
1393	1.3850e+02	6.1468	9.490470	0.000221	2.212218	0.374760	-0.000022
1394	1.3860e+02	6.1324	9.470511	0.000201	2.007383	0.340060	-0.000020
1395	1.3870e+02	6.1259	9.451773	0.000188	1.884482	0.319240	-0.000019
1396	1.3880e+02	6.1163	9.433850	0.000180	1.802548	0.305360	-0.000018
1397	1.3890e+02	6.1047	9.409002	0.000250	2.498987	0.423340	-0.000025
1398	1.3900e+02	6.0961	9.387413	0.000217	2.171251	0.367820	-0.000022
1399	1.3910e+02	6.0894	9.369082	0.000184	1.843515	0.312300	-0.000018
1400	1.3920e+02	6.0763	9.345456	0.000238	2.376086	0.402520	-0.000024
1401	1.3930e+02	6.0632	9.325089	0.000205	2.048350	0.347000	-0.000020
1402	1.3940e+02	6.0584	9.304315	0.000209	2.089317	0.353940	-0.000021
1403	1.3950e+02	6.0467	9.284762	0.000197	1.966416	0.333120	-0.000020
1404	1.3960e+02	6.0351	9.258693	0.000262	2.621888	0.444160	-0.000026
1405	1.3970e+02	6.0267	9.237511	0.000213	2.130284	0.360880	-0.000021
1406	1.3980e+02	6.0171	9.216329	0.000213	2.130284	0.360880	-0.000021
1407	1.3990e+02	6.0058	9.199628	0.000168	1.679647	0.284540	-0.000017
1408	1.4000e+02	5.9963	9.174373	0.000254	2.539954	0.430280	-0.000025
1409	1.4010e+02	5.9855	9.152783	0.000217	2.171251	0.367820	-0.000022
1410	1.4020e+02	5.9748	9.129972	0.000229	2.294152	0.388640	-0.000023
1411	1.4029e+02	5.9668	9.114493	0.000156	1.556746	0.263720	-0.000016
1412	1.4039e+02	5.9560	9.094126	0.000205	2.048350	0.347000	-0.000020
1413	1.4049e+02	5.9473	9.071722	0.000225	2.253185	0.381700	-0.000023
1414	1.4059e+02	5.9360	9.048504	0.000234	2.335119	0.395580	-0.000023
1415	1.4069e+02	5.9251	9.027322	0.000213	2.130284	0.360880	-0.000021
1416	1.4079e+02	5.9140	9.006955	0.000205	2.048350	0.347000	-0.000020
1417	1.4089e+02	5.9052	8.990254	0.000168	1.679647	0.284540	-0.000017
1418	1.4099e+02	5.8966	8.964591	0.000258	2.580921	0.437220	-0.000026
1419	1.4109e+02	5.8880	8.947890	0.000168	1.679647	0.284540	-0.000017
1420	1.4119e+02	5.8770	8.921413	0.000266	2.662855	0.451100	-0.000027
1421	1.4129e+02	5.8656	8.904305	0.000172	1.720614	0.291480	-0.000017
1422	1.4139e+02	5.8566	8.879864	0.000246	2.458020	0.416400	-0.000025
1423	1.4149e+02	5.8462	8.861534	0.000184	1.843515	0.312300	-0.000018
1424	1.4159e+02	5.8350	8.838315	0.000234	2.335119	0.395580	-0.000023
1425	1.4169e+02	5.8269	8.818355	0.000201	2.007383	0.340060	-0.000020
1426	1.4179e+02	5.8166	8.797988	0.000205	2.048350	0.347000	-0.000020
1427	1.4189e+02	5.8056	8.777621	0.000205	2.048350	0.347000	-0.000020
1428	1.4199e+02	5.7959	8.759291	0.000184	1.843515	0.312300	-0.000018
1429	1.4209e+02	5.7857	8.733628	0.000258	2.580921	0.437220	-0.000026
1430	1.4219e+02	5.7767	8.715298	0.000184	1.843515	0.312300	-0.000018
1431	1.4228e+02	5.7669	8.694116	0.000213	2.130284	0.360880	-0.000021
1432	1.4238e+02	5.7557	8.673749	0.000205	2.048350	0.347000	-0.000020
1433	1.4248e+02	5.7484	8.650937	0.000229	2.294152	0.388640	-0.000023
1434	1.4258e+02	5.7379	8.631792	0.000193	1.925449	0.326180	-0.000019
1435	1.4268e+02	5.7276	8.611018	0.000209	2.089317	0.353940	-0.000021
1436	1.4278e+02	5.7178	8.592280	0.000188	1.884482	0.319240	-0.000019
1437	1.4288e+02	5.7076	8.569876	0.000225	2.253185	0.381700	-0.000023
1438	1.4298e+02	5.6990	8.551139	0.000188	1.884482	0.319240	-0.000019
1439	1.4308e+02	5.6878	8.531586	0.000197	1.966416	0.333120	-0.000020
1440	1.4318e+02	5.6771	8.513663	0.000180	1.802548	0.305360	-0.000018
1441	1.4328e+02	5.6674	8.492074	0.000217	2.171251	0.367820	-0.000022
1442	1.4338e+02	5.6555	8.475780	0.000164	1.638680	0.277600	-0.000016
1443	1.4348e+02	5.6493	8.456635	0.000193	1.925449	0.326180	-0.000019
1444	1.4358e+02	5.6374	8.438712	0.000180	1.802548	0.305360	-0.000018
1445	1.4368e+02	5.6278	8.416308	0.000225	2.253185	0.381700	-0.000023
1446	1.4378e+02	5.6172	8.398385	0.000180	1.802548	0.305360	-0.000018
1447	1.4388e+02	5.6096	8.382499	0.000160	1.597713	0.270660	-0.000016
1448	1.4398e+02	5.5968	8.364983	0.000176	1.761581	0.298420	-0.000018
1449	1.4408e+02	5.5906	8.346245	0.000188	1.884482	0.319240	-0.000019
1450	1.4418e+02	5.5776	8.324656	0.000217	2.171251	0.367820	-0.000022
1451	1.4428e+02	5.5660	8.306326	0.000184	1.843515	0.312300	-0.000018
1452	1.4437e+02	5.5584	8.286366	0.000201	2.007383	0.340060	-0.000020
1453	1.4447e+02	5.5483	8.266813	0.000197	1.966416	0.333120	-0.000020
1454	1.4457e+02	5.5405	8.251334	0.000156	1.556746	0.263720	-0.000016
1455	1.4467e+02	5.5315	8.232597	0.000188	1.884482	0.319240	-0.000019
1456	1.4477e+02	5.5176	8.213859	0.000188	1.884482	0.319240	-0.000019
1457	1.4487e+02	5.5053	8.194714	0.000193	1.925449	0.326180	-0.000019
1458	1.4497e+02	5.4986	8.175569	0.000193	1.925449	0.326180	-0.000019
1459	1.4507e+02	5.4873	8.158868	0.000168	1.679647	0.284540	-0.000017
1460	1.4517e+02	5.4763	8.137686	0.000213	2.130284	0.360880	-0.000021
1461	1.4527e+02	5.4678	8.121799	0.000160	1.597713	0.270660	-0.000016
1462	1.4537e+02	5.4592	8.103876	0.000180	1.802548	0.305360	-0.000018
1463	1.4547e+02	5.4501	8.083509	0.000205	2.048350	0.347000	-0.000020
1464	1.4557e+02	5.4382	8.069252	0.000143	1.433845	0.242900	-0.000014
1465	1.4567e+02	5.4302	8.046848	0.000225	2.253185	0.381700	-0.000023
1466	1.4577e+02	5.4214	8.027703	0.000193	1.925449	0.326180	-0.000019
1467	1.4587e+02	5.4095	8.011002	0.000168	1.679647	0.284540	-0.000017
1468	1.4597e+02	5.4002	7.990228	0.000209	2.089317	0.353940	-0.000021
1469	1.4607e+02	5.3900	7.974341	0.000160	1.597713	0.270660	-0.000016
1470	1.4617e+02	5.3815	7.956418	0.000180	1.802548	0.305360	-0.000018
1471	1.4626e+02	5.3678	7.938903	0.000176	1.761581	0.298420	-0.000018
1472	1.4636e+02	5.3584	7.918943	0.000201	2.007383	0.340060	-0.000020
1473	1.4646e+02	5.3490	7.905501	0.000135	1.351911	0.229020	-0.000014
1474	1.4656e+02	5.3371	7.886355	0.000193	1.925449	0.326180	-0.000019
1475	1.4666e+02	5.3279	7.867210	0.000193	1.925449	0.326180	-0.000019
1476	1.4676e+02	5.3185	7.850917	0.000164	1.638680	0.277600	-0.000016
1477	1.4686e+02	5.3101	7.831772	0.000193	1.925449	0.326180	-0.000019
1478	1.4696e+02	5.3005	7.817922	0.000139	1.392878	0.235960	-0.000014
1479	1.4706e+02	5.2882	7.795111	0.000229	2.294152	0.388640	-0.000023
1480	1.4716e+02	5.2765	7.780039	0.000152	1.515779	0.256780	-0.000015
1481	1.4726e+02	5.2692	7.763338	0.000168	1.679647	0.284540	-0.000017
1482	1.4736e+02	5.2598	7.744193	0.000193	1.925449	0.326180	-0.000019
1483	1.4746e+02	5.2489	7.729936	0.000143	1.433845	0.242900	-0.000014
1484	1.4756e+02	5.2402	7.712013	0.000180	1.802548	0.305360	-0.000018
1485	1.4766e+02	5.2296	7.694090	0.000180	1.802548	0.305360	-0.000018
1486	1.4776e+02	5.2197	7.681055	0.000131	1.310944	0.222080	-0.000013
1487	1.4786e+02	5.2082	7.658244	0.000229	2.294152	0.388640	-0.000023
1488	1.4796e+02	5.1993	7.644801	0.000135	1.351911	0.229020	-0.000014
1489	1.4806e+02	5.1899	7.624434	0.000205	2.048350	0.347000	-0.000020
1490	1.4816e+02	5.1812	7.610177	0.000143	1.433845	0.242900	-0.000014
1491	1.4825e+02	5.1734	7.594698	0.000156	1.556746	0.263720	-0.000016
1492	1.4835e+02	5.1603	7.575960	0.000188	1.884482	0.319240	-0.000019
1493	1.4845e+02	5.1496	7.559667	0.000164	1.638680	0.277600	-0.000016
1494	1.4855e+02	5.1414	7.542966	0.000168	1.679647	0.284540	-0.000017
1495	1.4865e+02	5.1286	7.526672	0.000164	1.638680	0.277600	-0.000016
1496	1.4875e+02	5.1211	7.507120	0.000197	1.966416	0.333120	-0.000020
1497	1.4885e+02	5.1116	7.489604	0.000176	1.761581	0.298420	-0.000018
1498	1.4895e+02	5.1006	7.473310	0.000164	1.638680	0.277600	-0.000016
1499	1.4905e+02	5.0904	7.454572	0.000188	1.884482	0.319240	-0.000019
1500	1.4915e+02	5.0799	7.438686	0.000160	1.597713	0.270660	-0.000016
1501	1.4925e+02	5.0677	7.421170	0.000176	1.761581	0.298420	-0.000018
1502	1.4935e+02	5.0594	7.399988	0.000213	2.130284	0.360880	-0.000021
1503	1.4945e+02	5.0501	7.386546	0.000135	1.351911	0.229020	-0.000014
1504	1.4955e+02	5.0401	7.370252	0.000164	1.638680	0.277600	-0.000016
1505	1.4965e+02	5.0324	7.351107	0.000193	1.925449	0.326180	-0.000019
1506	1.4975e+02	5.0205	7.333999	0.000172	1.720614	0.291480	-0.000017
1507	1.4985e+02	5.0111	7.315261	0.000188	1.884482	0.319240	-0.000019
1508	1.4995e+02	5.0016	7.296523	0.000188	1.884482	0.319240	-0.000019
1509	1.5005e+02	4.9889	7.280637	0.000160	1.597713	0.270660	-0.000016
1510	1.5015e+02	4.9822	7.261899	0.000188	1.884482	0.319240	-0.000019
1511	1.5025e+02	4.9706	7.245606	0.000164	1.638680	0.277600	-0.000016
1512	1.5034e+02	4.9610	7.230127	0.000156	1.556746	0.263720	-0.000016
1513	1.5044e+02	4.9538	7.208945	0.000213	2.130284	0.360880	-0.000021
1514	1.5054e+02	4.9406	7.192651	0.000164	1.638680	0.277600	-0.000016
1515	1.5064e+02	4.9316	7.177172	0.000156	1.556746	0.263720	-0.000016
1516	1.5074e+02	4.9212	7.161286	0.000160	1.597713	0.270660	-0.000016
1517	1.5084e+02	4.9123	7.140104	0.000213	2.130284	0.360880	-0.000021
1518	1.5094e+02	4.9001	7.121773	0.000184	1.843515	0.312300	-0.000018
1519	1.5104e+02	4.8914	7.104258	0.000176	1.761581	0.298420	-0.000018
1520	1.5114e+02	4.8806	7.085113	0.000193	1.925449	0.326180	-0.000019
1521	1.5124e+02	4.8741	7.068819	0.000164	1.638680	0.277600	-0.000016
1522	1.5134e+02	4.8620	7.043564	0.000254	2.539954	0.430280	-0.000025
1523	1.5144e+02	4.8507	7.025641	0.000180	1.802548	0.305360	-0.000018
1524	1.5154e+02	4.8415	7.009754	0.000160	1.597713	0.270660	-0.000016
1525	1.5164e+02	4.8314	6.984906	0.000250	2.498987	0.423340	-0.000025
1526	1.5174e+02	4.8205	6.969427	0.000156	1.556746	0.263720	-0.000016
1527	1.5184e+02	4.8093	6.947838	0.000217	2.171251	0.367820	-0.000022
1528	1.5194e+02	4.8034	6.928286	0.000197	1.966416	0.333120	-0.000020
1529	1.5204e+02	4.7907	6.909548	0.000188	1.884482	0.319240	-0.000019
1530	1.5214e+02	4.7829	6.888774	0.000209	2.089317	0.353940	-0.000021
1531	1.5224e+02	4.7717	6.867999	0.000209	2.089317	0.353940	-0.000021
1532	1.5233e+02	4.7629	6.848447	0.000197	1.966416	0.333120	-0.000020
1533	1.5243e+02	4.7524	6.827265	0.000213	2.130284	0.360880	-0.000021
1534	1.5253e+02	4.7437	6.807305	0.000201	2.007383	0.340060	-0.000020
1535	1.5263e+02	4.7307	6.783272	0.000242	2.417053	0.409460	-0.000024
1536	1.5273e+02	4.7223	6.765756	0.000176	1.761581	0.298420	-0.000018
1537	1.5283e+02	4.7119	6.742130	0.000238	2.376086	0.402520	-0.000024
1538	1.5293e+02	4.7024	6.722578	0.000197	1.966416	0.333120	-0.000020
1539	1.5303e+02	4.6917	6.703840	0.000188	1.884482	0.319240	-0.000019
1540	1.5313e+02	4.6822	6.678992	0.000250	2.498987	0.423340	-0.000025
1541	1.5323e+02	4.6708	6.663106	0.000160	1.597713	0.270660	-0.000016
1542	1.5333e+02	4.6585	6.640295	0.000229	2.294152	0.388640	-0.000023
1543	1.5343e+02	4.6524	6.621557	0.000188	1.884482	0.319240	-0.000019
1544	1.5353e+02	4.6442	6.597524	0.000242	2.417053	0.409460	-0.000024
1545	1.5363e+02	4.6324	6.578786	0.000188	1.884482	0.319240	-0.000019
1546	1.5373e+02	4.6230	6.560048	0.000188	1.884482	0.319240	-0.000019
1547	1.5383e+02	4.6131	6.537237	0.000229	2.294152	0.388640	-0.000023
1548	1.5393e+02	4.6021	6.513611	0.000238	2.376086	0.402520	-0.000024
1549	1.5403e+02	4.5945	6.492837	0.000209	2.089317	0.353940	-0.000021
1550	1.5413e+02	4.5824	6.471655	0.000213	2.130284	0.360880	-0.000021
1551	1.5422e+02	4.5715	6.454546	0.000172	1.720614	0.291480	-0.000017
1552	1.5432e+02	4.5633	6.432550	0.000221	2.212218	0.374760	-0.000022
1553	1.5442e+02	4.5531	6.410146	0.000225	2.253185	0.381700	-0.000023
1554	1.5452e+02	4.5441	6.387335	0.000229	2.294152	0.388640	-0.000023
1555	1.5462e+02	4.5339	6.366560	0.000209	2.089317	0.353940	-0.000021
1556	1.5472e+02	4.5229	6.346193	0.000205	2.048350	0.347000	-0.000020
1557	1.5482e+02	4.5142	6.324604	0.000217	2.171251	0.367820	-0.000022
1558	1.5492e+02	4.5026	6.303422	0.000213	2.130284	0.360880	-0.000021
1559	1.5502e+02	4.4909	6.281833	0.000217	2.171251	0.367820	-0.000022
1560	1.5512e+02	4.4840	6.258615	0.000234	2.335119	0.395580	-0.000023
1561	1.5522e+02	4.4737	6.241914	0.000168	1.679647	0.284540	-0.000017
1562	1.5532e+02	4.4637	6.216658	0.000254	2.539954	0.430280	-0.000025
1563	1.5542e+02	4.4531	6.196699	0.000201	2.007383	0.340060	-0.000020
1564	1.5552e+02	4.4441	6.172258	0.000246	2.458020	0.416400	-0.000025
1565	1.5562e+02	4.4337	6.149854	0.000225	2.253185	0.381700	-0.000023
1566	1.5572e+02	4.4219	6.125821	0.000242	2.417053	0.409460	-0.000024
1567	1.5582e+02	4.4132	6.103417	0.000225	2.253185	0.381700	-0.000023
1568	1.5592e+02	4.4056	6.081421	0.000221	2.212218	0.374760	-0.000022
1569	1.5602e+02	4.3935	6.056165	0.000254	2.539954	0.430280	-0.000025
1570	1.5612e+02	4.3830	6.035798	0.000205	2.048350	0.347000	-0.000020
1571	1.5622e+02	4.3758	6.011765	0.000242	2.417053	0.409460	-0.000024
1572	1.5631e+02	4.3653	5.989361	0.000225	2.253185	0.381700	-0.000023
1573	1.5641e+02	4.3507	5.968179	0.000213	2.130284	0.360880	-0.000021
1574	1.5651e+02	4.3443	5.941295	0.000270	2.703822	0.458040	-0.000027
1575	1.5661e+02	4.3345	5.921742	0.000197	1.966416	0.333120	-0.000020
1576	1.5671e+02	4.3227	5.896894	0.000250	2.498987	0.423340	-0.000025
1577	1.5681e+02	4.3119	5.869195	0.000279	2.785756	0.471920	-0.000028
1578	1.5691e+02	4.3061	5.850865	0.000184	1.843515	0.312300	-0.000018
1579	1.5701e+02	4.2924	5.828054	0.000229	2.294152	0.388640	-0.000023
1580	1.5711e+02	4.2847	5.801984	0.000262	2.621888	0.444160	-0.000026
1581	1.5721e+02	4.2770	5.784468	0.000176	1.761581	0.298420	-0.000018
1582	1.5731e+02	4.2641	5.757176	0.000274	2.744789	0.464980	-0.000027
1583	1.5741e+02	4.2566	5.737216	0.000201	2.007383	0.340060	-0.000020
1584	1.5751e+02	4.2453	5.716034	0.000213	2.130284	0.360880	-0.000021
1585	1.5761e+02	4.2345	5.691186	0.000250	2.498987	0.423340	-0.000025
1586	1.5771e+02	4.2248	5.667561	0.000238	2.376086	0.402520	-0.000024
1587	1.5781e+02	4.2147	5.643120	0.000246	2.458020	0.416400	-0.000025
1588	1.5791e+02	4.2056	5.623975	0.000193	1.925449	0.326180	-0.000019
1589	1.5801e+02	4.1936	5.600756	0.000234	2.335119	0.395580	-0.000023
1590	1.5811e+02	4.1825	5.575909	0.000250	2.498987	0.423340	-0.000025
1591	1.5821e+02	4.1741	5.555949	0.000201	2.007383	0.340060	-0.000020
1592	1.5830e+02	4.1639	5.529064	0.000270	2.703822	0.458040	-0.000027
1593	1.5840e+02	4.1564	5.509104	0.000201	2.007383	0.340060	-0.000020
1594	1.5850e+02	4.1439	5.487515	0.000217	2.171251	0.367820	-0.000022
1595	1.5860e+02	4.1360	5.466333	0.000213	2.130284	0.360880	-0.000021
1596	1.5870e+02	4.1249	5.443115	0.000234	2.335119	0.395580	-0.000023
1597	1.5880e+02	4.1152	5.422340	0.000209	2.089317	0.353940	-0.000021
1598	1.5890e+02	4.1029	5.397492	0.000250	2.498987	0.423340	-0.000025
1599	1.5900e+02	4.0974	5.372237	0.000254	2.539954	0.430280	-0.000025
1600	1.5910e+02	4.0835	5.351870	0.000205	2.048350	0.347000	-0.000020
1601	1.5920e+02	4.0768	5.328244	0.000238	2.376086	0.402520	-0.000024
1602	1.5930e+02	4.0626	5.306248	0.000221	2.212218	0.374760	-0.000022
1603	1.5940e+02	4.0565	5.281807	0.000246	2.458020	0.416400	-0.000025
1604	1.5950e+02	4.0479	5.262662	0.000193	1.925449	0.326180	-0.000019
1605	1.5960e+02	4.0360	5.240666	0.000221	2.212218	0.374760	-0.000022
1606	1.5970e+02	4.0243	5.217854	0.000229	2.294152	0.388640	-0.000023
1607	1.5980e+02	4.0137	5.202783	0.000152	1.515779	0.256780	-0.000015
1608	1.5990e+02	4.0046	5.177120	0.000258	2.580921	0.437220	-0.000026
1609	1.6000e+02	3.9965	5.157568	0.000197	1.966416	0.333120	-0.000020
1610	1.6010e+02	3.9855	5.138015	0.000197	1.966416	0.333120	-0.000020
1611	1.6019e+02	3.9759	5.118463	0.000197	1.966416	0.333120	-0.000020
1612	1.6029e+02	3.9668	5.094022	0.000246	2.458020	0.416400	-0.000025
1613	1.6039e+02	3.9552	5.071618	0.000225	2.253185	0.381700	-0.000023
1614	1.6049e+02	3.9460	5.052881	0.000188	1.884482	0.319240	-0.000019
1615	1.6059e+02	3.9349	5.032921	0.000201	2.007383	0.340060	-0.000020
1616	1.6069e+02	3.9266	5.012554	0.000205	2.048350	0.347000	-0.000020
1617	1.6079e+02	3.9172	4.990557	0.000221	2.212218	0.374760	-0.000022
1618	1.6089e+02	3.9028	4.971005	0.000197	1.966416	0.333120	-0.000020
1619	1.6099e+02	3.8947	4.953489	0.000176	1.761581	0.298420	-0.000018
1620	1.6109e+02	3.8859	4.930678	0.000229	2.294152	0.388640	-0.000023
1621	1.6119e+02	3.8793	4.908681	0.000221	2.212218	0.374760	-0.000022
1622	1.6129e+02	3.8662	4.892388	0.000164	1.638680	0.277600	-0.000016
1623	1.6139e+02	3.8563	4.873243	0.000193	1.925449	0.326180	-0.000019
1624	1.6149e+02	3.8468	4.853690	0.000197	1.966416	0.333120	-0.000020
1625	1.6159e+02	3.8375	4.831694	0.000221	2.212218	0.374760	-0.000022
1626	1.6169e+02	3.8235	4.812141	0.000197	1.966416	0.333120	-0.000020
1627	1.6179e+02	3.8178	4.790145	0.000221	2.212218	0.374760	-0.000022
1628	1.6189e+02	3.8071	4.769778	0.000205	2.048350	0.347000	-0.000020
1629	1.6199e+02	3.7955	4.751040	0.000188	1.884482	0.319240	-0.000019
1630	1.6209e+02	3.7858	4.731487	0.000197	1.966416	0.333120	-0.000020
1631	1.6219e+02	3.7771	4.713564	0.000180	1.802548	0.305360	-0.000018
1632	1.6228e+02	3.7658	4.693197	0.000205	2.048350	0.347000	-0.000020
1633	1.6238e+02	3.7580	4.670386	0.000229	2.294152	0.388640	-0.000023
1634	1.6248e+02	3.7463	4.652870	0.000176	1.761581	0.298420	-0.000018
1635	1.6258e+02	3.7373	4.632503	0.000205	2.048350	0.347000	-0.000020
1636	1.6268e+02	3.7252	4.612951	0.000197	1.966416	0.333120	-0.000020
1637	1.6278e+02	3.7175	4.590954	0.000221	2.212218	0.374760	-0.000022
1638	1.6288e+02	3.7057	4.573438	0.000176	1.761581	0.298420	-0.000018
1639	1.6298e+02	3.6982	4.551849	0.000217	2.171251	0.367820	-0.000022
1640	1.6308e+02	3.6865	4.531482	0.000205	2.048350	0.347000	-0.000020
1641	1.6318e+02	3.6755	4.509486	0.000221	2.212218	0.374760	-0.000022
1642	1.6328e+02	3.6666	4.493192	0.000164	1.638680	0.277600	-0.000016
1643	1.6338e+02	3.6561	4.474454	0.000188	1.884482	0.319240	-0.000019
1644	1.6348e+02	3.6472	4.455309	0.000193	1.925449	0.326180	-0.000019
1645	1.6358e+02	3.6385	4.436979	0.000184	1.843515	0.312300	-0.000018
1646	1.6368e+02	3.6289	4.417019	0.000201	2.007383	0.340060	-0.000020
1647	1.6378e+02	3.6185	4.396652	0.000205	2.048350	0.347000	-0.000020
1648	1.6388e+02	3.6069	4.379136	0.000176	1.761581	0.298420	-0.000018
1649	1.6398e+02	3.5986	4.360398	0.000188	1.884482	0.319240	-0.000019
1650	1.6408e+02	3.5885	4.340439	0.000201	2.007383	0.340060	-0.000020
1651	1.6418e+02	3.5778	4.322923	0.000176	1.761581	0.298420	-0.000018
1652	1.6427e+02	3.5660	4.301334	0.000217	2.171251	0.367820	-0.000022
1653	1.6437e+02	3.5609	4.287891	0.000135	1.351911	0.229020	-0.000014
1654	1.6447e+02	3.5484	4.269154	0.000188	1.884482	0.319240	-0.000019
1655	1.6457e+02	3.5368	4.246342	0.000229	2.294152	0.388640	-0.000023
1656	1.6467e+02	3.5280	4.228012	0.000184	1.843515	0.312300	-0.000018
1657	1.6477e+02	3.5192	4.208052	0.000201	2.007383	0.340060	-0.000020
1658	1.6487e+02	3.5062	4.192166	0.000160	1.597713	0.270660	-0.000016
1659	1.6497e+02	3.4980	4.173835	0.000184	1.843515	0.312300	-0.000018
1660	1.6507e+02	3.4856	4.155912	0.000180	1.802548	0.305360	-0.000018
1661	1.6517e+02	3.4795	4.135138	0.000209	2.089317	0.353940	-0.000021
1662	1.6527e+02	3.4702	4.118844	0.000164	1.638680	0.277600	-0.000016
1663	1.6537e+02	3.4570	4.100921	0.000180	1.802548	0.305360	-0.000018
1664	1.6547e+02	3.4503	4.082183	0.000188	1.884482	0.319240	-0.000019
1665	1.6557e+02	3.4390	4.058558	0.000238	2.376086	0.402520	-0.000024
1666	1.6567e+02	3.4301	4.041449	0.000172	1.720614	0.291480	-0.000017
1667	1.6577e+02	3.4187	4.023526	0.000180	1.802548	0.305360	-0.000018
1668	1.6587e+02	3.4077	4.001122	0.000225	2.253185	0.381700	-0.000023
1669	1.6597e+02	3.3969	3.982792	0.000184	1.843515	0.312300	-0.000018
1670	1.6607e+02	3.3880	3.962425	0.000205	2.048350	0.347000	-0.000020
1671	1.6616e+02	3.3755	3.944094	0.000184	1.843515	0.312300	-0.000018
1672	1.6626e+02	3.3694	3.925356	0.000188	1.884482	0.319240	-0.000019
1673	1.6636e+02	3.3582	3.904989	0.000205	2.048350	0.347000	-0.000020
1674	1.6646e+02	3.3491	3.888696	0.000164	1.638680	0.277600	-0.000016
1675	1.6656e+02	3.3373	3.870365	0.000184	1.843515	0.312300	-0.000018
1676	1.6666e+02	3.3277	3.852035	0.000184	1.843515	0.312300	-0.000018
1677	1.6676e+02	3.3188	3.831260	0.000209	2.089317	0.353940	-0.000021
1678	1.6686e+02	3.3083	3.809264	0.000221	2.212218	0.374760	-0.000022
1679	1.6696e+02	3.3008	3.788082	0.000213	2.130284	0.360880	-0.000021
1680	1.6706e+02	3.2904	3.771788	0.000164	1.638680	0.277600	-0.000016
1681	1.6716e+02	3.2790	3.750199	0.000217	2.171251	0.367820	-0.000022
1682	1.6726e+02	3.2680	3.735128	0.000152	1.515779	0.256780	-0.000015
1683	1.6736e+02	3.2613	3.712724	0.000225	2.253185	0.381700	-0.000023
1684	1.6746e+02	3.2481	3.694393	0.000184	1.843515	0.312300	-0.000018
1685	1.6756e+02	3.2391	3.673619	0.000209	2.089317	0.353940	-0.000021
1686	1.6766e+02	3.2265	3.656103	0.000176	1.761581	0.298420	-0.000018
1687	1.6776e+02	3.2189	3.633292	0.000229	2.294152	0.388640	-0.000023
1688	1.6786e+02	3.2114	3.611703	0.000217	2.171251	0.367820	-0.000022
1689	1.6796e+02	3.1982	3.594187	0.000176	1.761581	0.298420	-0.000018
1690	1.6806e+02	3.1936	3.574227	0.000201	2.007383	0.340060	-0.000020
1691	1.6816e+02	3.1791	3.553045	0.000213	2.130284	0.360880	-0.000021
1692	1.6825e+02	3.1721	3.529420	0.000238	2.376086	0.402520	-0.000024
1693	1.6835e+02	3.1588	3.508645	0.000209	2.089317	0.353940	-0.000021
1694	1.6845e+02	3.1504	3.484612	0.000242	2.417053	0.409460	-0.000024
1695	1.6855e+02	3.1386	3.467096	0.000176	1.761581	0.298420	-0.000018
1696	1.6865e+02	3.1285	3.445507	0.000217	2.171251	0.367820	-0.000022
1697	1.6875e+02	3.1191	3.419030	0.000266	2.662855	0.451100	-0.000027
1698	1.6885e+02	3.1100	3.401921	0.000172	1.720614	0.291480	-0.000017
1699	1.6895e+02	3.1006	3.375037	0.000270	2.703822	0.458040	-0.000027
1700	1.6905e+02	3.0909	3.356299	0.000188	1.884482	0.319240	-0.000019
1701	1.6915e+02	3.0793	3.334302	0.000221	2.212218	0.374760	-0.000022
1702	1.6925e+02	3.0688	3.309862	0.000246	2.458020	0.416400	-0.000025
1703	1.6935e+02	3.0590	3.287865	0.000221	2.212218	0.374760	-0.000022
1704	1.6945e+02	3.0511	3.265462	0.000225	2.253185	0.381700	-0.000023
1705	1.6955e+02	3.0383	3.242650	0.000229	2.294152	0.388640	-0.000023
1706	1.6965e+02	3.0294	3.223505	0.000193	1.925449	0.326180	-0.000019
1707	1.6975e+02	3.0215	3.199065	0.000246	2.458020	0.416400	-0.000025
1708	1.6985e+02	3.0117	3.177476	0.000217	2.171251	0.367820	-0.000022
1709	1.6995e+02	2.9993	3.156294	0.000213	2.130284	0.360880	-0.000021
1710	1.7005e+02	2.9903	3.130631	0.000258	2.580921	0.437220	-0.000026
1711	1.7015e+02	2.9819	3.107005	0.000238	2.376086	0.402520	-0.000024
1712	1.7024e+02	2.9720	3.084601	0.000225	2.253185	0.381700	-0.000023
1713	1.7034e+02	2.9607	3.062605	0.000221	2.212218	0.374760	-0.000022
1714	1.7044e+02	2.9507	3.042645	0.000201	2.007383	0.340060	-0.000020
1715	1.7054e+02	2.9409	3.021463	0.000213	2.130284	0.360880	-0.000021
1716	1.7064e+02	2.9317	2.992135	0.000295	2.949624	0.499680	-0.000029
1717	1.7074e+02	2.9232	2.970546	0.000217	2.171251	0.367820	-0.000022
1718	1.7084e+02	2.9101	2.949771	0.000209	2.089317	0.353940	-0.000021
1719	1.7094e+02	2.9018	2.929811	0.000201	2.007383	0.340060	-0.000020
1720	1.7104e+02	2.8905	2.904149	0.000258	2.580921	0.437220	-0.000026
1721	1.7114e+02	2.8807	2.883782	0.000205	2.048350	0.347000	-0.000020
1722	1.7124e+02	2.8710	2.859748	0.000242	2.417053	0.409460	-0.000024
1723	1.7134e+02	2.8608	2.837345	0.000225	2.253185	0.381700	-0.000023
1724	1.7144e+02	2.8490	2.811682	0.000258	2.580921	0.437220	-0.000026
1725	1.7154e+02	2.8413	2.788056	0.000238	2.376086	0.402520	-0.000024
1726	1.7164e+02	2.8324	2.766874	0.000213	2.130284	0.360880	-0.000021
1727	1.7174e+02	2.8217	2.740397	0.000266	2.662855	0.451100	-0.000027
1728	1.7184e+02	2.8121	2.723289	0.000172	1.720614	0.291480	-0.000017
1729	1.7194e+02	2.8053	2.698441	0.000250	2.498987	0.423340	-0.000025
1730	1.7204e+02	2.7927	2.673185	0.000254	2.539954	0.430280	-0.000025
1731	1.7213e+02	2.7827	2.648338	0.000250	2.498987	0.423340	-0.000025
1732	1.7223e+02	2.7737	2.621860	0.000266	2.662855	0.451100	-0.000027
1733	1.7233e+02	2.7625	2.600271	0.000217	2.171251	0.367820	-0.000022
1734	1.7243e+02	2.7497	2.572165	0.000283	2.826723	0.478860	-0.000028
1735	1.7253e+02	2.7406	2.547317	0.000250	2.498987	0.423340	-0.000025
1736	1.7263e+02	2.7294	2.526542	0.000209	2.089317	0.353940	-0.000021
1737	1.7273e+02	2.7206	2.498028	0.000287	2.867690	0.485800	-0.000029
1738	1.7283e+02	2.7111	2.475217	0.000229	2.294152	0.388640	-0.000023
1739	1.7293e+02	2.7032	2.451998	0.000234	2.335119	0.395580	-0.000023
1740	1.7303e+02	2.6917	2.428780	0.000234	2.335119	0.395580	-0.000023
1741	1.7313e+02	2.6815	2.401895	0.000270	2.703822	0.458040	-0.000027
1742	1.7323e+02	2.6707	2.377455	0.000246	2.458020	0.416400	-0.000025
1743	1.7333e+02	2.6624	2.352200	0.000254	2.539954	0.430280	-0.000025
1744	1.7343e+02	2.6511	2.324908	0.000274	2.744789	0.464980	-0.000027
1745	1.7353e+02	2.6426	2.302504	0.000225	2.253185	0.381700	-0.000023
1746	1.7363e+02	2.6321	2.279693	0.000229	2.294152	0.388640	-0.000023
1747	1.7373e+02	2.6216	2.253623	0.000262	2.621888	0.444160	-0.000026
1748	1.7383e+02	2.6122	2.228367	0.000254	2.539954	0.430280	-0.000025
1749	1.7393e+02	2.6035	2.205149	0.000234	2.335119	0.395580	-0.000023
1750	1.7403e+02	2.5918	2.181116	0.000242	2.417053	0.409460	-0.000024
1751	1.7413e+02	2.5831	2.156675	0.000246	2.458020	0.416400	-0.000025
1752	1.7422e+02	2.5724	2.132642	0.000242	2.417053	0.409460	-0.000024
1753	1.7432e+02	2.5620	2.109423	0.000234	2.335119	0.395580	-0.000023
1754	1.7442e+02	2.5565	2.079280	0.000303	3.031558	0.513560	-0.000030
1755	1.7452e+02	2.5431	2.058913	0.000205	2.048350	0.347000	-0.000020
1756	1.7462e+02	2.5350	2.032436	0.000266	2.662855	0.451100	-0.000027
1757	1.7472e+02	2.5195	2.009624	0.000229	2.294152	0.388640	-0.000023
1758	1.7482e+02	2.5137	1.985999	0.000238	2.376086	0.402520	-0.000024
1759	1.7492e+02	2.5041	1.960336	0.000258	2.580921	0.437220	-0.000026
1760	1.7502e+02	2.4917	1.937932	0.000225	2.253185	0.381700	-0.000023
1761	1.7512e+02	2.4865	1.913084	0.000250	2.498987	0.423340	-0.000025
1762	1.7522e+02	2.4768	1.888644	0.000246	2.458020	0.416400	-0.000025
1763	1.7532e+02	2.4635	1.864611	0.000242	2.417053	0.409460	-0.000024
1764	1.7542e+02	2.4549	1.841392	0.000234	2.335119	0.395580	-0.000023
1765	1.7552e+02	2.4430	1.817359	0.000242	2.417053	0.409460	-0.000024
1766	1.7562e+02	2.4346	1.794140	0.000234	2.335119	0.395580	-0.000023
1767	1.7572e+02	2.4246	1.766848	0.000274	2.744789	0.464980	-0.000027
1768	1.7582e+02	2.4121	1.740371	0.000266	2.662855	0.451100	-0.000027
1769	1.7592e+02	2.4055	1.718375	0.000221	2.212218	0.374760	-0.000022
1770	1.7602e+02	2.3922	1.695971	0.000225	2.253185	0.381700	-0.000023
1771	1.7612e+02	2.3833	1.671938	0.000242	2.417053	0.409460	-0.000024
1772	1.7621e+02	2.3739	1.645460	0.000266	2.662855	0.451100	-0.000027
1773	1.7631e+02	2.3648	1.623464	0.000221	2.212218	0.374760	-0.000022
1774	1.7641e+02	2.3530	1.605133	0.000184	1.843515	0.312300	-0.000018
1775	1.7651e+02	2.3445	1.580285	0.000250	2.498987	0.423340	-0.000025
1776	1.7661e+02	2.3339	1.559918	0.000205	2.048350	0.347000	-0.000020
1777	1.7671e+02	2.3223	1.535478	0.000246	2.458020	0.416400	-0.000025
1778	1.7681e+02	2.3123	1.511445	0.000242	2.417053	0.409460	-0.000024
1779	1.7691e+02	2.3038	1.489041	0.000225	2.253185	0.381700	-0.000023
1780	1.7701e+02	2.2925	1.467452	0.000217	2.171251	0.367820	-0.000022
1781	1.7711e+02	2.2845	1.445862	0.000217	2.171251	0.367820	-0.000022
1782	1.7721e+02	2.2730	1.420607	0.000254	2.539954	0.430280	-0.000025
1783	1.7731e+02	2.2643	1.400647	0.000201	2.007383	0.340060	-0.000020
1784	1.7741e+02	2.2549	1.376207	0.000246	2.458020	0.416400	-0.000025
1785	1.7751e+02	2.2447	1.353396	0.000229	2.294152	0.388640	-0.000023
1786	1.7761e+02	2.2351	1.333843	0.000197	1.966416	0.333120	-0.000020
1787	1.7771e+02	2.2243	1.310217	0.000238	2.376086	0.402520	-0.000024
1788	1.7781e+02	2.2134	1.289036	0.000213	2.130284	0.360880	-0.000021
1789	1.7791e+02	2.2063	1.266632	0.000225	2.253185	0.381700	-0.000023
1790	1.7801e+02	2.1928	1.241376	0.000254	2.539954	0.430280	-0.000025
1791	1.7810e+02	2.1846	1.221824	0.000197	1.966416	0.333120	-0.000020
1792	1.7820e+02	2.1765	1.206345	0.000156	1.556746	0.263720	-0.000016
1793	1.7830e+02	2.1646	1.178646	0.000279	2.785756	0.471920	-0.000028
1794	1.7840e+02	2.1539	1.160315	0.000184	1.843515	0.312300	-0.000018
1795	1.7850e+02	2.1452	1.137911	0.000225	2.253185	0.381700	-0.000023
1796	1.7860e+02	2.1352	1.115100	0.000229	2.294152	0.388640	-0.000023
1797	1.7870e+02	2.1221	1.093511	0.000217	2.171251	0.367820	-0.000022
1798	1.7880e+02	2.1146	1.071922	0.000217	2.171251	0.367820	-0.000022
1799	1.7890e+02	2.1040	1.049925	0.000221	2.212218	0.374760	-0.000022
1800	1.7900e+02	2.0965	1.027522	0.000225	2.253185	0.381700	-0.000023
1801	1.7910e+02	2.0866	1.010006	0.000176	1.761581	0.298420	-0.000018
1802	1.7920e+02	2.0753	0.984751	0.000254	2.539954	0.430280	-0.000025
1803	1.7930e+02	2.0635	0.965198	0.000197	1.966416	0.333120	-0.000020
1804	1.7940e+02	2.0550	0.939128	0.000262	2.621888	0.444160	-0.000026
1805	1.7950e+02	2.0452	0.923242	0.000160	1.597713	0.270660	-0.000016
1806	1.7960e+02	2.0347	0.897987	0.000254	2.539954	0.430280	-0.000025
1807	1.7970e+02	2.0226	0.877620	0.000205	2.048350	0.347000	-0.000020
1808	1.7980e+02	2.0149	0.856438	0.000213	2.130284	0.360880	-0.000021
1809	1.7990e+02	2.0046	0.833627	0.000229	2.294152	0.388640	-0.000023
1810	1.8000e+02	1.9968	0.814481	0.000193	1.925449	0.326180	-0.000019
1811	1.8009e+02	1.9868	0.793707	0.000209	2.089317	0.353940	-0.000021
1812	1.8019e+02	1.9779	0.768044	0.000258	2.580921	0.437220	-0.000026
1813	1.8029e+02	1.9676	0.744826	0.000234	2.335119	0.395580	-0.000023
1814	1.8039e+02	1.9559	0.725273	0.000197	1.966416	0.333120	-0.000020
1815	1.8049e+02	1.9461	0.707350	0.000180	1.802548	0.305360	-0.000018
1816	1.8059e+02	1.9366	0.687798	0.000197	1.966416	0.333120	-0.000020
1817	1.8069e+02	1.9250	0.664987	0.000229	2.294152	0.388640	-0.000023
1818	1.8079e+02	1.9154	0.645434	0.000197	1.966416	0.333120	-0.000020
1819	1.8089e+02	1.9081	0.626697	0.000188	1.884482	0.319240	-0.000019
1820	1.8099e+02	1.8961	0.608366	0.000184	1.843515	0.312300	-0.000018
1821	1.8109e+02	1.8848	0.584333	0.000242	2.417053	0.409460	-0.000024
1822	1.8119e+02	1.8734	0.567225	0.000172	1.720614	0.291480	-0.000017
1823	1.8129e+02	1.8665	0.544006	0.000234	2.335119	0.395580	-0.000023
1824	1.8139e+02	1.8563	0.526083	0.000180	1.802548	0.305360	-0.000018
1825	1.8149e+02	1.8469	0.502050	0.000242	2.417053	0.409460	-0.000024
1826	1.8159e+02	1.8320	0.483312	0.000188	1.884482	0.319240	-0.000019
1827	1.8169e+02	1.8270	0.464982	0.000184	1.843515	0.312300	-0.000018
1828	1.8179e+02	1.8160	0.442170	0.000229	2.294152	0.388640	-0.000023
1829	1.8189e+02	1.8063	0.420174	0.000221	2.212218	0.374760	-0.000022
1830	1.8199e+02	1.7943	0.401843	0.000184	1.843515	0.312300	-0.000018
1831	1.8209e+02	1.7853	0.380662	0.000213	2.130284	0.360880	-0.000021
1832	1.8218e+02	1.7766	0.360294	0.000205	2.048350	0.347000	-0.000020
1833	1.8228e+02	1.7683	0.341149	0.000193	1.925449	0.326180	-0.000019
1834	1.8238e+02	1.7557	0.319560	0.000217	2.171251	0.367820	-0.000022
1835	1.8248e+02	1.7464	0.296749	0.000229	2.294152	0.388640	-0.000023
1836	1.8258e+02	1.7345	0.276789	0.000201	2.007383	0.340060	-0.000020
1837	1.8268e+02	1.7260	0.253571	0.000234	2.335119	0.395580	-0.000023
1838	1.8278e+02	1.7178	0.236462	0.000172	1.720614	0.291480	-0.000017
1839	1.8288e+02	1.7059	0.214466	0.000221	2.212218	0.374760	-0.000022
1840	1.8298e+02	1.6953	0.194506	0.000201	2.007383	0.340060	-0.000020
1841	1.8308e+02	1.6865	0.170880	0.000238	2.376086	0.402520	-0.000024
1842	1.8318e+02	1.6752	0.149698	0.000213	2.130284	0.360880	-0.000021
1843	1.8328e+02	1.6667	0.128924	0.000209	2.089317	0.353940	-0.000021
1844	1.8338e+02	1.6566	0.108149	0.000209	2.089317	0.353940	-0.000021
1845	1.8348e+02	1.6484	0.089004	0.000193	1.925449	0.326180	-0.000019
1846	1.8358e+02	1.6362	0.064971	0.000242	2.417053	0.409460	-0.000024
1847	1.8368e+02	1.6270	0.045826	0.000193	1.925449	0.326180	-0.000019
1848	1.8378e+02	1.6166	0.026274	0.000197	1.966416	0.333120	-0.000020
1849	1.8388e+02	1.6080	0.002240	0.000242	2.417053	0.409460	-0.000024
1850	1.8398e+02	1.5958	-0.014461	0.000168	1.679647	0.284540	-0.000017
1851	1.8407e+02	1.5879	-0.037679	0.000234	2.335119	0.395580	-0.000023
1852	1.8417e+02	1.5769	-0.059268	0.000217	2.171251	0.367820	-0.000022
1853	1.8427e+02	1.5653	-0.080043	0.000209	2.089317	0.353940	-0.000021
1854	1.8437e+02	1.5565	-0.102447	0.000225	2.253185	0.381700	-0.000023
1855	1.8447e+02	1.5475	-0.126887	0.000246	2.458020	0.416400	-0.000025
1856	1.8457e+02	1.5368	-0.149291	0.000225	2.253185	0.381700	-0.000023
1857	1.8467e+02	1.5266	-0.170473	0.000213	2.130284	0.360880	-0.000021
1858	1.8477e+02	1.5166	-0.192469	0.000221	2.212218	0.374760	-0.000022
1859	1.8487e+02	1.5060	-0.214059	0.000217	2.171251	0.367820	-0.000022
1860	1.8497e+02	1.4943	-0.239721	0.000258	2.580921	0.437220	-0.000026
1861	1.8507e+02	1.4901	-0.261310	0.000217	2.171251	0.367820	-0.000022
1862	1.8517e+02	1.4787	-0.284529	0.000234	2.335119	0.395580	-0.000023
1863	1.8527e+02	1.4696	-0.308969	0.000246	2.458020	0.416400	-0.000025
1864	1.8537e+02	1.4570	-0.333817	0.000250	2.498987	0.423340	-0.000025
1865	1.8547e+02	1.4474	-0.351333	0.000176	1.761581	0.298420	-0.000018
1866	1.8557e+02	1.4368	-0.381069	0.000299	2.990591	0.506620	-0.000030
1867	1.8567e+02	1.4285	-0.404287	0.000234	2.335119	0.395580	-0.000023
1868	1.8577e+02	1.4178	-0.428321	0.000242	2.417053	0.409460	-0.000024
1869	1.8587e+02	1.4067	-0.451539	0.000234	2.335119	0.395580	-0.000023
1870	1.8597e+02	1.3975	-0.477609	0.000262	2.621888	0.444160	-0.000026
1871	1.8606e+02	1.3874	-0.499606	0.000221	2.212218	0.374760	-0.000022
1872	1.8616e+02	1.3788	-0.526490	0.000270	2.703822	0.458040	-0.000027
1873	1.8626e+02	1.3680	-0.550931	0.000246	2.458020	0.416400	-0.000025
1874	1.8636e+02	1.3597	-0.574557	0.000238	2.376086	0.402520	-0.000024
1875	1.8646e+02	1.3479	-0.596961	0.000225	2.253185	0.381700	-0.000023
1876	1.8656e+02	1.3378	-0.620994	0.000242	2.417053	0.409460	-0.000024
1877	1.8666e+02	1.3303	-0.647471	0.000266	2.662855	0.451100	-0.000027
1878	1.8676e+02	1.3199	-0.667431	0.000201	2.007383	0.340060	-0.000020
1879	1.8686e+02	1.3092	-0.694315	0.000270	2.703822	0.458040	-0.000027
1880	1.8696e+02	1.2979	-0.717127	0.000229	2.294152	0.388640	-0.000023
1881	1.8706e+02	1.2888	-0.743196	0.000262	2.621888	0.444160	-0.000026
1882	1.8716e+02	1.2774	-0.765193	0.000221	2.212218	0.374760	-0.000022
1883	1.8726e+02	1.2672	-0.790448	0.000254	2.539954	0.430280	-0.000025
1884	1.8736e+02	1.2591	-0.816111	0.000258	2.580921	0.437220	-0.000026
1885	1.8746e+02	1.2508	-0.839329	0.000234	2.335119	0.395580	-0.000023
1886	1.8756e+02	1.2392	-0.864177	0.000250	2.498987	0.423340	-0.000025
1887	1.8766e+02	1.2304	-0.889432	0.000254	2.539954	0.430280	-0.000025
1888	1.8776e+02	1.2186	-0.910614	0.000213	2.130284	0.360880	-0.000021
1889	1.8786e+02	1.2096	-0.937092	0.000266	2.662855	0.451100	-0.000027
1890	1.8796e+02	1.1980	-0.963569	0.000266	2.662855	0.451100	-0.000027
1891	1.8806e+02	1.1919	-0.988417	0.000250	2.498987	0.423340	-0.000025
1892	1.8815e+02	1.1806	-1.010006	0.000217	2.171251	0.367820	-0.000022
1893	1.8825e+02	1.1674	-1.037705	0.000279	2.785756	0.471920	-0.000028
1894	1.8835e+02	1.1600	-1.060516	0.000229	2.294152	0.388640	-0.000023
1895	1.8845e+02	1.1485	-1.089030	0.000287	2.867690	0.485800	-0.000029
1896	1.8855e+02	1.1391	-1.111434	0.000225	2.253185	0.381700	-0.000023
1897	1.8865e+02	1.1313	-1.139133	0.000279	2.785756	0.471920	-0.000028
1898	1.8875e+02	1.1203	-1.166018	0.000270	2.703822	0.458040	-0.000027
1899	1.8885e+02	1.1124	-1.188015	0.000221	2.212218	0.374760	-0.000022
1900	1.8895e+02	1.1003	-1.218565	0.000307	3.072525	0.520500	-0.000031
1901	1.8905e+02	1.0912	-1.242598	0.000242	2.417053	0.409460	-0.000024
1902	1.8915e+02	1.0819	-1.268668	0.000262	2.621888	0.444160	-0.000026
1903	1.8925e+02	1.0712	-1.293109	0.000246	2.458020	0.416400	-0.000025
1904	1.8935e+02	1.0599	-1.324067	0.000311	3.113492	0.527440	-0.000031
1905	1.8945e+02	1.0531	-1.348915	0.000250	2.498987	0.423340	-0.000025
1906	1.8955e+02	1.0409	-1.377021	0.000283	2.826723	0.478860	-0.000028
1907	1.8965e+02	1.0289	-1.400647	0.000238	2.376086	0.402520	-0.000024
1908	1.8975e+02	1.0214	-1.427532	0.000270	2.703822	0.458040	-0.000027
1909	1.8985e+02	1.0136	-1.454009	0.000266	2.662855	0.451100	-0.000027
1910	1.8995e+02	0.9989	-1.482116	0.000283	2.826723	0.478860	-0.000028
1911	1.9004e+02	0.9917	-1.508186	0.000262	2.621888	0.444160	-0.000026
1912	1.9014e+02	0.9820	-1.531812	0.000238	2.376086	0.402520	-0.000024
1913	1.9024e+02	0.9711	-1.559104	0.000274	2.744789	0.464980	-0.000027
1914	1.9034e+02	0.9620	-1.584359	0.000254	2.539954	0.430280	-0.000025
1915	1.9044e+02	0.9509	-1.612873	0.000287	2.867690	0.485800	-0.000029
1916	1.9054e+02	0.9399	-1.636091	0.000234	2.335119	0.395580	-0.000023
1917	1.9064e+02	0.9296	-1.667457	0.000315	3.154459	0.534380	-0.000032
1918	1.9074e+02	0.9192	-1.687009	0.000197	1.966416	0.333120	-0.000020
1919	1.9084e+02	0.9140	-1.717153	0.000303	3.031558	0.513560	-0.000030
1920	1.9094e+02	0.9024	-1.742000	0.000250	2.498987	0.423340	-0.000025
1921	1.9104e+02	0.8889	-1.768885	0.000270	2.703822	0.458040	-0.000027
1922	1.9114e+02	0.8823	-1.798621	0.000299	2.990591	0.506620	-0.000030
1923	1.9124e+02	0.8736	-1.821025	0.000225	2.253185	0.381700	-0.000023
1924	1.9134e+02	0.8619	-1.848317	0.000274	2.744789	0.464980	-0.000027
1925	1.9144e+02	0.8519	-1.877238	0.000291	2.908657	0.492740	-0.000029
1926	1.9154e+02	0.8416	-1.902493	0.000254	2.539954	0.430280	-0.000025
1927	1.9164e+02	0.8305	-1.926934	0.000246	2.458020	0.416400	-0.000025
1928	1.9174e+02	0.8224	-1.951782	0.000250	2.498987	0.423340	-0.000025
1929	1.9184e+02	0.8127	-1.977852	0.000262	2.621888	0.444160	-0.000026
1930	1.9194e+02	0.8035	-2.002292	0.000246	2.458020	0.416400	-0.000025
1931	1.9203e+02	0.7922	-2.030399	0.000283	2.826723	0.478860	-0.000028
1932	1.9213e+02	0.7834	-2.059320	0.000291	2.908657	0.492740	-0.000029
1933	1.9223e+02	0.7720	-2.083353	0.000242	2.417053	0.409460	-0.000024
1934	1.9233e+02	0.7622	-2.112275	0.000291	2.908657	0.492740	-0.000029
1935	1.9243e+02	0.7502	-2.135493	0.000234	2.335119	0.395580	-0.000023
1936	1.9253e+02	0.7427	-2.161563	0.000262	2.621888	0.444160	-0.000026
1937	1.9263e+02	0.7325	-2.188855	0.000274	2.744789	0.464980	-0.000027
1938	1.9273e+02	0.7220	-2.211666	0.000229	2.294152	0.388640	-0.000023
1939	1.9283e+02	0.7116	-2.241402	0.000299	2.990591	0.506620	-0.000030
1940	1.9293e+02	0.7008	-2.260955	0.000197	1.966416	0.333120	-0.000020
1941	1.9303e+02	0.6927	-2.288654	0.000279	2.785756	0.471920	-0.000028
1942	1.9313e+02	0.6814	-2.312687	0.000242	2.417053	0.409460	-0.000024
1943	1.9323e+02	0.6711	-2.334276	0.000217	2.171251	0.367820	-0.000022
1944	1.9333e+02	0.6618	-2.363198	0.000291	2.908657	0.492740	-0.000029
1945	1.9343e+02	0.6491	-2.384380	0.000213	2.130284	0.360880	-0.000021
1946	1.9353e+02	0.6409	-2.409228	0.000250	2.498987	0.423340	-0.000025
1947	1.9363e+02	0.6328	-2.434483	0.000254	2.539954	0.430280	-0.000025
1948	1.9373e+02	0.6219	-2.460145	0.000258	2.580921	0.437220	-0.000026
1949	1.9383e+02	0.6133	-2.482549	0.000225	2.253185	0.381700	-0.000023
1950	1.9393e+02	0.6036	-2.504546	0.000221	2.212218	0.374760	-0.000022
1951	1.9403e+02	0.5927	-2.531430	0.000270	2.703822	0.458040	-0.000027
1952	1.9412e+02	0.5830	-2.550983	0.000197	1.966416	0.333120	-0.000020
1953	1.9422e+02	0.5723	-2.577460	0.000266	2.662855	0.451100	-0.000027
1954	1.9432e+02	0.5625	-2.599456	0.000221	2.212218	0.374760	-0.000022
1955	1.9442e+02	0.5517	-2.623490	0.000242	2.417053	0.409460	-0.000024
1956	1.9452e+02	0.5431	-2.651189	0.000279	2.785756	0.471920	-0.000028
1957	1.9462e+02	0.5344	-2.669927	0.000188	1.884482	0.319240	-0.000019
1958	1.9472e+02	0.5236	-2.697219	0.000274	2.744789	0.464980	-0.000027
1959	1.9482e+02	0.5126	-2.716364	0.000193	1.925449	0.326180	-0.000019
1960	1.9492e+02	0.5046	-2.739175	0.000229	2.294152	0.388640	-0.000023
1961	1.9502e+02	0.4942	-2.765652	0.000266	2.662855	0.451100	-0.000027
1962	1.9512e+02	0.4826	-2.792537	0.000270	2.703822	0.458040	-0.000027
1963	1.9522e+02	0.4752	-2.812497	0.000201	2.007383	0.340060	-0.000020
1964	1.9532e+02	0.4619	-2.839789	0.000274	2.744789	0.464980	-0.000027
1965	1.9542e+02	0.4559	-2.862600	0.000229	2.294152	0.388640	-0.000023
1966	1.9552e+02	0.4430	-2.885818	0.000234	2.335119	0.395580	-0.000023
1967	1.9562e+02	0.4361	-2.907815	0.000221	2.212218	0.374760	-0.000022
1968	1.9572e+02	0.4244	-2.929811	0.000221	2.212218	0.374760	-0.000022
1969	1.9582e+02	0.4121	-2.955067	0.000254	2.539954	0.430280	-0.000025
1970	1.9592e+02	0.4050	-2.978692	0.000238	2.376086	0.402520	-0.000024
1971	1.9601e+02	0.3954	-3.001504	0.000229	2.294152	0.388640	-0.000023
1972	1.9611e+02	0.3806	-3.027166	0.000258	2.580921	0.437220	-0.000026
1973	1.9621e+02	0.3732	-3.051199	0.000242	2.417053	0.409460	-0.000024
1974	1.9631e+02	0.3635	-3.074825	0.000238	2.376086	0.402520	-0.000024
1975	1.9641e+02	0.3539	-3.093970	0.000193	1.925449	0.326180	-0.000019
1976	1.9651e+02	0.3459	-3.118411	0.000246	2.458020	0.416400	-0.000025
1977	1.9661e+02	0.3335	-3.140407	0.000221	2.212218	0.374760	-0.000022
1978	1.9671e+02	0.3236	-3.166070	0.000258	2.580921	0.437220	-0.000026
1979	1.9681e+02	0.3164	-3.190511	0.000246	2.458020	0.416400	-0.000025
1980	1.9691e+02	0.3039	-3.210063	0.000197	1.966416	0.333120	-0.000020
1981	1.9701e+02	0.2951	-3.233689	0.000238	2.376086	0.402520	-0.000024
1982	1.9711e+02	0.2848	-3.256500	0.000229	2.294152	0.388640	-0.000023
1983	1.9721e+02	0.2726	-3.278904	0.000225	2.253185	0.381700	-0.000023
1984	1.9731e+02	0.2642	-3.302122	0.000234	2.335119	0.395580	-0.000023
1985	1.9741e+02	0.2541	-3.328192	0.000262	2.621888	0.444160	-0.000026
1986	1.9751e+02	0.2441	-3.344079	0.000160	1.597713	0.270660	-0.000016
1987	1.9761e+02	0.2346	-3.368927	0.000250	2.498987	0.423340	-0.000025
1988	1.9771e+02	0.2213	-3.392552	0.000238	2.376086	0.402520	-0.000024
1989	1.9781e+02	0.2148	-3.412512	0.000201	2.007383	0.340060	-0.000020
1990	1.9791e+02	0.2058	-3.436138	0.000238	2.376086	0.402520	-0.000024
1991	1.9800e+02	0.1971	-3.457320	0.000213	2.130284	0.360880	-0.000021
1992	1.9810e+02	0.1840	-3.478909	0.000217	2.171251	0.367820	-0.000022
1993	1.9820e+02	0.1745	-3.499276	0.000205	2.048350	0.347000	-0.000020
1994	1.9830e+02	0.1649	-3.523309	0.000242	2.417053	0.409460	-0.000024
1995	1.9840e+02	0.1532	-3.543269	0.000201	2.007383	0.340060	-0.000020
1996	1.9850e+02	0.1435	-3.568932	0.000258	2.580921	0.437220	-0.000026
1997	1.9860e+02	0.1346	-3.593372	0.000246	2.458020	0.416400	-0.000025
1998	1.9870e+02	0.1254	-3.613332	0.000201	2.007383	0.340060	-0.000020
1999	1.9880e+02	0.1145	-3.635329	0.000221	2.212218	0.374760	-0.000022
2000	1.9890e+02	0.1031	-3.660176	0.000250	2.498987	0.423340	-0.000025
2001	1.9900e+02	0.0947	-3.685839	0.000258	2.580921	0.437220	-0.000026
2002	1.9910e+02	0.0859	-3.703355	0.000176	1.761581	0.298420	-0.000018
2003	1.9920e+02	0.0739	-3.726166	0.000229	2.294152	0.388640	-0.000023
2004	1.9930e+02	0.0665	-3.751014	0.000250	2.498987	0.423340	-0.000025
2005	1.9940e+02	0.0562	-3.774232	0.000234	2.335119	0.395580	-0.000023
2006	1.9950e+02	0.0436	-3.793378	0.000193	1.925449	0.326180	-0.000019
2007	1.9960e+02	0.0374	-3.815781	0.000225	2.253185	0.381700	-0.000023
2008	1.9970e+02	0.0228	-3.843888	0.000283	2.826723	0.478860	-0.000028
2009	1.9980e+02	0.0144	-3.865477	0.000217	2.171251	0.367820	-0.000022
2010	1.9990e+02	0.0056	-3.887881	0.000225	2.253185	0.381700	-0.000023
2011	2.0000e+02	-0.0034	-3.910285	0.000225	2.253185	0.381700	-0.000023

PMax (uC/cm2):	2.71e+01
Pr (uC/cm2):	9.88e+00
-Pr (uC/cm2):	0.00e+00
PLoss (uC/cm2):	0.00e+00
C (Max-Eff) (nF):	2.71e-01
K (Eff):	4.59e+02
Vert. (+/-Pr) Shift (uC/cm2):	4.94e+00
Offset (uC/cm2):	1.38e+01

A (Loop Area - uC/cm2·Volts):	-8.79e-02



Hysteresis Version: 5.48.1 - Radiant Technologies, Inc., 1999 - 9/12/24

