»»»»»»»»»»»»»»»»»»»»»»»»»»»»»»»»»»»» Hysteresis ««««««««««««««««««««««««««««««««««««
»»»  Executed Version:	5.48.1
»»»  Vision Version:	5.48.4 (R)
»»»  Vision Compiled:	9/18/24
»»»  Driver Version:	5.47.0
»»»  Windows Version:	Windows 8 or 8.1
»»»  Processor Information:	x86 (AMD or Intel) - 32 Processors
»»»  Tester Name:	PMF21124-494 (100V)
»»»  Tester S/N:	PMF21124-494
»»»  Internal Amp Type:	100V RevK 270k
»»»  Internal Amp S/N:	iAB2-596/K     
»»»  Execution Count:	1
»»»»»»»»»»»»»»»»»»»»»»»»»»»»»»»»»»»»»»»»»»««««««««««««««««««««««««««««««««««««««««««

Stored:	6/26/2025 - 17:18:4
Configured:	06/26/25 10:24:47 AM
Executed:	06/26/25 05:15:58 PM

»»»»»»»»»»»»»»»»»»»»»»»»»»»»»»»»»»» Sample Info ««««««««««««««««««««««««««««««««««««
Sample Name:	
Lot Name:	
Wafer Name:	
Die Row/Column:	0/0
Capacitor Number:	0
Sample Area (cm2):	1.00e-04
Sample Thickness (microns):	1.50e-01

Amplifier:	Internal

»»»»»»»»»»»»»»»»»»»»»»»»»»»»»»»»»»» Tester Info «««««««««««««««««««««««««««««««««««
Tester Name:	PMF21124-494 (100V)
Tester Serial Number:	PMF21124-494
Return Signal Amp. Level:	1.9 [Index: 2]

»»»»»»»»»»»»»»»»»»»»»»»»»»»»»»»» Hysteresis Info ««««««««««««««««««««««««««««««««««
Task Name:	Hyst-562
Volts:	10.00
Field:	666.67 (kV/cm)
DCBias:	0.00
DCField:	0.00 (kV/cm)
Hysteresis Period (ms):	2.00e+02
Preset:	Enabled
Preset Delay (ms):	1.00e+03
Profile:	Standard Monopolar

»»»»»»»»»»»»»»»»»»»»»»»»»»»»»»»»»»»»»» Data «««««««««««««««««««««««««««««««««««««««
Points:	2011

Valid Data

Point	Time (ms)	Drive Voltage	Measured Polarization (uC/cm2)	Capacitance (uF)	Normalized Capacitance (uF/cm2)	Dielectric Constant	Instantaneous Current (mA)
   1	0.0000e+00	-0.0051	-10.677263	0.000233	2.333328	0.395277	0.000023
   2	9.9500e-02	0.0038	-10.654044	0.000233	2.333328	0.395277	0.000023
   3	1.9900e-01	0.0176	-10.636936	0.000172	1.719295	0.291256	0.000017
   4	2.9850e-01	0.0242	-10.609644	0.000274	2.742684	0.464623	0.000027
   5	3.9800e-01	0.0365	-10.586018	0.000237	2.374264	0.402211	0.000024
   6	4.9750e-01	0.0462	-10.562392	0.000237	2.374264	0.402211	0.000024
   7	5.9700e-01	0.0535	-10.540803	0.000217	2.169586	0.367538	0.000022
   8	6.9650e-01	0.0655	-10.520436	0.000205	2.046779	0.346734	0.000020
   9	7.9600e-01	0.0754	-10.495181	0.000254	2.538006	0.429950	0.000025
  10	8.9550e-01	0.0841	-10.471148	0.000242	2.415199	0.409146	0.000024
  11	9.9500e-01	0.0947	-10.446707	0.000246	2.456135	0.416081	0.000025
  12	1.0945e+00	0.1015	-10.427155	0.000196	1.964908	0.332864	0.000020
  13	1.1940e+00	0.1122	-10.403529	0.000237	2.374264	0.402211	0.000024
  14	1.2935e+00	0.1243	-10.386828	0.000168	1.678359	0.284322	0.000017
  15	1.3930e+00	0.1357	-10.362795	0.000242	2.415199	0.409146	0.000024
  16	1.4925e+00	0.1460	-10.337947	0.000250	2.497071	0.423015	0.000025
  17	1.5920e+00	0.1562	-10.318802	0.000192	1.923972	0.325930	0.000019
  18	1.6915e+00	0.1626	-10.294361	0.000246	2.456135	0.416081	0.000025
  19	1.7910e+00	0.1736	-10.272364	0.000221	2.210522	0.374472	0.000022
  20	1.8905e+00	0.1837	-10.251997	0.000205	2.046779	0.346734	0.000020
  21	1.9900e+00	0.1943	-10.221447	0.000307	3.070169	0.520101	0.000031
  22	2.0895e+00	0.2065	-10.199857	0.000217	2.169586	0.367538	0.000022
  23	2.1890e+00	0.2154	-10.180305	0.000196	1.964908	0.332864	0.000020
  24	2.2885e+00	0.2269	-10.160345	0.000201	2.005844	0.339799	0.000020
  25	2.3880e+00	0.2380	-10.139163	0.000213	2.128650	0.360603	0.000021
  26	2.4875e+00	0.2441	-10.115945	0.000233	2.333328	0.395277	0.000023
  27	2.5870e+00	0.2532	-10.097207	0.000188	1.883037	0.318995	0.000019
  28	2.6865e+00	0.2639	-10.076025	0.000213	2.128650	0.360603	0.000021
  29	2.7860e+00	0.2733	-10.050770	0.000254	2.538006	0.429950	0.000025
  30	2.8855e+00	0.2837	-10.029588	0.000213	2.128650	0.360603	0.000021
  31	2.9850e+00	0.2949	-10.004740	0.000250	2.497071	0.423015	0.000025
  32	3.0845e+00	0.3027	-9.981929	0.000229	2.292393	0.388342	0.000023
  33	3.1840e+00	0.3159	-9.957489	0.000246	2.456135	0.416081	0.000025
  34	3.2835e+00	0.3232	-9.933863	0.000237	2.374264	0.402211	0.000024
  35	3.3830e+00	0.3336	-9.910644	0.000233	2.333328	0.395277	0.000023
  36	3.4825e+00	0.3445	-9.890684	0.000201	2.005844	0.339799	0.000020
  37	3.5820e+00	0.3555	-9.865429	0.000254	2.538006	0.429950	0.000025
  38	3.6815e+00	0.3643	-9.842211	0.000233	2.333328	0.395277	0.000023
  39	3.7810e+00	0.3749	-9.812882	0.000295	2.947362	0.499297	0.000029
  40	3.8805e+00	0.3825	-9.794144	0.000188	1.883037	0.318995	0.000019
  41	3.9800e+00	0.3909	-9.770926	0.000233	2.333328	0.395277	0.000023
  42	4.0795e+00	0.4054	-9.750559	0.000205	2.046779	0.346734	0.000020
  43	4.1790e+00	0.4116	-9.720415	0.000303	3.029233	0.513166	0.000030
  44	4.2785e+00	0.4238	-9.696789	0.000237	2.374264	0.402211	0.000024
  45	4.3780e+00	0.4356	-9.673164	0.000237	2.374264	0.402211	0.000024
  46	4.4775e+00	0.4433	-9.648723	0.000246	2.456135	0.416081	0.000025
  47	4.5770e+00	0.4534	-9.624282	0.000246	2.456135	0.416081	0.000025
  48	4.6765e+00	0.4632	-9.599842	0.000246	2.456135	0.416081	0.000025
  49	4.7760e+00	0.4727	-9.570921	0.000291	2.906426	0.492362	0.000029
  50	4.8755e+00	0.4829	-9.549331	0.000217	2.169586	0.367538	0.000022
  51	4.9750e+00	0.4919	-9.524891	0.000246	2.456135	0.416081	0.000025
  52	5.0745e+00	0.5038	-9.493526	0.000315	3.152040	0.533970	0.000032
  53	5.1740e+00	0.5140	-9.471936	0.000217	2.169586	0.367538	0.000022
  54	5.2735e+00	0.5227	-9.449125	0.000229	2.292393	0.388342	0.000023
  55	5.3730e+00	0.5300	-9.420611	0.000287	2.865491	0.485427	0.000029
  56	5.4725e+00	0.5473	-9.394541	0.000262	2.619877	0.443819	0.000026
  57	5.5720e+00	0.5527	-9.371323	0.000233	2.333328	0.395277	0.000023
  58	5.6715e+00	0.5611	-9.345253	0.000262	2.619877	0.443819	0.000026
  59	5.7710e+00	0.5741	-9.317554	0.000278	2.783620	0.471558	0.000028
  60	5.8705e+00	0.5810	-9.294742	0.000229	2.292393	0.388342	0.000023
  61	5.9700e+00	0.5921	-9.267043	0.000278	2.783620	0.471558	0.000028
  62	6.0695e+00	0.6034	-9.240158	0.000270	2.701749	0.457689	0.000027
  63	6.1690e+00	0.6123	-9.215311	0.000250	2.497071	0.423015	0.000025
  64	6.2685e+00	0.6229	-9.190463	0.000250	2.497071	0.423015	0.000025
  65	6.3680e+00	0.6351	-9.166837	0.000237	2.374264	0.402211	0.000024
  66	6.4675e+00	0.6454	-9.139137	0.000278	2.783620	0.471558	0.000028
  67	6.5670e+00	0.6518	-9.115512	0.000237	2.374264	0.402211	0.000024
  68	6.6665e+00	0.6638	-9.085776	0.000299	2.988298	0.506231	0.000030
  69	6.7660e+00	0.6692	-9.061742	0.000242	2.415199	0.409146	0.000024
  70	6.8655e+00	0.6804	-9.043005	0.000188	1.883037	0.318995	0.000019
  71	6.9650e+00	0.6908	-9.016120	0.000270	2.701749	0.457689	0.000027
  72	7.0645e+00	0.7057	-8.990457	0.000258	2.578942	0.436885	0.000026
  73	7.1640e+00	0.7121	-8.963166	0.000274	2.742684	0.464623	0.000027
  74	7.2635e+00	0.7246	-8.943613	0.000196	1.964908	0.332864	0.000020
  75	7.3630e+00	0.7328	-8.916728	0.000270	2.701749	0.457689	0.000027
  76	7.4625e+00	0.7430	-8.895547	0.000213	2.128650	0.360603	0.000021
  77	7.5620e+00	0.7509	-8.876809	0.000188	1.883037	0.318995	0.000019
  78	7.6615e+00	0.7579	-8.849517	0.000274	2.742684	0.464623	0.000027
  79	7.7610e+00	0.7720	-8.825891	0.000237	2.374264	0.402211	0.000024
  80	7.8605e+00	0.7816	-8.799821	0.000262	2.619877	0.443819	0.000026
  81	7.9600e+00	0.7923	-8.777825	0.000221	2.210522	0.374472	0.000022
  82	8.0595e+00	0.8022	-8.753384	0.000246	2.456135	0.416081	0.000025
  83	8.1590e+00	0.8109	-8.729351	0.000242	2.415199	0.409146	0.000024
  84	8.2585e+00	0.8233	-8.706947	0.000225	2.251457	0.381407	0.000023
  85	8.3580e+00	0.8320	-8.675582	0.000315	3.152040	0.533970	0.000032
  86	8.4575e+00	0.8418	-8.656844	0.000188	1.883037	0.318995	0.000019
  87	8.5570e+00	0.8540	-8.629959	0.000270	2.701749	0.457689	0.000027
  88	8.6565e+00	0.8640	-8.611222	0.000188	1.883037	0.318995	0.000019
  89	8.7560e+00	0.8727	-8.587596	0.000237	2.374264	0.402211	0.000024
  90	8.8555e+00	0.8809	-8.563155	0.000246	2.456135	0.416081	0.000025
  91	8.9550e+00	0.8944	-8.542788	0.000205	2.046779	0.346734	0.000020
  92	9.0545e+00	0.8993	-8.515496	0.000274	2.742684	0.464623	0.000027
  93	9.1540e+00	0.9104	-8.492685	0.000229	2.292393	0.388342	0.000023
  94	9.2535e+00	0.9207	-8.467837	0.000250	2.497071	0.423015	0.000025
  95	9.3530e+00	0.9311	-8.444211	0.000237	2.374264	0.402211	0.000024
  96	9.4525e+00	0.9416	-8.418549	0.000258	2.578942	0.436885	0.000026
  97	9.5520e+00	0.9510	-8.395330	0.000233	2.333328	0.395277	0.000023
  98	9.6515e+00	0.9626	-8.371297	0.000242	2.415199	0.409146	0.000024
  99	9.7510e+00	0.9707	-8.344820	0.000266	2.660813	0.450754	0.000027
 100	9.8505e+00	0.9814	-8.321194	0.000237	2.374264	0.402211	0.000024
 101	9.9500e+00	0.9907	-8.298790	0.000225	2.251457	0.381407	0.000023
 102	1.0050e+01	1.0002	-8.271498	0.000274	2.742684	0.464623	0.000027
 103	1.0149e+01	1.0119	-8.248687	0.000229	2.292393	0.388342	0.000023
 104	1.0248e+01	1.0198	-8.225468	0.000233	2.333328	0.395277	0.000023
 105	1.0348e+01	1.0334	-8.200213	0.000254	2.538006	0.429950	0.000025
 106	1.0447e+01	1.0404	-8.173328	0.000270	2.701749	0.457689	0.000027
 107	1.0547e+01	1.0509	-8.156220	0.000172	1.719295	0.291256	0.000017
 108	1.0646e+01	1.0637	-8.127299	0.000291	2.906426	0.492362	0.000029
 109	1.0746e+01	1.0719	-8.103265	0.000242	2.415199	0.409146	0.000024
 110	1.0845e+01	1.0805	-8.070678	0.000327	3.274847	0.554774	0.000033
 111	1.0945e+01	1.0912	-8.048681	0.000221	2.210522	0.374472	0.000022
 112	1.1044e+01	1.0995	-8.026278	0.000225	2.251457	0.381407	0.000023
 113	1.1144e+01	1.1095	-8.001022	0.000254	2.538006	0.429950	0.000025
 114	1.1243e+01	1.1199	-7.979841	0.000213	2.128650	0.360603	0.000021
 115	1.1343e+01	1.1297	-7.953363	0.000266	2.660813	0.450754	0.000027
 116	1.1443e+01	1.1411	-7.931774	0.000217	2.169586	0.367538	0.000022
 117	1.1542e+01	1.1499	-7.909778	0.000221	2.210522	0.374472	0.000022
 118	1.1642e+01	1.1611	-7.889818	0.000201	2.005844	0.339799	0.000020
 119	1.1741e+01	1.1681	-7.863341	0.000266	2.660813	0.450754	0.000027
 120	1.1841e+01	1.1785	-7.837271	0.000262	2.619877	0.443819	0.000026
 121	1.1940e+01	1.1900	-7.816496	0.000209	2.087715	0.353668	0.000021
 122	1.2040e+01	1.2001	-7.797351	0.000192	1.923972	0.325930	0.000019
 123	1.2139e+01	1.2102	-7.770874	0.000266	2.660813	0.450754	0.000027
 124	1.2239e+01	1.2185	-7.750507	0.000205	2.046779	0.346734	0.000020
 125	1.2338e+01	1.2308	-7.721993	0.000287	2.865491	0.485427	0.000029
 126	1.2438e+01	1.2407	-7.702033	0.000201	2.005844	0.339799	0.000020
 127	1.2537e+01	1.2488	-7.684925	0.000172	1.719295	0.291256	0.000017
 128	1.2636e+01	1.2608	-7.661299	0.000237	2.374264	0.402211	0.000024
 129	1.2736e+01	1.2674	-7.642154	0.000192	1.923972	0.325930	0.000019
 130	1.2835e+01	1.2795	-7.618120	0.000242	2.415199	0.409146	0.000024
 131	1.2935e+01	1.2891	-7.596124	0.000221	2.210522	0.374472	0.000022
 132	1.3034e+01	1.3006	-7.575757	0.000205	2.046779	0.346734	0.000020
 133	1.3134e+01	1.3079	-7.554982	0.000209	2.087715	0.353668	0.000021
 134	1.3233e+01	1.3198	-7.535023	0.000201	2.005844	0.339799	0.000020
 135	1.3333e+01	1.3304	-7.513841	0.000213	2.128650	0.360603	0.000021
 136	1.3432e+01	1.3388	-7.493474	0.000205	2.046779	0.346734	0.000020
 137	1.3532e+01	1.3499	-7.472699	0.000209	2.087715	0.353668	0.000021
 138	1.3632e+01	1.3585	-7.451925	0.000209	2.087715	0.353668	0.000021
 139	1.3731e+01	1.3682	-7.429521	0.000225	2.251457	0.381407	0.000023
 140	1.3831e+01	1.3773	-7.412820	0.000168	1.678359	0.284322	0.000017
 141	1.3930e+01	1.3887	-7.387157	0.000258	2.578942	0.436885	0.000026
 142	1.4030e+01	1.3979	-7.365161	0.000221	2.210522	0.374472	0.000022
 143	1.4129e+01	1.4081	-7.345608	0.000196	1.964908	0.332864	0.000020
 144	1.4229e+01	1.4191	-7.326463	0.000192	1.923972	0.325930	0.000019
 145	1.4328e+01	1.4285	-7.309355	0.000172	1.719295	0.291256	0.000017
 146	1.4428e+01	1.4387	-7.286136	0.000233	2.333328	0.395277	0.000023
 147	1.4527e+01	1.4458	-7.269435	0.000168	1.678359	0.284322	0.000017
 148	1.4627e+01	1.4581	-7.241736	0.000278	2.783620	0.471558	0.000028
 149	1.4726e+01	1.4665	-7.226664	0.000151	1.514617	0.256583	0.000015
 150	1.4825e+01	1.4783	-7.203038	0.000237	2.374264	0.402211	0.000024
 151	1.4925e+01	1.4867	-7.181857	0.000213	2.128650	0.360603	0.000021
 152	1.5024e+01	1.4978	-7.159860	0.000221	2.210522	0.374472	0.000022
 153	1.5124e+01	1.5061	-7.138271	0.000217	2.169586	0.367538	0.000022
 154	1.5223e+01	1.5192	-7.119533	0.000188	1.883037	0.318995	0.000019
 155	1.5323e+01	1.5267	-7.095907	0.000237	2.374264	0.402211	0.000024
 156	1.5422e+01	1.5383	-7.072689	0.000233	2.333328	0.395277	0.000023
 157	1.5522e+01	1.5473	-7.051507	0.000213	2.128650	0.360603	0.000021
 158	1.5621e+01	1.5578	-7.031140	0.000205	2.046779	0.346734	0.000020
 159	1.5721e+01	1.5668	-7.008736	0.000225	2.251457	0.381407	0.000023
 160	1.5820e+01	1.5771	-6.986739	0.000221	2.210522	0.374472	0.000022
 161	1.5920e+01	1.5871	-6.963521	0.000233	2.333328	0.395277	0.000023
 162	1.6020e+01	1.5961	-6.939895	0.000237	2.374264	0.402211	0.000024
 163	1.6119e+01	1.6064	-6.916269	0.000237	2.374264	0.402211	0.000024
 164	1.6218e+01	1.6171	-6.898346	0.000180	1.801166	0.305126	0.000018
 165	1.6318e+01	1.6264	-6.875535	0.000229	2.292393	0.388342	0.000023
 166	1.6418e+01	1.6377	-6.852316	0.000233	2.333328	0.395277	0.000023
 167	1.6517e+01	1.6476	-6.831135	0.000213	2.128650	0.360603	0.000021
 168	1.6616e+01	1.6563	-6.808731	0.000225	2.251457	0.381407	0.000023
 169	1.6716e+01	1.6666	-6.788364	0.000205	2.046779	0.346734	0.000020
 170	1.6816e+01	1.6769	-6.765145	0.000233	2.333328	0.395277	0.000023
 171	1.6915e+01	1.6856	-6.743149	0.000221	2.210522	0.374472	0.000022
 172	1.7015e+01	1.6956	-6.724818	0.000184	1.842101	0.312060	0.000018
 173	1.7114e+01	1.7063	-6.701600	0.000233	2.333328	0.395277	0.000023
 174	1.7213e+01	1.7127	-6.676344	0.000254	2.538006	0.429950	0.000025
 175	1.7313e+01	1.7274	-6.653941	0.000225	2.251457	0.381407	0.000023
 176	1.7413e+01	1.7391	-6.631129	0.000229	2.292393	0.388342	0.000023
 177	1.7512e+01	1.7480	-6.611170	0.000201	2.005844	0.339799	0.000020
 178	1.7611e+01	1.7573	-6.585914	0.000254	2.538006	0.429950	0.000025
 179	1.7711e+01	1.7665	-6.563103	0.000229	2.292393	0.388342	0.000023
 180	1.7811e+01	1.7763	-6.542329	0.000209	2.087715	0.353668	0.000021
 181	1.7910e+01	1.7883	-6.524406	0.000180	1.801166	0.305126	0.000018
 182	1.8009e+01	1.7993	-6.504446	0.000201	2.005844	0.339799	0.000020
 183	1.8109e+01	1.8060	-6.481227	0.000233	2.333328	0.395277	0.000023
 184	1.8209e+01	1.8172	-6.461675	0.000196	1.964908	0.332864	0.000020
 185	1.8308e+01	1.8257	-6.438049	0.000237	2.374264	0.402211	0.000024
 186	1.8407e+01	1.8361	-6.420126	0.000180	1.801166	0.305126	0.000018
 187	1.8507e+01	1.8453	-6.394871	0.000254	2.538006	0.429950	0.000025
 188	1.8607e+01	1.8559	-6.373282	0.000217	2.169586	0.367538	0.000022
 189	1.8706e+01	1.8665	-6.350878	0.000225	2.251457	0.381407	0.000023
 190	1.8805e+01	1.8752	-6.331733	0.000192	1.923972	0.325930	0.000019
 191	1.8905e+01	1.8858	-6.310551	0.000213	2.128650	0.360603	0.000021
 192	1.9005e+01	1.8956	-6.288962	0.000217	2.169586	0.367538	0.000022
 193	1.9104e+01	1.9061	-6.267372	0.000217	2.169586	0.367538	0.000022
 194	1.9203e+01	1.9141	-6.249449	0.000180	1.801166	0.305126	0.000018
 195	1.9303e+01	1.9255	-6.228675	0.000209	2.087715	0.353668	0.000021
 196	1.9402e+01	1.9358	-6.205864	0.000229	2.292393	0.388342	0.000023
 197	1.9502e+01	1.9436	-6.188348	0.000176	1.760230	0.298191	0.000018
 198	1.9602e+01	1.9558	-6.165944	0.000225	2.251457	0.381407	0.000023
 199	1.9701e+01	1.9643	-6.140282	0.000258	2.578942	0.436885	0.000026
 200	1.9800e+01	1.9742	-6.119507	0.000209	2.087715	0.353668	0.000021
 201	1.9900e+01	1.9854	-6.098733	0.000209	2.087715	0.353668	0.000021
 202	2.0000e+01	1.9961	-6.075107	0.000237	2.374264	0.402211	0.000024
 203	2.0099e+01	2.0045	-6.047408	0.000278	2.783620	0.471558	0.000028
 204	2.0198e+01	2.0155	-6.030299	0.000172	1.719295	0.291256	0.000017
 205	2.0298e+01	2.0245	-6.008303	0.000221	2.210522	0.374472	0.000022
 206	2.0398e+01	2.0349	-5.985084	0.000233	2.333328	0.395277	0.000023
 207	2.0497e+01	2.0464	-5.959422	0.000258	2.578942	0.436885	0.000026
 208	2.0596e+01	2.0523	-5.938647	0.000209	2.087715	0.353668	0.000021
 209	2.0696e+01	2.0654	-5.917465	0.000213	2.128650	0.360603	0.000021
 210	2.0796e+01	2.0770	-5.897098	0.000205	2.046779	0.346734	0.000020
 211	2.0895e+01	2.0868	-5.868584	0.000287	2.865491	0.485427	0.000029
 212	2.0994e+01	2.0969	-5.846995	0.000217	2.169586	0.367538	0.000022
 213	2.1094e+01	2.1070	-5.820925	0.000262	2.619877	0.443819	0.000026
 214	2.1194e+01	2.1122	-5.799336	0.000217	2.169586	0.367538	0.000022
 215	2.1293e+01	2.1257	-5.772044	0.000274	2.742684	0.464623	0.000027
 216	2.1392e+01	2.1352	-5.751677	0.000205	2.046779	0.346734	0.000020
 217	2.1492e+01	2.1436	-5.728051	0.000237	2.374264	0.402211	0.000024
 218	2.1591e+01	2.1533	-5.703203	0.000250	2.497071	0.423015	0.000025
 219	2.1691e+01	2.1636	-5.680799	0.000225	2.251457	0.381407	0.000023
 220	2.1791e+01	2.1763	-5.653100	0.000278	2.783620	0.471558	0.000028
 221	2.1890e+01	2.1827	-5.625401	0.000278	2.783620	0.471558	0.000028
 222	2.1989e+01	2.1941	-5.606256	0.000192	1.923972	0.325930	0.000019
 223	2.2089e+01	2.2060	-5.581000	0.000254	2.538006	0.429950	0.000025
 224	2.2189e+01	2.2155	-5.556152	0.000250	2.497071	0.423015	0.000025
 225	2.2288e+01	2.2251	-5.534156	0.000221	2.210522	0.374472	0.000022
 226	2.2387e+01	2.2337	-5.506049	0.000282	2.824555	0.478493	0.000028
 227	2.2487e+01	2.2443	-5.483645	0.000225	2.251457	0.381407	0.000023
 228	2.2587e+01	2.2549	-5.460834	0.000229	2.292393	0.388342	0.000023
 229	2.2686e+01	2.2649	-5.432728	0.000282	2.824555	0.478493	0.000028
 230	2.2785e+01	2.2757	-5.412360	0.000205	2.046779	0.346734	0.000020
 231	2.2885e+01	2.2832	-5.386291	0.000262	2.619877	0.443819	0.000026
 232	2.2985e+01	2.2942	-5.360628	0.000258	2.578942	0.436885	0.000026
 233	2.3084e+01	2.3007	-5.336595	0.000242	2.415199	0.409146	0.000024
 234	2.3183e+01	2.3153	-5.310118	0.000266	2.660813	0.450754	0.000027
 235	2.3283e+01	2.3244	-5.287306	0.000229	2.292393	0.388342	0.000023
 236	2.3383e+01	2.3360	-5.263680	0.000237	2.374264	0.402211	0.000024
 237	2.3482e+01	2.3431	-5.239240	0.000246	2.456135	0.416081	0.000025
 238	2.3581e+01	2.3539	-5.220095	0.000192	1.923972	0.325930	0.000019
 239	2.3681e+01	2.3640	-5.197284	0.000229	2.292393	0.388342	0.000023
 240	2.3780e+01	2.3740	-5.174472	0.000229	2.292393	0.388342	0.000023
 241	2.3880e+01	2.3845	-5.148403	0.000262	2.619877	0.443819	0.000026
 242	2.3980e+01	2.3930	-5.123555	0.000250	2.497071	0.423015	0.000025
 243	2.4079e+01	2.4035	-5.099929	0.000237	2.374264	0.402211	0.000024
 244	2.4178e+01	2.4130	-5.079562	0.000205	2.046779	0.346734	0.000020
 245	2.4278e+01	2.4222	-5.058787	0.000209	2.087715	0.353668	0.000021
 246	2.4378e+01	2.4354	-5.034347	0.000246	2.456135	0.416081	0.000025
 247	2.4477e+01	2.4440	-5.014387	0.000201	2.005844	0.339799	0.000020
 248	2.4576e+01	2.4545	-4.989132	0.000254	2.538006	0.429950	0.000025
 249	2.4676e+01	2.4640	-4.968764	0.000205	2.046779	0.346734	0.000020
 250	2.4776e+01	2.4733	-4.944324	0.000246	2.456135	0.416081	0.000025
 251	2.4875e+01	2.4847	-4.922735	0.000217	2.169586	0.367538	0.000022
 252	2.4974e+01	2.4932	-4.900738	0.000221	2.210522	0.374472	0.000022
 253	2.5074e+01	2.5036	-4.877927	0.000229	2.292393	0.388342	0.000023
 254	2.5174e+01	2.5132	-4.855931	0.000221	2.210522	0.374472	0.000022
 255	2.5273e+01	2.5235	-4.828231	0.000278	2.783620	0.471558	0.000028
 256	2.5372e+01	2.5322	-4.808679	0.000196	1.964908	0.332864	0.000020
 257	2.5472e+01	2.5437	-4.788719	0.000201	2.005844	0.339799	0.000020
 258	2.5572e+01	2.5530	-4.765093	0.000237	2.374264	0.402211	0.000024
 259	2.5671e+01	2.5617	-4.741060	0.000242	2.415199	0.409146	0.000024
 260	2.5770e+01	2.5713	-4.721915	0.000192	1.923972	0.325930	0.000019
 261	2.5870e+01	2.5830	-4.696252	0.000258	2.578942	0.436885	0.000026
 262	2.5970e+01	2.5913	-4.675070	0.000213	2.128650	0.360603	0.000021
 263	2.6069e+01	2.6022	-4.651852	0.000233	2.333328	0.395277	0.000023
 264	2.6169e+01	2.6127	-4.630670	0.000213	2.128650	0.360603	0.000021
 265	2.6268e+01	2.6196	-4.606230	0.000246	2.456135	0.416081	0.000025
 266	2.6367e+01	2.6322	-4.580160	0.000262	2.619877	0.443819	0.000026
 267	2.6467e+01	2.6432	-4.557756	0.000225	2.251457	0.381407	0.000023
 268	2.6567e+01	2.6550	-4.538203	0.000196	1.964908	0.332864	0.000020
 269	2.6666e+01	2.6617	-4.514170	0.000242	2.415199	0.409146	0.000024
 270	2.6765e+01	2.6699	-4.488915	0.000254	2.538006	0.429950	0.000025
 271	2.6865e+01	2.6811	-4.466918	0.000221	2.210522	0.374472	0.000022
 272	2.6965e+01	2.6921	-4.442071	0.000250	2.497071	0.423015	0.000025
 273	2.7064e+01	2.7045	-4.418852	0.000233	2.333328	0.395277	0.000023
 274	2.7163e+01	2.7139	-4.396856	0.000221	2.210522	0.374472	0.000022
 275	2.7263e+01	2.7245	-4.373637	0.000233	2.333328	0.395277	0.000023
 276	2.7363e+01	2.7332	-4.348789	0.000250	2.497071	0.423015	0.000025
 277	2.7462e+01	2.7413	-4.325163	0.000237	2.374264	0.402211	0.000024
 278	2.7561e+01	2.7541	-4.300315	0.000250	2.497071	0.423015	0.000025
 279	2.7661e+01	2.7650	-4.279134	0.000213	2.128650	0.360603	0.000021
 280	2.7761e+01	2.7708	-4.254286	0.000250	2.497071	0.423015	0.000025
 281	2.7860e+01	2.7805	-4.229030	0.000254	2.538006	0.429950	0.000025
 282	2.7959e+01	2.7905	-4.213144	0.000160	1.596488	0.270452	0.000016
 283	2.8059e+01	2.8013	-4.183815	0.000295	2.947362	0.499297	0.000029
 284	2.8159e+01	2.8129	-4.163041	0.000209	2.087715	0.353668	0.000021
 285	2.8258e+01	2.8213	-4.145932	0.000172	1.719295	0.291256	0.000017
 286	2.8358e+01	2.8313	-4.117419	0.000287	2.865491	0.485427	0.000029
 287	2.8457e+01	2.8403	-4.099903	0.000176	1.760230	0.298191	0.000018
 288	2.8556e+01	2.8519	-4.078721	0.000213	2.128650	0.360603	0.000021
 289	2.8656e+01	2.8603	-4.057946	0.000209	2.087715	0.353668	0.000021
 290	2.8756e+01	2.8719	-4.033913	0.000242	2.415199	0.409146	0.000024
 291	2.8855e+01	2.8808	-4.011509	0.000225	2.251457	0.381407	0.000023
 292	2.8954e+01	2.8893	-3.995216	0.000164	1.637423	0.277387	0.000016
 293	2.9054e+01	2.9013	-3.971590	0.000237	2.374264	0.402211	0.000024
 294	2.9154e+01	2.9137	-3.950408	0.000213	2.128650	0.360603	0.000021
 295	2.9253e+01	2.9211	-3.933300	0.000172	1.719295	0.291256	0.000017
 296	2.9352e+01	2.9305	-3.909266	0.000242	2.415199	0.409146	0.000024
 297	2.9452e+01	2.9392	-3.886863	0.000225	2.251457	0.381407	0.000023
 298	2.9552e+01	2.9497	-3.870162	0.000168	1.678359	0.284322	0.000017
 299	2.9651e+01	2.9631	-3.849387	0.000209	2.087715	0.353668	0.000021
 300	2.9750e+01	2.9701	-3.831871	0.000176	1.760230	0.298191	0.000018
 301	2.9850e+01	2.9812	-3.809060	0.000229	2.292393	0.388342	0.000023
 302	2.9950e+01	2.9906	-3.789915	0.000192	1.923972	0.325930	0.000019
 303	3.0049e+01	3.0029	-3.770770	0.000192	1.923972	0.325930	0.000019
 304	3.0148e+01	3.0110	-3.750403	0.000205	2.046779	0.346734	0.000020
 305	3.0248e+01	3.0191	-3.732072	0.000184	1.842101	0.312060	0.000018
 306	3.0348e+01	3.0299	-3.708039	0.000242	2.415199	0.409146	0.000024
 307	3.0447e+01	3.0383	-3.689709	0.000184	1.842101	0.312060	0.000018
 308	3.0547e+01	3.0487	-3.669749	0.000201	2.005844	0.339799	0.000020
 309	3.0646e+01	3.0613	-3.651011	0.000188	1.883037	0.318995	0.000019
 310	3.0745e+01	3.0685	-3.634310	0.000168	1.678359	0.284322	0.000017
 311	3.0845e+01	3.0785	-3.609870	0.000246	2.456135	0.416081	0.000025
 312	3.0945e+01	3.0892	-3.597649	0.000123	1.228068	0.208040	0.000012
 313	3.1044e+01	3.0988	-3.572802	0.000250	2.497071	0.423015	0.000025
 314	3.1143e+01	3.1104	-3.556508	0.000164	1.637423	0.277387	0.000016
 315	3.1243e+01	3.1202	-3.535326	0.000213	2.128650	0.360603	0.000021
 316	3.1343e+01	3.1274	-3.517403	0.000180	1.801166	0.305126	0.000018
 317	3.1442e+01	3.1394	-3.493370	0.000242	2.415199	0.409146	0.000024
 318	3.1541e+01	3.1522	-3.477076	0.000164	1.637423	0.277387	0.000016
 319	3.1641e+01	3.1604	-3.457524	0.000196	1.964908	0.332864	0.000020
 320	3.1741e+01	3.1699	-3.436342	0.000213	2.128650	0.360603	0.000021
 321	3.1840e+01	3.1781	-3.413938	0.000225	2.251457	0.381407	0.000023
 322	3.1939e+01	3.1902	-3.397644	0.000164	1.637423	0.277387	0.000016
 323	3.2039e+01	3.2015	-3.374426	0.000233	2.333328	0.395277	0.000023
 324	3.2139e+01	3.2119	-3.356503	0.000180	1.801166	0.305126	0.000018
 325	3.2238e+01	3.2168	-3.334913	0.000217	2.169586	0.367538	0.000022
 326	3.2337e+01	3.2290	-3.313732	0.000213	2.128650	0.360603	0.000021
 327	3.2437e+01	3.2386	-3.294179	0.000196	1.964908	0.332864	0.000020
 328	3.2536e+01	3.2491	-3.269739	0.000246	2.456135	0.416081	0.000025
 329	3.2636e+01	3.2615	-3.248964	0.000209	2.087715	0.353668	0.000021
 330	3.2736e+01	3.2688	-3.233893	0.000151	1.514617	0.256583	0.000015
 331	3.2835e+01	3.2800	-3.208230	0.000258	2.578942	0.436885	0.000026
 332	3.2934e+01	3.2910	-3.191529	0.000168	1.678359	0.284322	0.000017
 333	3.3034e+01	3.3003	-3.167496	0.000242	2.415199	0.409146	0.000024
 334	3.3133e+01	3.3076	-3.147129	0.000205	2.046779	0.346734	0.000020
 335	3.3233e+01	3.3195	-3.125947	0.000213	2.128650	0.360603	0.000021
 336	3.3333e+01	3.3292	-3.108838	0.000172	1.719295	0.291256	0.000017
 337	3.3432e+01	3.3371	-3.086435	0.000225	2.251457	0.381407	0.000023
 338	3.3532e+01	3.3492	-3.062809	0.000237	2.374264	0.402211	0.000024
 339	3.3631e+01	3.3605	-3.042442	0.000205	2.046779	0.346734	0.000020
 340	3.3730e+01	3.3677	-3.020852	0.000217	2.169586	0.367538	0.000022
 341	3.3830e+01	3.3789	-2.999263	0.000217	2.169586	0.367538	0.000022
 342	3.3929e+01	3.3875	-2.976452	0.000229	2.292393	0.388342	0.000023
 343	3.4029e+01	3.3975	-2.959344	0.000172	1.719295	0.291256	0.000017
 344	3.4129e+01	3.4098	-2.934088	0.000254	2.538006	0.429950	0.000025
 345	3.4228e+01	3.4199	-2.912092	0.000221	2.210522	0.374472	0.000022
 346	3.4328e+01	3.4277	-2.894576	0.000176	1.760230	0.298191	0.000018
 347	3.4427e+01	3.4388	-2.875431	0.000192	1.923972	0.325930	0.000019
 348	3.4526e+01	3.4478	-2.854249	0.000213	2.128650	0.360603	0.000021
 349	3.4626e+01	3.4610	-2.832253	0.000221	2.210522	0.374472	0.000022
 350	3.4725e+01	3.4677	-2.816366	0.000160	1.596488	0.270452	0.000016
 351	3.4825e+01	3.4795	-2.793963	0.000225	2.251457	0.381407	0.000023
 352	3.4925e+01	3.4876	-2.775632	0.000184	1.842101	0.312060	0.000018
 353	3.5024e+01	3.4974	-2.754043	0.000217	2.169586	0.367538	0.000022
 354	3.5123e+01	3.5085	-2.737749	0.000164	1.637423	0.277387	0.000016
 355	3.5223e+01	3.5159	-2.713716	0.000242	2.415199	0.409146	0.000024
 356	3.5322e+01	3.5297	-2.694571	0.000192	1.923972	0.325930	0.000019
 357	3.5422e+01	3.5372	-2.671352	0.000233	2.333328	0.395277	0.000023
 358	3.5522e+01	3.5487	-2.654244	0.000172	1.719295	0.291256	0.000017
 359	3.5621e+01	3.5584	-2.635914	0.000184	1.842101	0.312060	0.000018
 360	3.5721e+01	3.5686	-2.616361	0.000196	1.964908	0.332864	0.000020
 361	3.5820e+01	3.5780	-2.596401	0.000201	2.005844	0.339799	0.000020
 362	3.5919e+01	3.5873	-2.577664	0.000188	1.883037	0.318995	0.000019
 363	3.6019e+01	3.6012	-2.557297	0.000205	2.046779	0.346734	0.000020
 364	3.6118e+01	3.6056	-2.536522	0.000209	2.087715	0.353668	0.000021
 365	3.6218e+01	3.6155	-2.515748	0.000209	2.087715	0.353668	0.000021
 366	3.6318e+01	3.6296	-2.494566	0.000213	2.128650	0.360603	0.000021
 367	3.6417e+01	3.6349	-2.475421	0.000192	1.923972	0.325930	0.000019
 368	3.6517e+01	3.6441	-2.455868	0.000196	1.964908	0.332864	0.000020
 369	3.6616e+01	3.6562	-2.431020	0.000250	2.497071	0.423015	0.000025
 370	3.6715e+01	3.6657	-2.408209	0.000229	2.292393	0.388342	0.000023
 371	3.6815e+01	3.6756	-2.390286	0.000180	1.801166	0.305126	0.000018
 372	3.6914e+01	3.6872	-2.367882	0.000225	2.251457	0.381407	0.000023
 373	3.7014e+01	3.6964	-2.347515	0.000205	2.046779	0.346734	0.000020
 374	3.7114e+01	3.7056	-2.328370	0.000192	1.923972	0.325930	0.000019
 375	3.7213e+01	3.7158	-2.303929	0.000246	2.456135	0.416081	0.000025
 376	3.7313e+01	3.7272	-2.281118	0.000229	2.292393	0.388342	0.000023
 377	3.7412e+01	3.7360	-2.264417	0.000168	1.678359	0.284322	0.000017
 378	3.7511e+01	3.7457	-2.236718	0.000278	2.783620	0.471558	0.000028
 379	3.7611e+01	3.7565	-2.218388	0.000184	1.842101	0.312060	0.000018
 380	3.7711e+01	3.7673	-2.197613	0.000209	2.087715	0.353668	0.000021
 381	3.7810e+01	3.7774	-2.173173	0.000246	2.456135	0.416081	0.000025
 382	3.7910e+01	3.7843	-2.154435	0.000188	1.883037	0.318995	0.000019
 383	3.8009e+01	3.7972	-2.128365	0.000262	2.619877	0.443819	0.000026
 384	3.8108e+01	3.8067	-2.106368	0.000221	2.210522	0.374472	0.000022
 385	3.8208e+01	3.8157	-2.081928	0.000246	2.456135	0.416081	0.000025
 386	3.8307e+01	3.8273	-2.058709	0.000233	2.333328	0.395277	0.000023
 387	3.8407e+01	3.8335	-2.035083	0.000237	2.374264	0.402211	0.000024
 388	3.8507e+01	3.8459	-2.011458	0.000237	2.374264	0.402211	0.000024
 389	3.8606e+01	3.8554	-1.985388	0.000262	2.619877	0.443819	0.000026
 390	3.8706e+01	3.8677	-1.971538	0.000139	1.391810	0.235779	0.000014
 391	3.8805e+01	3.8750	-1.944246	0.000274	2.742684	0.464623	0.000027
 392	3.8904e+01	3.8845	-1.923472	0.000209	2.087715	0.353668	0.000021
 393	3.9004e+01	3.8973	-1.899438	0.000242	2.415199	0.409146	0.000024
 394	3.9103e+01	3.9032	-1.874590	0.000250	2.497071	0.423015	0.000025
 395	3.9203e+01	3.9171	-1.847706	0.000270	2.701749	0.457689	0.000027
 396	3.9303e+01	3.9256	-1.829783	0.000180	1.801166	0.305126	0.000018
 397	3.9402e+01	3.9352	-1.803305	0.000266	2.660813	0.450754	0.000027
 398	3.9502e+01	3.9460	-1.778050	0.000254	2.538006	0.429950	0.000025
 399	3.9601e+01	3.9539	-1.754424	0.000237	2.374264	0.402211	0.000024
 400	3.9700e+01	3.9652	-1.734057	0.000205	2.046779	0.346734	0.000020
 401	3.9800e+01	3.9764	-1.711653	0.000225	2.251457	0.381407	0.000023
 402	3.9900e+01	3.9855	-1.690064	0.000217	2.169586	0.367538	0.000022
 403	3.9999e+01	3.9953	-1.665216	0.000250	2.497071	0.423015	0.000025
 404	4.0099e+01	4.0038	-1.644849	0.000205	2.046779	0.346734	0.000020
 405	4.0198e+01	4.0144	-1.621631	0.000233	2.333328	0.395277	0.000023
 406	4.0297e+01	4.0252	-1.599634	0.000221	2.210522	0.374472	0.000022
 407	4.0397e+01	4.0368	-1.578452	0.000213	2.128650	0.360603	0.000021
 408	4.0496e+01	4.0444	-1.554827	0.000237	2.374264	0.402211	0.000024
 409	4.0596e+01	4.0539	-1.537718	0.000172	1.719295	0.291256	0.000017
 410	4.0696e+01	4.0652	-1.513685	0.000242	2.415199	0.409146	0.000024
 411	4.0795e+01	4.0734	-1.493318	0.000205	2.046779	0.346734	0.000020
 412	4.0895e+01	4.0842	-1.470914	0.000225	2.251457	0.381407	0.000023
 413	4.0994e+01	4.0956	-1.448917	0.000221	2.210522	0.374472	0.000022
 414	4.1093e+01	4.1055	-1.428958	0.000201	2.005844	0.339799	0.000020
 415	4.1193e+01	4.1163	-1.406554	0.000225	2.251457	0.381407	0.000023
 416	4.1292e+01	4.1244	-1.382521	0.000242	2.415199	0.409146	0.000024
 417	4.1392e+01	4.1353	-1.365005	0.000176	1.760230	0.298191	0.000018
 418	4.1492e+01	4.1475	-1.342194	0.000229	2.292393	0.388342	0.000023
 419	4.1591e+01	4.1556	-1.322641	0.000196	1.964908	0.332864	0.000020
 420	4.1691e+01	4.1668	-1.294942	0.000278	2.783620	0.471558	0.000028
 421	4.1790e+01	4.1763	-1.274168	0.000209	2.087715	0.353668	0.000021
 422	4.1889e+01	4.1809	-1.256244	0.000180	1.801166	0.305126	0.000018
 423	4.1989e+01	4.1953	-1.235877	0.000205	2.046779	0.346734	0.000020
 424	4.2089e+01	4.2059	-1.211844	0.000242	2.415199	0.409146	0.000024
 425	4.2188e+01	4.2152	-1.194736	0.000172	1.719295	0.291256	0.000017
 426	4.2288e+01	4.2246	-1.171925	0.000229	2.292393	0.388342	0.000023
 427	4.2387e+01	4.2347	-1.149113	0.000229	2.292393	0.388342	0.000023
 428	4.2486e+01	4.2450	-1.127524	0.000217	2.169586	0.367538	0.000022
 429	4.2586e+01	4.2527	-1.107972	0.000196	1.964908	0.332864	0.000020
 430	4.2685e+01	4.2629	-1.086383	0.000217	2.169586	0.367538	0.000022
 431	4.2785e+01	4.2776	-1.062757	0.000237	2.374264	0.402211	0.000024
 432	4.2885e+01	4.2855	-1.042797	0.000201	2.005844	0.339799	0.000020
 433	4.2984e+01	4.2961	-1.017542	0.000254	2.538006	0.429950	0.000025
 434	4.3084e+01	4.3021	-0.996767	0.000209	2.087715	0.353668	0.000021
 435	4.3183e+01	4.3142	-0.973549	0.000233	2.333328	0.395277	0.000023
 436	4.3282e+01	4.3225	-0.952774	0.000209	2.087715	0.353668	0.000021
 437	4.3382e+01	4.3331	-0.932000	0.000209	2.087715	0.353668	0.000021
 438	4.3481e+01	4.3417	-0.910411	0.000217	2.169586	0.367538	0.000022
 439	4.3581e+01	4.3540	-0.887192	0.000233	2.333328	0.395277	0.000023
 440	4.3681e+01	4.3663	-0.866418	0.000209	2.087715	0.353668	0.000021
 441	4.3780e+01	4.3734	-0.845643	0.000209	2.087715	0.353668	0.000021
 442	4.3880e+01	4.3816	-0.824869	0.000209	2.087715	0.353668	0.000021
 443	4.3979e+01	4.3974	-0.800835	0.000242	2.415199	0.409146	0.000024
 444	4.4078e+01	4.4048	-0.779654	0.000213	2.128650	0.360603	0.000021
 445	4.4178e+01	4.4135	-0.756435	0.000233	2.333328	0.395277	0.000023
 446	4.4278e+01	4.4250	-0.734031	0.000225	2.251457	0.381407	0.000023
 447	4.4377e+01	4.4341	-0.709591	0.000246	2.456135	0.416081	0.000025
 448	4.4477e+01	4.4441	-0.688002	0.000217	2.169586	0.367538	0.000022
 449	4.4576e+01	4.4538	-0.667634	0.000205	2.046779	0.346734	0.000020
 450	4.4675e+01	4.4630	-0.647267	0.000205	2.046779	0.346734	0.000020
 451	4.4775e+01	4.4720	-0.622827	0.000246	2.456135	0.416081	0.000025
 452	4.4874e+01	4.4823	-0.607755	0.000151	1.514617	0.256583	0.000015
 453	4.4974e+01	4.4924	-0.586573	0.000213	2.128650	0.360603	0.000021
 454	4.5074e+01	4.5037	-0.562947	0.000237	2.374264	0.402211	0.000024
 455	4.5173e+01	4.5144	-0.542988	0.000201	2.005844	0.339799	0.000020
 456	4.5273e+01	4.5234	-0.522213	0.000209	2.087715	0.353668	0.000021
 457	4.5372e+01	4.5322	-0.505105	0.000172	1.719295	0.291256	0.000017
 458	4.5471e+01	4.5428	-0.481479	0.000237	2.374264	0.402211	0.000024
 459	4.5571e+01	4.5535	-0.459890	0.000217	2.169586	0.367538	0.000022
 460	4.5670e+01	4.5638	-0.443596	0.000164	1.637423	0.277387	0.000016
 461	4.5770e+01	4.5720	-0.423229	0.000205	2.046779	0.346734	0.000020
 462	4.5870e+01	4.5844	-0.403269	0.000201	2.005844	0.339799	0.000020
 463	4.5969e+01	4.5928	-0.380865	0.000225	2.251457	0.381407	0.000023
 464	4.6069e+01	4.6001	-0.360498	0.000205	2.046779	0.346734	0.000020
 465	4.6168e+01	4.6105	-0.345426	0.000151	1.514617	0.256583	0.000015
 466	4.6267e+01	4.6240	-0.328318	0.000172	1.719295	0.291256	0.000017
 467	4.6367e+01	4.6313	-0.307136	0.000213	2.128650	0.360603	0.000021
 468	4.6467e+01	4.6391	-0.292879	0.000143	1.432745	0.242714	0.000014
 469	4.6566e+01	4.6526	-0.270883	0.000221	2.210522	0.374472	0.000022
 470	4.6666e+01	4.6598	-0.252960	0.000180	1.801166	0.305126	0.000018
 471	4.6765e+01	4.6725	-0.236259	0.000168	1.678359	0.284322	0.000017
 472	4.6864e+01	4.6836	-0.214670	0.000217	2.169586	0.367538	0.000022
 473	4.6964e+01	4.6889	-0.195524	0.000192	1.923972	0.325930	0.000019
 474	4.7063e+01	4.7027	-0.176787	0.000188	1.883037	0.318995	0.000019
 475	4.7163e+01	4.7119	-0.158049	0.000188	1.883037	0.318995	0.000019
 476	4.7263e+01	4.7253	-0.140533	0.000176	1.760230	0.298191	0.000018
 477	4.7362e+01	4.7323	-0.125869	0.000147	1.473681	0.249648	0.000015
 478	4.7462e+01	4.7407	-0.105094	0.000209	2.087715	0.353668	0.000021
 479	4.7561e+01	4.7520	-0.088801	0.000164	1.637423	0.277387	0.000016
 480	4.7660e+01	4.7588	-0.073322	0.000156	1.555552	0.263518	0.000016
 481	4.7760e+01	4.7706	-0.049696	0.000237	2.374264	0.402211	0.000024
 482	4.7859e+01	4.7813	-0.034217	0.000156	1.555552	0.263518	0.000016
 483	4.7959e+01	4.7941	-0.015479	0.000188	1.883037	0.318995	0.000019
 484	4.8059e+01	4.8031	0.004073	0.000196	1.964908	0.332864	0.000020
 485	4.8158e+01	4.8130	0.023219	0.000192	1.923972	0.325930	0.000019
 486	4.8258e+01	4.8248	0.042771	0.000196	1.964908	0.332864	0.000020
 487	4.8357e+01	4.8308	0.057435	0.000147	1.473681	0.249648	0.000015
 488	4.8456e+01	4.8420	0.079024	0.000217	2.169586	0.367538	0.000022
 489	4.8556e+01	4.8532	0.095318	0.000164	1.637423	0.277387	0.000016
 490	4.8656e+01	4.8614	0.115278	0.000201	2.005844	0.339799	0.000020
 491	4.8755e+01	4.8693	0.133608	0.000184	1.842101	0.312060	0.000018
 492	4.8855e+01	4.8813	0.154790	0.000213	2.128650	0.360603	0.000021
 493	4.8954e+01	4.8932	0.179638	0.000250	2.497071	0.423015	0.000025
 494	4.9053e+01	4.8989	0.194302	0.000147	1.473681	0.249648	0.000015
 495	4.9153e+01	4.9112	0.214262	0.000201	2.005844	0.339799	0.000020
 496	4.9252e+01	4.9233	0.234222	0.000201	2.005844	0.339799	0.000020
 497	4.9352e+01	4.9298	0.252960	0.000188	1.883037	0.318995	0.000019
 498	4.9452e+01	4.9426	0.271697	0.000188	1.883037	0.318995	0.000019
 499	4.9551e+01	4.9520	0.292879	0.000213	2.128650	0.360603	0.000021
 500	4.9651e+01	4.9606	0.309988	0.000172	1.719295	0.291256	0.000017
 501	4.9750e+01	4.9734	0.329947	0.000201	2.005844	0.339799	0.000020
 502	4.9849e+01	4.9796	0.349500	0.000196	1.964908	0.332864	0.000020
 503	4.9949e+01	4.9899	0.374348	0.000250	2.497071	0.423015	0.000025
 504	5.0048e+01	4.9979	0.390234	0.000160	1.596488	0.270452	0.000016
 505	5.0148e+01	5.0108	0.408972	0.000188	1.883037	0.318995	0.000019
 506	5.0248e+01	5.0228	0.432598	0.000237	2.374264	0.402211	0.000024
 507	5.0347e+01	5.0314	0.448484	0.000160	1.596488	0.270452	0.000016
 508	5.0447e+01	5.0405	0.469666	0.000213	2.128650	0.360603	0.000021
 509	5.0546e+01	5.0491	0.488404	0.000188	1.883037	0.318995	0.000019
 510	5.0645e+01	5.0603	0.508771	0.000205	2.046779	0.346734	0.000020
 511	5.0745e+01	5.0688	0.528323	0.000196	1.964908	0.332864	0.000020
 512	5.0844e+01	5.0791	0.548283	0.000201	2.005844	0.339799	0.000020
 513	5.0944e+01	5.0916	0.567428	0.000192	1.923972	0.325930	0.000019
 514	5.1044e+01	5.1003	0.585351	0.000180	1.801166	0.305126	0.000018
 515	5.1143e+01	5.1101	0.605718	0.000205	2.046779	0.346734	0.000020
 516	5.1242e+01	5.1191	0.626900	0.000213	2.128650	0.360603	0.000021
 517	5.1342e+01	5.1283	0.644823	0.000180	1.801166	0.305126	0.000018
 518	5.1441e+01	5.1402	0.661932	0.000172	1.719295	0.291256	0.000017
 519	5.1541e+01	5.1495	0.681891	0.000201	2.005844	0.339799	0.000020
 520	5.1641e+01	5.1577	0.701444	0.000196	1.964908	0.332864	0.000020
 521	5.1740e+01	5.1682	0.718145	0.000168	1.678359	0.284322	0.000017
 522	5.1840e+01	5.1801	0.734846	0.000168	1.678359	0.284322	0.000017
 523	5.1939e+01	5.1939	0.757657	0.000229	2.292393	0.388342	0.000023
 524	5.2038e+01	5.1994	0.777210	0.000196	1.964908	0.332864	0.000020
 525	5.2138e+01	5.2082	0.792689	0.000156	1.555552	0.263518	0.000016
 526	5.2237e+01	5.2175	0.813463	0.000209	2.087715	0.353668	0.000021
 527	5.2337e+01	5.2285	0.833830	0.000205	2.046779	0.346734	0.000020
 528	5.2437e+01	5.2390	0.849309	0.000156	1.555552	0.263518	0.000016
 529	5.2536e+01	5.2475	0.867232	0.000180	1.801166	0.305126	0.000018
 530	5.2636e+01	5.2610	0.885155	0.000180	1.801166	0.305126	0.000018
 531	5.2735e+01	5.2692	0.909189	0.000242	2.415199	0.409146	0.000024
 532	5.2834e+01	5.2790	0.919779	0.000106	1.064325	0.180302	0.000011
 533	5.2934e+01	5.2860	0.941369	0.000217	2.169586	0.367538	0.000022
 534	5.3033e+01	5.3006	0.962550	0.000213	2.128650	0.360603	0.000021
 535	5.3133e+01	5.3074	0.980474	0.000180	1.801166	0.305126	0.000018
 536	5.3233e+01	5.3187	1.001655	0.000213	2.128650	0.360603	0.000021
 537	5.3332e+01	5.3299	1.021208	0.000196	1.964908	0.332864	0.000020
 538	5.3431e+01	5.3425	1.040353	0.000192	1.923972	0.325930	0.000019
 539	5.3531e+01	5.3500	1.062757	0.000225	2.251457	0.381407	0.000023
 540	5.3630e+01	5.3576	1.081087	0.000184	1.842101	0.312060	0.000018
 541	5.3730e+01	5.3686	1.102676	0.000217	2.169586	0.367538	0.000022
 542	5.3830e+01	5.3783	1.123451	0.000209	2.087715	0.353668	0.000021
 543	5.3929e+01	5.3855	1.143818	0.000205	2.046779	0.346734	0.000020
 544	5.4029e+01	5.3994	1.161334	0.000176	1.760230	0.298191	0.000018
 545	5.4128e+01	5.4082	1.182923	0.000217	2.169586	0.367538	0.000022
 546	5.4227e+01	5.4160	1.204919	0.000221	2.210522	0.374472	0.000022
 547	5.4327e+01	5.4285	1.225694	0.000209	2.087715	0.353668	0.000021
 548	5.4426e+01	5.4363	1.243209	0.000176	1.760230	0.298191	0.000018
 549	5.4526e+01	5.4465	1.266835	0.000237	2.374264	0.402211	0.000024
 550	5.4626e+01	5.4577	1.285980	0.000192	1.923972	0.325930	0.000019
 551	5.4725e+01	5.4689	1.311643	0.000258	2.578942	0.436885	0.000026
 552	5.4825e+01	5.4835	1.333640	0.000221	2.210522	0.374472	0.000022
 553	5.4924e+01	5.4876	1.354414	0.000209	2.087715	0.353668	0.000021
 554	5.5023e+01	5.4992	1.377633	0.000233	2.333328	0.395277	0.000023
 555	5.5123e+01	5.5091	1.398407	0.000209	2.087715	0.353668	0.000021
 556	5.5222e+01	5.5204	1.419181	0.000209	2.087715	0.353668	0.000021
 557	5.5322e+01	5.5294	1.440363	0.000213	2.128650	0.360603	0.000021
 558	5.5422e+01	5.5373	1.463989	0.000237	2.374264	0.402211	0.000024
 559	5.5521e+01	5.5471	1.487208	0.000233	2.333328	0.395277	0.000023
 560	5.5620e+01	5.5584	1.507167	0.000201	2.005844	0.339799	0.000020
 561	5.5720e+01	5.5663	1.528349	0.000213	2.128650	0.360603	0.000021
 562	5.5819e+01	5.5781	1.551975	0.000237	2.374264	0.402211	0.000024
 563	5.5919e+01	5.5877	1.573972	0.000221	2.210522	0.374472	0.000022
 564	5.6019e+01	5.5978	1.595968	0.000221	2.210522	0.374472	0.000022
 565	5.6118e+01	5.6063	1.617557	0.000217	2.169586	0.367538	0.000022
 566	5.6218e+01	5.6179	1.644035	0.000266	2.660813	0.450754	0.000027
 567	5.6317e+01	5.6278	1.663587	0.000196	1.964908	0.332864	0.000020
 568	5.6416e+01	5.6358	1.683954	0.000205	2.046779	0.346734	0.000020
 569	5.6516e+01	5.6470	1.708395	0.000246	2.456135	0.416081	0.000025
 570	5.6615e+01	5.6561	1.726318	0.000180	1.801166	0.305126	0.000018
 571	5.6715e+01	5.6678	1.746685	0.000205	2.046779	0.346734	0.000020
 572	5.6815e+01	5.6783	1.771533	0.000250	2.497071	0.423015	0.000025
 573	5.6914e+01	5.6861	1.791085	0.000196	1.964908	0.332864	0.000020
 574	5.7014e+01	5.6995	1.813082	0.000221	2.210522	0.374472	0.000022
 575	5.7113e+01	5.7069	1.834264	0.000213	2.128650	0.360603	0.000021
 576	5.7212e+01	5.7166	1.851779	0.000176	1.760230	0.298191	0.000018
 577	5.7312e+01	5.7259	1.872554	0.000209	2.087715	0.353668	0.000021
 578	5.7411e+01	5.7348	1.895365	0.000229	2.292393	0.388342	0.000023
 579	5.7511e+01	5.7464	1.913695	0.000184	1.842101	0.312060	0.000018
 580	5.7611e+01	5.7549	1.932840	0.000192	1.923972	0.325930	0.000019
 581	5.7710e+01	5.7659	1.954430	0.000217	2.169586	0.367538	0.000022
 582	5.7809e+01	5.7764	1.976019	0.000217	2.169586	0.367538	0.000022
 583	5.7909e+01	5.7874	1.995164	0.000192	1.923972	0.325930	0.000019
 584	5.8008e+01	5.7972	2.014716	0.000196	1.964908	0.332864	0.000020
 585	5.8108e+01	5.8062	2.034676	0.000201	2.005844	0.339799	0.000020
 586	5.8208e+01	5.8150	2.053414	0.000188	1.883037	0.318995	0.000019
 587	5.8307e+01	5.8266	2.074188	0.000209	2.087715	0.353668	0.000021
 588	5.8407e+01	5.8353	2.094963	0.000209	2.087715	0.353668	0.000021
 589	5.8506e+01	5.8456	2.115737	0.000209	2.087715	0.353668	0.000021
 590	5.8605e+01	5.8559	2.133660	0.000180	1.801166	0.305126	0.000018
 591	5.8705e+01	5.8675	2.156879	0.000233	2.333328	0.395277	0.000023
 592	5.8804e+01	5.8770	2.174802	0.000180	1.801166	0.305126	0.000018
 593	5.8904e+01	5.8858	2.197206	0.000225	2.251457	0.381407	0.000023
 594	5.9004e+01	5.8952	2.218388	0.000213	2.128650	0.360603	0.000021
 595	5.9103e+01	5.9039	2.234274	0.000160	1.596488	0.270452	0.000016
 596	5.9203e+01	5.9151	2.256678	0.000225	2.251457	0.381407	0.000023
 597	5.9302e+01	5.9254	2.276230	0.000196	1.964908	0.332864	0.000020
 598	5.9401e+01	5.9339	2.296190	0.000201	2.005844	0.339799	0.000020
 599	5.9501e+01	5.9435	2.319001	0.000229	2.292393	0.388342	0.000023
 600	5.9600e+01	5.9554	2.340590	0.000217	2.169586	0.367538	0.000022
 601	5.9700e+01	5.9679	2.360957	0.000205	2.046779	0.346734	0.000020
 602	5.9800e+01	5.9747	2.379695	0.000188	1.883037	0.318995	0.000019
 603	5.9899e+01	5.9858	2.400062	0.000205	2.046779	0.346734	0.000020
 604	5.9998e+01	5.9951	2.422059	0.000221	2.210522	0.374472	0.000022
 605	6.0098e+01	6.0029	2.439982	0.000180	1.801166	0.305126	0.000018
 606	6.0197e+01	6.0159	2.463200	0.000233	2.333328	0.395277	0.000023
 607	6.0297e+01	6.0247	2.484790	0.000217	2.169586	0.367538	0.000022
 608	6.0397e+01	6.0354	2.502713	0.000180	1.801166	0.305126	0.000018
 609	6.0496e+01	6.0445	2.525524	0.000229	2.292393	0.388342	0.000023
 610	6.0596e+01	6.0557	2.548335	0.000229	2.292393	0.388342	0.000023
 611	6.0695e+01	6.0642	2.569924	0.000217	2.169586	0.367538	0.000022
 612	6.0794e+01	6.0754	2.587847	0.000180	1.801166	0.305126	0.000018
 613	6.0894e+01	6.0842	2.609844	0.000221	2.210522	0.374472	0.000022
 614	6.0993e+01	6.0962	2.631433	0.000217	2.169586	0.367538	0.000022
 615	6.1093e+01	6.1038	2.652615	0.000213	2.128650	0.360603	0.000021
 616	6.1193e+01	6.1156	2.674611	0.000221	2.210522	0.374472	0.000022
 617	6.1292e+01	6.1221	2.694571	0.000201	2.005844	0.339799	0.000020
 618	6.1392e+01	6.1346	2.713309	0.000188	1.883037	0.318995	0.000019
 619	6.1491e+01	6.1470	2.733676	0.000205	2.046779	0.346734	0.000020
 620	6.1590e+01	6.1539	2.754450	0.000209	2.087715	0.353668	0.000021
 621	6.1690e+01	6.1627	2.769522	0.000151	1.514617	0.256583	0.000015
 622	6.1789e+01	6.1753	2.791926	0.000225	2.251457	0.381407	0.000023
 623	6.1889e+01	6.1855	2.811071	0.000192	1.923972	0.325930	0.000019
 624	6.1989e+01	6.1941	2.829401	0.000184	1.842101	0.312060	0.000018
 625	6.2088e+01	6.2041	2.849768	0.000205	2.046779	0.346734	0.000020
 626	6.2188e+01	6.2158	2.873394	0.000237	2.374264	0.402211	0.000024
 627	6.2287e+01	6.2272	2.886429	0.000131	1.309939	0.221910	0.000013
 628	6.2386e+01	6.2357	2.905982	0.000196	1.964908	0.332864	0.000020
 629	6.2486e+01	6.2441	2.926756	0.000209	2.087715	0.353668	0.000021
 630	6.2586e+01	6.2550	2.946309	0.000196	1.964908	0.332864	0.000020
 631	6.2685e+01	6.2637	2.960973	0.000147	1.473681	0.249648	0.000015
 632	6.2785e+01	6.2748	2.981747	0.000209	2.087715	0.353668	0.000021
 633	6.2884e+01	6.2836	2.998041	0.000164	1.637423	0.277387	0.000016
 634	6.2983e+01	6.2934	3.017594	0.000196	1.964908	0.332864	0.000020
 635	6.3083e+01	6.3035	3.033887	0.000164	1.637423	0.277387	0.000016
 636	6.3182e+01	6.3152	3.049774	0.000160	1.596488	0.270452	0.000016
 637	6.3282e+01	6.3259	3.069326	0.000196	1.964908	0.332864	0.000020
 638	6.3382e+01	6.3345	3.083583	0.000143	1.432745	0.242714	0.000014
 639	6.3481e+01	6.3439	3.102321	0.000188	1.883037	0.318995	0.000019
 640	6.3581e+01	6.3534	3.120651	0.000184	1.842101	0.312060	0.000018
 641	6.3680e+01	6.3652	3.136130	0.000156	1.555552	0.263518	0.000016
 642	6.3779e+01	6.3731	3.154461	0.000184	1.842101	0.312060	0.000018
 643	6.3879e+01	6.3857	3.174828	0.000205	2.046779	0.346734	0.000020
 644	6.3978e+01	6.3921	3.188270	0.000135	1.350874	0.228844	0.000014
 645	6.4078e+01	6.4056	3.205786	0.000176	1.760230	0.298191	0.000018
 646	6.4177e+01	6.4121	3.224931	0.000192	1.923972	0.325930	0.000019
 647	6.4277e+01	6.4217	3.236744	0.000119	1.187132	0.201106	0.000012
 648	6.4376e+01	6.4332	3.256704	0.000201	2.005844	0.339799	0.000020
 649	6.4476e+01	6.4420	3.275034	0.000184	1.842101	0.312060	0.000018
 650	6.4576e+01	6.4538	3.292550	0.000176	1.760230	0.298191	0.000018
 651	6.4675e+01	6.4624	3.305585	0.000131	1.309939	0.221910	0.000013
 652	6.4775e+01	6.4715	3.328396	0.000229	2.292393	0.388342	0.000023
 653	6.4874e+01	6.4812	3.345912	0.000176	1.760230	0.298191	0.000018
 654	6.4974e+01	6.4902	3.363835	0.000180	1.801166	0.305126	0.000018
 655	6.5073e+01	6.5020	3.380536	0.000168	1.678359	0.284322	0.000017
 656	6.5172e+01	6.5127	3.396422	0.000160	1.596488	0.270452	0.000016
 657	6.5272e+01	6.5239	3.418419	0.000221	2.210522	0.374472	0.000022
 658	6.5371e+01	6.5300	3.433898	0.000156	1.555552	0.263518	0.000016
 659	6.5471e+01	6.5413	3.452228	0.000184	1.842101	0.312060	0.000018
 660	6.5570e+01	6.5520	3.473817	0.000217	2.169586	0.367538	0.000022
 661	6.5670e+01	6.5635	3.489296	0.000156	1.555552	0.263518	0.000016
 662	6.5769e+01	6.5694	3.510071	0.000209	2.087715	0.353668	0.000021
 663	6.5869e+01	6.5839	3.527586	0.000176	1.760230	0.298191	0.000018
 664	6.5969e+01	6.5906	3.545917	0.000184	1.842101	0.312060	0.000018
 665	6.6068e+01	6.6012	3.567099	0.000213	2.128650	0.360603	0.000021
 666	6.6168e+01	6.6114	3.584614	0.000176	1.760230	0.298191	0.000018
 667	6.6267e+01	6.6217	3.605389	0.000209	2.087715	0.353668	0.000021
 668	6.6367e+01	6.6335	3.622090	0.000168	1.678359	0.284322	0.000017
 669	6.6466e+01	6.6418	3.637976	0.000160	1.596488	0.270452	0.000016
 670	6.6566e+01	6.6512	3.653863	0.000160	1.596488	0.270452	0.000016
 671	6.6665e+01	6.6615	3.675452	0.000217	2.169586	0.367538	0.000022
 672	6.6764e+01	6.6718	3.694597	0.000192	1.923972	0.325930	0.000019
 673	6.6864e+01	6.6816	3.714964	0.000205	2.046779	0.346734	0.000020
 674	6.6963e+01	6.6909	3.732480	0.000176	1.760230	0.298191	0.000018
 675	6.7063e+01	6.7002	3.750403	0.000180	1.801166	0.305126	0.000018
 676	6.7162e+01	6.7110	3.774029	0.000237	2.374264	0.402211	0.000024
 677	6.7262e+01	6.7208	3.789915	0.000160	1.596488	0.270452	0.000016
 678	6.7362e+01	6.7315	3.808653	0.000188	1.883037	0.318995	0.000019
 679	6.7461e+01	6.7416	3.828613	0.000201	2.005844	0.339799	0.000020
 680	6.7561e+01	6.7507	3.844906	0.000164	1.637423	0.277387	0.000016
 681	6.7660e+01	6.7619	3.864866	0.000201	2.005844	0.339799	0.000020
 682	6.7760e+01	6.7725	3.885233	0.000205	2.046779	0.346734	0.000020
 683	6.7859e+01	6.7818	3.903971	0.000188	1.883037	0.318995	0.000019
 684	6.7959e+01	6.7910	3.919043	0.000151	1.514617	0.256583	0.000015
 685	6.8058e+01	6.8018	3.937780	0.000188	1.883037	0.318995	0.000019
 686	6.8157e+01	6.8118	3.953259	0.000156	1.555552	0.263518	0.000016
 687	6.8257e+01	6.8224	3.976071	0.000229	2.292393	0.388342	0.000023
 688	6.8356e+01	6.8306	3.994808	0.000188	1.883037	0.318995	0.000019
 689	6.8456e+01	6.8408	4.008658	0.000139	1.391810	0.235779	0.000014
 690	6.8555e+01	6.8507	4.029025	0.000205	2.046779	0.346734	0.000020
 691	6.8655e+01	6.8616	4.044504	0.000156	1.555552	0.263518	0.000016
 692	6.8754e+01	6.8716	4.064871	0.000205	2.046779	0.346734	0.000020
 693	6.8854e+01	6.8810	4.079943	0.000151	1.514617	0.256583	0.000015
 694	6.8954e+01	6.8906	4.100310	0.000205	2.046779	0.346734	0.000020
 695	6.9053e+01	6.9024	4.118233	0.000180	1.801166	0.305126	0.000018
 696	6.9153e+01	6.9105	4.133305	0.000151	1.514617	0.256583	0.000015
 697	6.9252e+01	6.9183	4.148784	0.000156	1.555552	0.263518	0.000016
 698	6.9352e+01	6.9280	4.167522	0.000188	1.883037	0.318995	0.000019
 699	6.9451e+01	6.9390	4.188296	0.000209	2.087715	0.353668	0.000021
 700	6.9550e+01	6.9498	4.204182	0.000160	1.596488	0.270452	0.000016
 701	6.9650e+01	6.9617	4.222920	0.000188	1.883037	0.318995	0.000019
 702	6.9749e+01	6.9714	4.240436	0.000176	1.760230	0.298191	0.000018
 703	6.9849e+01	6.9798	4.265691	0.000254	2.538006	0.429950	0.000025
 704	6.9948e+01	6.9896	4.283614	0.000180	1.801166	0.305126	0.000018
 705	7.0048e+01	6.9997	4.300315	0.000168	1.678359	0.284322	0.000017
 706	7.0147e+01	7.0126	4.321904	0.000217	2.169586	0.367538	0.000022
 707	7.0247e+01	7.0200	4.339420	0.000176	1.760230	0.298191	0.000018
 708	7.0347e+01	7.0292	4.362231	0.000229	2.292393	0.388342	0.000023
 709	7.0446e+01	7.0410	4.379340	0.000172	1.719295	0.291256	0.000017
 710	7.0546e+01	7.0480	4.399707	0.000205	2.046779	0.346734	0.000020
 711	7.0645e+01	7.0608	4.418037	0.000184	1.842101	0.312060	0.000018
 712	7.0745e+01	7.0699	4.440441	0.000225	2.251457	0.381407	0.000023
 713	7.0844e+01	7.0818	4.458364	0.000180	1.801166	0.305126	0.000018
 714	7.0944e+01	7.0882	4.479953	0.000217	2.169586	0.367538	0.000022
 715	7.1043e+01	7.0989	4.496247	0.000164	1.637423	0.277387	0.000016
 716	7.1142e+01	7.1108	4.519058	0.000229	2.292393	0.388342	0.000023
 717	7.1242e+01	7.1204	4.538611	0.000196	1.964908	0.332864	0.000020
 718	7.1341e+01	7.1307	4.558570	0.000201	2.005844	0.339799	0.000020
 719	7.1441e+01	7.1385	4.584640	0.000262	2.619877	0.443819	0.000026
 720	7.1540e+01	7.1492	4.604600	0.000201	2.005844	0.339799	0.000020
 721	7.1640e+01	7.1599	4.624560	0.000201	2.005844	0.339799	0.000020
 722	7.1740e+01	7.1688	4.648186	0.000237	2.374264	0.402211	0.000024
 723	7.1839e+01	7.1806	4.668960	0.000209	2.087715	0.353668	0.000021
 724	7.1939e+01	7.1876	4.687291	0.000184	1.842101	0.312060	0.000018
 725	7.2038e+01	7.2005	4.709287	0.000221	2.210522	0.374472	0.000022
 726	7.2138e+01	7.2078	4.728432	0.000192	1.923972	0.325930	0.000019
 727	7.2237e+01	7.2198	4.751244	0.000229	2.292393	0.388342	0.000023
 728	7.2337e+01	7.2284	4.772425	0.000213	2.128650	0.360603	0.000021
 729	7.2436e+01	7.2375	4.796051	0.000237	2.374264	0.402211	0.000024
 730	7.2535e+01	7.2466	4.820084	0.000242	2.415199	0.409146	0.000024
 731	7.2635e+01	7.2583	4.840044	0.000201	2.005844	0.339799	0.000020
 732	7.2734e+01	7.2706	4.859597	0.000196	1.964908	0.332864	0.000020
 733	7.2834e+01	7.2805	4.884037	0.000246	2.456135	0.416081	0.000025
 734	7.2933e+01	7.2900	4.904404	0.000205	2.046779	0.346734	0.000020
 735	7.3033e+01	7.2988	4.928845	0.000246	2.456135	0.416081	0.000025
 736	7.3132e+01	7.3106	4.945139	0.000164	1.637423	0.277387	0.000016
 737	7.3232e+01	7.3202	4.966728	0.000217	2.169586	0.367538	0.000022
 738	7.3332e+01	7.3275	4.990354	0.000237	2.374264	0.402211	0.000024
 739	7.3431e+01	7.3391	5.009091	0.000188	1.883037	0.318995	0.000019
 740	7.3531e+01	7.3485	5.029458	0.000205	2.046779	0.346734	0.000020
 741	7.3630e+01	7.3594	5.050233	0.000209	2.087715	0.353668	0.000021
 742	7.3730e+01	7.3663	5.071822	0.000217	2.169586	0.367538	0.000022
 743	7.3829e+01	7.3774	5.089745	0.000180	1.801166	0.305126	0.000018
 744	7.3928e+01	7.3869	5.109298	0.000196	1.964908	0.332864	0.000020
 745	7.4028e+01	7.3986	5.128035	0.000188	1.883037	0.318995	0.000019
 746	7.4127e+01	7.4094	5.150439	0.000225	2.251457	0.381407	0.000023
 747	7.4227e+01	7.4187	5.166326	0.000160	1.596488	0.270452	0.000016
 748	7.4326e+01	7.4255	5.188322	0.000221	2.210522	0.374472	0.000022
 749	7.4426e+01	7.4370	5.211133	0.000229	2.292393	0.388342	0.000023
 750	7.4525e+01	7.4490	5.229056	0.000180	1.801166	0.305126	0.000018
 751	7.4625e+01	7.4585	5.247387	0.000184	1.842101	0.312060	0.000018
 752	7.4725e+01	7.4702	5.266532	0.000192	1.923972	0.325930	0.000019
 753	7.4824e+01	7.4770	5.287306	0.000209	2.087715	0.353668	0.000021
 754	7.4924e+01	7.4871	5.306451	0.000192	1.923972	0.325930	0.000019
 755	7.5023e+01	7.5005	5.324374	0.000180	1.801166	0.305126	0.000018
 756	7.5123e+01	7.5072	5.347186	0.000229	2.292393	0.388342	0.000023
 757	7.5222e+01	7.5210	5.366331	0.000192	1.923972	0.325930	0.000019
 758	7.5322e+01	7.5272	5.386291	0.000201	2.005844	0.339799	0.000020
 759	7.5421e+01	7.5378	5.406250	0.000201	2.005844	0.339799	0.000020
 760	7.5520e+01	7.5469	5.423359	0.000172	1.719295	0.291256	0.000017
 761	7.5620e+01	7.5577	5.443319	0.000201	2.005844	0.339799	0.000020
 762	7.5719e+01	7.5681	5.463278	0.000201	2.005844	0.339799	0.000020
 763	7.5819e+01	7.5781	5.484867	0.000217	2.169586	0.367538	0.000022
 764	7.5918e+01	7.5887	5.504013	0.000192	1.923972	0.325930	0.000019
 765	7.6018e+01	7.5994	5.524787	0.000209	2.087715	0.353668	0.000021
 766	7.6118e+01	7.6070	5.547598	0.000229	2.292393	0.388342	0.000023
 767	7.6217e+01	7.6152	5.567558	0.000201	2.005844	0.339799	0.000020
 768	7.6317e+01	7.6261	5.591591	0.000242	2.415199	0.409146	0.000024
 769	7.6416e+01	7.6416	5.609514	0.000180	1.801166	0.305126	0.000018
 770	7.6516e+01	7.6482	5.630289	0.000209	2.087715	0.353668	0.000021
 771	7.6615e+01	7.6574	5.651878	0.000217	2.169586	0.367538	0.000022
 772	7.6715e+01	7.6660	5.668172	0.000164	1.637423	0.277387	0.000016
 773	7.6814e+01	7.6754	5.694242	0.000262	2.619877	0.443819	0.000026
 774	7.6913e+01	7.6895	5.711350	0.000172	1.719295	0.291256	0.000017
 775	7.7013e+01	7.6961	5.732939	0.000217	2.169586	0.367538	0.000022
 776	7.7112e+01	7.7055	5.751269	0.000184	1.842101	0.312060	0.000018
 777	7.7212e+01	7.7190	5.774081	0.000229	2.292393	0.388342	0.000023
 778	7.7311e+01	7.7250	5.793226	0.000192	1.923972	0.325930	0.000019
 779	7.7411e+01	7.7361	5.815630	0.000225	2.251457	0.381407	0.000023
 780	7.7510e+01	7.7435	5.836811	0.000213	2.128650	0.360603	0.000021
 781	7.7610e+01	7.7557	5.859623	0.000229	2.292393	0.388342	0.000023
 782	7.7710e+01	7.7661	5.879990	0.000205	2.046779	0.346734	0.000020
 783	7.7809e+01	7.7776	5.902394	0.000225	2.251457	0.381407	0.000023
 784	7.7909e+01	7.7867	5.923983	0.000217	2.169586	0.367538	0.000022
 785	7.8008e+01	7.7950	5.939462	0.000156	1.555552	0.263518	0.000016
 786	7.8108e+01	7.8043	5.963495	0.000242	2.415199	0.409146	0.000024
 787	7.8207e+01	7.8169	5.980196	0.000168	1.678359	0.284322	0.000017
 788	7.8306e+01	7.8257	6.001785	0.000217	2.169586	0.367538	0.000022
 789	7.8406e+01	7.8352	6.022152	0.000205	2.046779	0.346734	0.000020
 790	7.8505e+01	7.8464	6.041705	0.000196	1.964908	0.332864	0.000020
 791	7.8605e+01	7.8552	6.057591	0.000160	1.596488	0.270452	0.000016
 792	7.8704e+01	7.8643	6.075514	0.000180	1.801166	0.305126	0.000018
 793	7.8804e+01	7.8770	6.095067	0.000196	1.964908	0.332864	0.000020
 794	7.8903e+01	7.8867	6.117063	0.000221	2.210522	0.374472	0.000022
 795	7.9003e+01	7.8976	6.134171	0.000172	1.719295	0.291256	0.000017
 796	7.9103e+01	7.9041	6.154131	0.000201	2.005844	0.339799	0.000020
 797	7.9202e+01	7.9167	6.172869	0.000188	1.883037	0.318995	0.000019
 798	7.9302e+01	7.9272	6.189163	0.000164	1.637423	0.277387	0.000016
 799	7.9401e+01	7.9314	6.209530	0.000205	2.046779	0.346734	0.000020
 800	7.9501e+01	7.9436	6.225009	0.000156	1.555552	0.263518	0.000016
 801	7.9600e+01	7.9543	6.244154	0.000192	1.923972	0.325930	0.000019
 802	7.9700e+01	7.9639	6.259633	0.000156	1.555552	0.263518	0.000016
 803	7.9799e+01	7.9766	6.278778	0.000192	1.923972	0.325930	0.000019
 804	7.9898e+01	7.9834	6.297516	0.000188	1.883037	0.318995	0.000019
 805	7.9998e+01	7.9932	6.317476	0.000201	2.005844	0.339799	0.000020
 806	8.0097e+01	8.0042	6.333362	0.000160	1.596488	0.270452	0.000016
 807	8.0197e+01	8.0135	6.350063	0.000168	1.678359	0.284322	0.000017
 808	8.0296e+01	8.0247	6.366357	0.000164	1.637423	0.277387	0.000016
 809	8.0396e+01	8.0334	6.383058	0.000168	1.678359	0.284322	0.000017
 810	8.0496e+01	8.0439	6.404647	0.000217	2.169586	0.367538	0.000022
 811	8.0595e+01	8.0544	6.422163	0.000176	1.760230	0.298191	0.000018
 812	8.0695e+01	8.0659	6.438864	0.000168	1.678359	0.284322	0.000017
 813	8.0794e+01	8.0767	6.455972	0.000172	1.719295	0.291256	0.000017
 814	8.0894e+01	8.0837	6.472266	0.000164	1.637423	0.277387	0.000016
 815	8.0993e+01	8.0973	6.489374	0.000172	1.719295	0.291256	0.000017
 816	8.1093e+01	8.1044	6.507705	0.000184	1.842101	0.312060	0.000018
 817	8.1192e+01	8.1165	6.527664	0.000201	2.005844	0.339799	0.000020
 818	8.1291e+01	8.1238	6.543551	0.000160	1.596488	0.270452	0.000016
 819	8.1391e+01	8.1357	6.560252	0.000168	1.678359	0.284322	0.000017
 820	8.1490e+01	8.1448	6.579397	0.000192	1.923972	0.325930	0.000019
 821	8.1590e+01	8.1547	6.592839	0.000135	1.350874	0.228844	0.000014
 822	8.1689e+01	8.1644	6.617280	0.000246	2.456135	0.416081	0.000025
 823	8.1789e+01	8.1739	6.633166	0.000160	1.596488	0.270452	0.000016
 824	8.1888e+01	8.1840	6.649460	0.000164	1.637423	0.277387	0.000016
 825	8.1988e+01	8.1909	6.669420	0.000201	2.005844	0.339799	0.000020
 826	8.2088e+01	8.2037	6.689379	0.000201	2.005844	0.339799	0.000020
 827	8.2187e+01	8.2122	6.704451	0.000151	1.514617	0.256583	0.000015
 828	8.2287e+01	8.2242	6.727262	0.000229	2.292393	0.388342	0.000023
 829	8.2386e+01	8.2320	6.744778	0.000176	1.760230	0.298191	0.000018
 830	8.2486e+01	8.2442	6.762294	0.000176	1.760230	0.298191	0.000018
 831	8.2585e+01	8.2547	6.781031	0.000188	1.883037	0.318995	0.000019
 832	8.2684e+01	8.2632	6.802621	0.000217	2.169586	0.367538	0.000022
 833	8.2784e+01	8.2764	6.823395	0.000209	2.087715	0.353668	0.000021
 834	8.2883e+01	8.2861	6.839689	0.000164	1.637423	0.277387	0.000016
 835	8.2983e+01	8.2922	6.859649	0.000201	2.005844	0.339799	0.000020
 836	8.3082e+01	8.3027	6.877572	0.000180	1.801166	0.305126	0.000018
 837	8.3182e+01	8.3131	6.901198	0.000237	2.374264	0.402211	0.000024
 838	8.3281e+01	8.3236	6.913418	0.000123	1.228068	0.208040	0.000012
 839	8.3381e+01	8.3357	6.937044	0.000237	2.374264	0.402211	0.000024
 840	8.3481e+01	8.3414	6.956596	0.000196	1.964908	0.332864	0.000020
 841	8.3580e+01	8.3521	6.978593	0.000221	2.210522	0.374472	0.000022
 842	8.3680e+01	8.3646	6.994072	0.000156	1.555552	0.263518	0.000016
 843	8.3779e+01	8.3729	7.012809	0.000188	1.883037	0.318995	0.000019
 844	8.3879e+01	8.3849	7.034806	0.000221	2.210522	0.374472	0.000022
 845	8.3978e+01	8.3940	7.052322	0.000176	1.760230	0.298191	0.000018
 846	8.4078e+01	8.4010	7.071874	0.000196	1.964908	0.332864	0.000020
 847	8.4177e+01	8.4165	7.095907	0.000242	2.415199	0.409146	0.000024
 848	8.4276e+01	8.4229	7.115460	0.000196	1.964908	0.332864	0.000020
 849	8.4376e+01	8.4335	7.133383	0.000180	1.801166	0.305126	0.000018
 850	8.4475e+01	8.4449	7.152528	0.000192	1.923972	0.325930	0.000019
 851	8.4575e+01	8.4541	7.171673	0.000192	1.923972	0.325930	0.000019
 852	8.4674e+01	8.4620	7.188374	0.000168	1.678359	0.284322	0.000017
 853	8.4774e+01	8.4718	7.208741	0.000205	2.046779	0.346734	0.000020
 854	8.4874e+01	8.4830	7.228701	0.000201	2.005844	0.339799	0.000020
 855	8.4973e+01	8.4924	7.244587	0.000160	1.596488	0.270452	0.000016
 856	8.5073e+01	8.5023	7.262103	0.000176	1.760230	0.298191	0.000018
 857	8.5172e+01	8.5126	7.285322	0.000233	2.333328	0.395277	0.000023
 858	8.5272e+01	8.5206	7.303652	0.000184	1.842101	0.312060	0.000018
 859	8.5371e+01	8.5313	7.325241	0.000217	2.169586	0.367538	0.000022
 860	8.5471e+01	8.5416	7.346016	0.000209	2.087715	0.353668	0.000021
 861	8.5570e+01	8.5526	7.361902	0.000160	1.596488	0.270452	0.000016
 862	8.5669e+01	8.5623	7.379418	0.000176	1.760230	0.298191	0.000018
 863	8.5769e+01	8.5722	7.399785	0.000205	2.046779	0.346734	0.000020
 864	8.5868e+01	8.5816	7.415671	0.000160	1.596488	0.270452	0.000016
 865	8.5968e+01	8.5902	7.434816	0.000192	1.923972	0.325930	0.000019
 866	8.6067e+01	8.6023	7.455183	0.000205	2.046779	0.346734	0.000020
 867	8.6167e+01	8.6118	7.474328	0.000192	1.923972	0.325930	0.000019
 868	8.6266e+01	8.6234	7.495103	0.000209	2.087715	0.353668	0.000021
 869	8.6366e+01	8.6337	7.516285	0.000213	2.128650	0.360603	0.000021
 870	8.6466e+01	8.6430	7.533800	0.000176	1.760230	0.298191	0.000018
 871	8.6565e+01	8.6518	7.554982	0.000213	2.128650	0.360603	0.000021
 872	8.6665e+01	8.6607	7.577386	0.000225	2.251457	0.381407	0.000023
 873	8.6764e+01	8.6707	7.597753	0.000205	2.046779	0.346734	0.000020
 874	8.6864e+01	8.6807	7.617306	0.000196	1.964908	0.332864	0.000020
 875	8.6963e+01	8.6903	7.640932	0.000237	2.374264	0.402211	0.000024
 876	8.7063e+01	8.7000	7.663743	0.000229	2.292393	0.388342	0.000023
 877	8.7162e+01	8.7109	7.681258	0.000176	1.760230	0.298191	0.000018
 878	8.7261e+01	8.7208	7.701218	0.000201	2.005844	0.339799	0.000020
 879	8.7361e+01	8.7315	7.724844	0.000237	2.374264	0.402211	0.000024
 880	8.7460e+01	8.7436	7.743582	0.000188	1.883037	0.318995	0.000019
 881	8.7560e+01	8.7486	7.767615	0.000242	2.415199	0.409146	0.000024
 882	8.7659e+01	8.7610	7.788390	0.000209	2.087715	0.353668	0.000021
 883	8.7759e+01	8.7704	7.810793	0.000225	2.251457	0.381407	0.000023
 884	8.7859e+01	8.7811	7.831975	0.000213	2.128650	0.360603	0.000021
 885	8.7958e+01	8.7927	7.852750	0.000209	2.087715	0.353668	0.000021
 886	8.8058e+01	8.7996	7.879227	0.000266	2.660813	0.450754	0.000027
 887	8.8157e+01	8.8095	7.900001	0.000209	2.087715	0.353668	0.000021
 888	8.8257e+01	8.8208	7.928515	0.000287	2.865491	0.485427	0.000029
 889	8.8356e+01	8.8295	7.947661	0.000192	1.923972	0.325930	0.000019
 890	8.8456e+01	8.8398	7.972101	0.000246	2.456135	0.416081	0.000025
 891	8.8555e+01	8.8490	7.997356	0.000254	2.538006	0.429950	0.000025
 892	8.8654e+01	8.8582	8.017316	0.000201	2.005844	0.339799	0.000020
 893	8.8754e+01	8.8708	8.039313	0.000221	2.210522	0.374472	0.000022
 894	8.8853e+01	8.8818	8.063753	0.000246	2.456135	0.416081	0.000025
 895	8.8953e+01	8.8898	8.088194	0.000246	2.456135	0.416081	0.000025
 896	8.9052e+01	8.8992	8.110598	0.000225	2.251457	0.381407	0.000023
 897	8.9152e+01	8.9092	8.139926	0.000295	2.947362	0.499297	0.000029
 898	8.9251e+01	8.9200	8.161923	0.000221	2.210522	0.374472	0.000022
 899	8.9351e+01	8.9307	8.182697	0.000209	2.087715	0.353668	0.000021
 900	8.9451e+01	8.9392	8.203879	0.000213	2.128650	0.360603	0.000021
 901	8.9550e+01	8.9490	8.229542	0.000258	2.578942	0.436885	0.000026
 902	8.9650e+01	8.9585	8.253167	0.000237	2.374264	0.402211	0.000024
 903	8.9749e+01	8.9707	8.275979	0.000229	2.292393	0.388342	0.000023
 904	8.9849e+01	8.9783	8.302863	0.000270	2.701749	0.457689	0.000027
 905	8.9948e+01	8.9896	8.318750	0.000160	1.596488	0.270452	0.000016
 906	9.0047e+01	8.9997	8.345227	0.000266	2.660813	0.450754	0.000027
 907	9.0147e+01	9.0091	8.367631	0.000225	2.251457	0.381407	0.000023
 908	9.0246e+01	9.0162	8.390035	0.000225	2.251457	0.381407	0.000023
 909	9.0346e+01	9.0299	8.414068	0.000242	2.415199	0.409146	0.000024
 910	9.0445e+01	9.0391	8.434028	0.000201	2.005844	0.339799	0.000020
 911	9.0545e+01	9.0462	8.457246	0.000233	2.333328	0.395277	0.000023
 912	9.0644e+01	9.0591	8.480057	0.000229	2.292393	0.388342	0.000023
 913	9.0744e+01	9.0698	8.500832	0.000209	2.087715	0.353668	0.000021
 914	9.0844e+01	9.0782	8.523236	0.000225	2.251457	0.381407	0.000023
 915	9.0943e+01	9.0894	8.545639	0.000225	2.251457	0.381407	0.000023
 916	9.1043e+01	9.0991	8.566821	0.000213	2.128650	0.360603	0.000021
 917	9.1142e+01	9.1083	8.592891	0.000262	2.619877	0.443819	0.000026
 918	9.1242e+01	9.1214	8.612851	0.000201	2.005844	0.339799	0.000020
 919	9.1341e+01	9.1286	8.636477	0.000237	2.374264	0.402211	0.000024
 920	9.1441e+01	9.1376	8.658881	0.000225	2.251457	0.381407	0.000023
 921	9.1540e+01	9.1483	8.680062	0.000213	2.128650	0.360603	0.000021
 922	9.1639e+01	9.1592	8.700022	0.000201	2.005844	0.339799	0.000020
 923	9.1739e+01	9.1685	8.721204	0.000213	2.128650	0.360603	0.000021
 924	9.1838e+01	9.1815	8.744015	0.000229	2.292393	0.388342	0.000023
 925	9.1938e+01	9.1882	8.767641	0.000237	2.374264	0.402211	0.000024
 926	9.2037e+01	9.1988	8.788823	0.000213	2.128650	0.360603	0.000021
 927	9.2137e+01	9.2093	8.807968	0.000192	1.923972	0.325930	0.000019
 928	9.2237e+01	9.2163	8.828335	0.000205	2.046779	0.346734	0.000020
 929	9.2336e+01	9.2265	8.853590	0.000254	2.538006	0.429950	0.000025
 930	9.2436e+01	9.2395	8.877624	0.000242	2.415199	0.409146	0.000024
 931	9.2535e+01	9.2445	8.903286	0.000258	2.578942	0.436885	0.000026
 932	9.2635e+01	9.2590	8.922839	0.000196	1.964908	0.332864	0.000020
 933	9.2734e+01	9.2694	8.948909	0.000262	2.619877	0.443819	0.000026
 934	9.2834e+01	9.2773	8.968054	0.000192	1.923972	0.325930	0.000019
 935	9.2933e+01	9.2874	8.992902	0.000250	2.497071	0.423015	0.000025
 936	9.3032e+01	9.2969	9.018971	0.000262	2.619877	0.443819	0.000026
 937	9.3132e+01	9.3070	9.043412	0.000246	2.456135	0.416081	0.000025
 938	9.3231e+01	9.3201	9.067853	0.000246	2.456135	0.416081	0.000025
 939	9.3331e+01	9.3288	9.093922	0.000262	2.619877	0.443819	0.000026
 940	9.3430e+01	9.3386	9.115104	0.000213	2.128650	0.360603	0.000021
 941	9.3530e+01	9.3472	9.135879	0.000209	2.087715	0.353668	0.000021
 942	9.3629e+01	9.3567	9.167651	0.000319	3.192976	0.540905	0.000032
 943	9.3729e+01	9.3677	9.188426	0.000209	2.087715	0.353668	0.000021
 944	9.3829e+01	9.3778	9.213681	0.000254	2.538006	0.429950	0.000025
 945	9.3928e+01	9.3872	9.239751	0.000262	2.619877	0.443819	0.000026
 946	9.4028e+01	9.3970	9.262970	0.000233	2.333328	0.395277	0.000023
 947	9.4127e+01	9.4064	9.290669	0.000278	2.783620	0.471558	0.000028
 948	9.4227e+01	9.4173	9.314295	0.000237	2.374264	0.402211	0.000024
 949	9.4326e+01	9.4269	9.334662	0.000205	2.046779	0.346734	0.000020
 950	9.4425e+01	9.4363	9.363991	0.000295	2.947362	0.499297	0.000029
 951	9.4525e+01	9.4482	9.385580	0.000217	2.169586	0.367538	0.000022
 952	9.4624e+01	9.4581	9.410020	0.000246	2.456135	0.416081	0.000025
 953	9.4724e+01	9.4671	9.435276	0.000254	2.538006	0.429950	0.000025
 954	9.4823e+01	9.4779	9.458901	0.000237	2.374264	0.402211	0.000024
 955	9.4923e+01	9.4878	9.478454	0.000196	1.964908	0.332864	0.000020
 956	9.5022e+01	9.4965	9.502080	0.000237	2.374264	0.402211	0.000024
 957	9.5122e+01	9.5057	9.525298	0.000233	2.333328	0.395277	0.000023
 958	9.5222e+01	9.5145	9.548924	0.000237	2.374264	0.402211	0.000024
 959	9.5321e+01	9.5277	9.572143	0.000233	2.333328	0.395277	0.000023
 960	9.5421e+01	9.5386	9.596583	0.000246	2.456135	0.416081	0.000025
 961	9.5520e+01	9.5438	9.618987	0.000225	2.251457	0.381407	0.000023
 962	9.5620e+01	9.5557	9.643428	0.000246	2.456135	0.416081	0.000025
 963	9.5719e+01	9.5654	9.663795	0.000205	2.046779	0.346734	0.000020
 964	9.5819e+01	9.5761	9.690679	0.000270	2.701749	0.457689	0.000027
 965	9.5918e+01	9.5869	9.716342	0.000258	2.578942	0.436885	0.000026
 966	9.6017e+01	9.5972	9.734672	0.000184	1.842101	0.312060	0.000018
 967	9.6117e+01	9.6045	9.756669	0.000221	2.210522	0.374472	0.000022
 968	9.6216e+01	9.6162	9.777851	0.000213	2.128650	0.360603	0.000021
 969	9.6316e+01	9.6252	9.803513	0.000258	2.578942	0.436885	0.000026
 970	9.6415e+01	9.6350	9.824288	0.000209	2.087715	0.353668	0.000021
 971	9.6515e+01	9.6477	9.848728	0.000246	2.456135	0.416081	0.000025
 972	9.6615e+01	9.6576	9.869095	0.000205	2.046779	0.346734	0.000020
 973	9.6714e+01	9.6663	9.888648	0.000196	1.964908	0.332864	0.000020
 974	9.6814e+01	9.6760	9.913496	0.000250	2.497071	0.423015	0.000025
 975	9.6913e+01	9.6855	9.934677	0.000213	2.128650	0.360603	0.000021
 976	9.7013e+01	9.6939	9.959118	0.000246	2.456135	0.416081	0.000025
 977	9.7112e+01	9.7059	9.980707	0.000217	2.169586	0.367538	0.000022
 978	9.7212e+01	9.7168	10.005555	0.000250	2.497071	0.423015	0.000025
 979	9.7311e+01	9.7279	10.023478	0.000180	1.801166	0.305126	0.000018
 980	9.7410e+01	9.7339	10.044660	0.000213	2.128650	0.360603	0.000021
 981	9.7510e+01	9.7466	10.065434	0.000209	2.087715	0.353668	0.000021
 982	9.7609e+01	9.7543	10.087838	0.000225	2.251457	0.381407	0.000023
 983	9.7709e+01	9.7674	10.110242	0.000225	2.251457	0.381407	0.000023
 984	9.7808e+01	9.7774	10.135090	0.000250	2.497071	0.423015	0.000025
 985	9.7908e+01	9.7855	10.157901	0.000229	2.292393	0.388342	0.000023
 986	9.8007e+01	9.7955	10.179898	0.000221	2.210522	0.374472	0.000022
 987	9.8107e+01	9.8035	10.201487	0.000217	2.169586	0.367538	0.000022
 988	9.8207e+01	9.8145	10.225927	0.000246	2.456135	0.416081	0.000025
 989	9.8306e+01	9.8251	10.247924	0.000221	2.210522	0.374472	0.000022
 990	9.8406e+01	9.8347	10.271550	0.000237	2.374264	0.402211	0.000024
 991	9.8505e+01	9.8419	10.295583	0.000242	2.415199	0.409146	0.000024
 992	9.8605e+01	9.8544	10.323690	0.000282	2.824555	0.478493	0.000028
 993	9.8704e+01	9.8633	10.348130	0.000246	2.456135	0.416081	0.000025
 994	9.8803e+01	9.8730	10.369719	0.000217	2.169586	0.367538	0.000022
 995	9.8903e+01	9.8835	10.397826	0.000282	2.824555	0.478493	0.000028
 996	9.9002e+01	9.8927	10.421044	0.000233	2.333328	0.395277	0.000023
 997	9.9102e+01	9.9033	10.449151	0.000282	2.824555	0.478493	0.000028
 998	9.9201e+01	9.9153	10.470740	0.000217	2.169586	0.367538	0.000022
 999	9.9301e+01	9.9247	10.495996	0.000254	2.538006	0.429950	0.000025
1000	9.9400e+01	9.9342	10.527768	0.000319	3.192976	0.540905	0.000032
1001	9.9500e+01	9.9438	10.551394	0.000237	2.374264	0.402211	0.000024
1002	9.9600e+01	9.9561	10.575427	0.000242	2.415199	0.409146	0.000024
1003	9.9699e+01	9.9663	10.597424	0.000221	2.210522	0.374472	0.000022
1004	9.9799e+01	9.9738	10.622679	0.000254	2.538006	0.429950	0.000025
1005	9.9898e+01	9.9873	10.648749	0.000262	2.619877	0.443819	0.000026
1006	9.9998e+01	9.9957	10.677263	0.000287	2.865491	0.485427	0.000029
1007	1.0010e+02	9.9870	10.671153	0.000061	0.614034	0.104020	-0.000006
1008	1.0020e+02	9.9731	10.664635	0.000065	0.654969	0.110955	-0.000007
1009	1.0030e+02	9.9641	10.662599	0.000020	0.204678	0.034673	-0.000002
1010	1.0040e+02	9.9539	10.655674	0.000070	0.695905	0.117889	-0.000007
1011	1.0050e+02	9.9487	10.649156	0.000065	0.654969	0.110955	-0.000007
1012	1.0059e+02	9.9348	10.643861	0.000053	0.532163	0.090151	-0.000005
1013	1.0069e+02	9.9243	10.635714	0.000082	0.818712	0.138694	-0.000008
1014	1.0079e+02	9.9146	10.633270	0.000025	0.245614	0.041608	-0.000002
1015	1.0089e+02	9.9049	10.625530	0.000078	0.777776	0.131759	-0.000008
1016	1.0099e+02	9.8951	10.616976	0.000086	0.859647	0.145628	-0.000009
1017	1.0109e+02	9.8837	10.614125	0.000029	0.286549	0.048543	-0.000003
1018	1.0119e+02	9.8730	10.605978	0.000082	0.818712	0.138694	-0.000008
1019	1.0129e+02	9.8651	10.599461	0.000065	0.654969	0.110955	-0.000007
1020	1.0139e+02	9.8560	10.590092	0.000094	0.941518	0.159498	-0.000009
1021	1.0149e+02	9.8431	10.581537	0.000086	0.859647	0.145628	-0.000009
1022	1.0159e+02	9.8361	10.575427	0.000061	0.614034	0.104020	-0.000006
1023	1.0169e+02	9.8263	10.567280	0.000082	0.818712	0.138694	-0.000008
1024	1.0179e+02	9.8154	10.560763	0.000065	0.654969	0.110955	-0.000007
1025	1.0189e+02	9.8053	10.555468	0.000053	0.532163	0.090151	-0.000005
1026	1.0199e+02	9.7932	10.546506	0.000090	0.900583	0.152563	-0.000009
1027	1.0209e+02	9.7877	10.539174	0.000074	0.736841	0.124824	-0.000007
1028	1.0219e+02	9.7754	10.529805	0.000094	0.941518	0.159498	-0.000009
1029	1.0229e+02	9.7659	10.522065	0.000078	0.777776	0.131759	-0.000008
1030	1.0239e+02	9.7565	10.515141	0.000070	0.695905	0.117889	-0.000007
1031	1.0248e+02	9.7443	10.505772	0.000094	0.941518	0.159498	-0.000009
1032	1.0258e+02	9.7363	10.493959	0.000119	1.187132	0.201106	-0.000012
1033	1.0268e+02	9.7260	10.484183	0.000098	0.982454	0.166432	-0.000010
1034	1.0278e+02	9.7168	10.477258	0.000070	0.695905	0.117889	-0.000007
1035	1.0288e+02	9.7070	10.467482	0.000098	0.982454	0.166432	-0.000010
1036	1.0298e+02	9.6937	10.458927	0.000086	0.859647	0.145628	-0.000009
1037	1.0308e+02	9.6875	10.452817	0.000061	0.614034	0.104020	-0.000006
1038	1.0318e+02	9.6780	10.443448	0.000094	0.941518	0.159498	-0.000009
1039	1.0328e+02	9.6665	10.438153	0.000053	0.532163	0.090151	-0.000005
1040	1.0338e+02	9.6552	10.425118	0.000131	1.309939	0.221910	-0.000013
1041	1.0348e+02	9.6449	10.419008	0.000061	0.614034	0.104020	-0.000006
1042	1.0358e+02	9.6375	10.410861	0.000082	0.818712	0.138694	-0.000008
1043	1.0368e+02	9.6278	10.403936	0.000070	0.695905	0.117889	-0.000007
1044	1.0378e+02	9.6179	10.398641	0.000053	0.532163	0.090151	-0.000005
1045	1.0388e+02	9.6039	10.384384	0.000143	1.432745	0.242714	-0.000014
1046	1.0398e+02	9.5957	10.376644	0.000078	0.777776	0.131759	-0.000008
1047	1.0408e+02	9.5850	10.368905	0.000078	0.777776	0.131759	-0.000008
1048	1.0418e+02	9.5762	10.364424	0.000045	0.450291	0.076281	-0.000005
1049	1.0428e+02	9.5657	10.352611	0.000119	1.187132	0.201106	-0.000012
1050	1.0438e+02	9.5544	10.348538	0.000041	0.409356	0.069347	-0.000004
1051	1.0447e+02	9.5468	10.339576	0.000090	0.900583	0.152563	-0.000009
1052	1.0457e+02	9.5361	10.333059	0.000065	0.654969	0.110955	-0.000007
1053	1.0467e+02	9.5245	10.324912	0.000082	0.818712	0.138694	-0.000008
1054	1.0477e+02	9.5156	10.322468	0.000025	0.245614	0.041608	-0.000002
1055	1.0487e+02	9.5081	10.312691	0.000098	0.982454	0.166432	-0.000010
1056	1.0497e+02	9.4930	10.302508	0.000102	1.023390	0.173367	-0.000010
1057	1.0507e+02	9.4859	10.299249	0.000033	0.327485	0.055477	-0.000003
1058	1.0517e+02	9.4760	10.291917	0.000074	0.736841	0.124824	-0.000007
1059	1.0527e+02	9.4678	10.283770	0.000082	0.818712	0.138694	-0.000008
1060	1.0537e+02	9.4568	10.274401	0.000094	0.941518	0.159498	-0.000009
1061	1.0547e+02	9.4449	10.269513	0.000049	0.491227	0.083216	-0.000005
1062	1.0557e+02	9.4366	10.258922	0.000106	1.064325	0.180302	-0.000011
1063	1.0567e+02	9.4287	10.253627	0.000053	0.532163	0.090151	-0.000005
1064	1.0577e+02	9.4174	10.246295	0.000074	0.736841	0.124824	-0.000007
1065	1.0587e+02	9.4067	10.237333	0.000090	0.900583	0.152563	-0.000009
1066	1.0597e+02	9.3974	10.225520	0.000119	1.187132	0.201106	-0.000012
1067	1.0607e+02	9.3872	10.220225	0.000053	0.532163	0.090151	-0.000005
1068	1.0617e+02	9.3775	10.213707	0.000065	0.654969	0.110955	-0.000007
1069	1.0627e+02	9.3643	10.204746	0.000090	0.900583	0.152563	-0.000009
1070	1.0637e+02	9.3571	10.192118	0.000127	1.269003	0.214975	-0.000013
1071	1.0647e+02	9.3480	10.186823	0.000053	0.532163	0.090151	-0.000005
1072	1.0656e+02	9.3386	10.176639	0.000102	1.023390	0.173367	-0.000010
1073	1.0666e+02	9.3277	10.166455	0.000102	1.023390	0.173367	-0.000010
1074	1.0676e+02	9.3176	10.157494	0.000090	0.900583	0.152563	-0.000009
1075	1.0686e+02	9.3102	10.146088	0.000115	1.146196	0.194171	-0.000011
1076	1.0696e+02	9.2957	10.139978	0.000061	0.614034	0.104020	-0.000006
1077	1.0706e+02	9.2871	10.128165	0.000119	1.187132	0.201106	-0.000012
1078	1.0716e+02	9.2769	10.115130	0.000131	1.309939	0.221910	-0.000013
1079	1.0726e+02	9.2690	10.106169	0.000090	0.900583	0.152563	-0.000009
1080	1.0736e+02	9.2567	10.094356	0.000119	1.187132	0.201106	-0.000012
1081	1.0746e+02	9.2473	10.085802	0.000086	0.859647	0.145628	-0.000009
1082	1.0756e+02	9.2361	10.071952	0.000139	1.391810	0.235779	-0.000014
1083	1.0766e+02	9.2276	10.064620	0.000074	0.736841	0.124824	-0.000007
1084	1.0776e+02	9.2179	10.051992	0.000127	1.269003	0.214975	-0.000013
1085	1.0786e+02	9.2057	10.043438	0.000086	0.859647	0.145628	-0.000009
1086	1.0796e+02	9.1992	10.031218	0.000123	1.228068	0.208040	-0.000012
1087	1.0806e+02	9.1871	10.021034	0.000102	1.023390	0.173367	-0.000010
1088	1.0816e+02	9.1785	10.012073	0.000090	0.900583	0.152563	-0.000009
1089	1.0826e+02	9.1666	9.999038	0.000131	1.309939	0.221910	-0.000013
1090	1.0836e+02	9.1586	9.986817	0.000123	1.228068	0.208040	-0.000012
1091	1.0845e+02	9.1504	9.979078	0.000078	0.777776	0.131759	-0.000008
1092	1.0855e+02	9.1386	9.966450	0.000127	1.269003	0.214975	-0.000013
1093	1.0865e+02	9.1297	9.953415	0.000131	1.309939	0.221910	-0.000013
1094	1.0875e+02	9.1197	9.938751	0.000147	1.473681	0.249648	-0.000015
1095	1.0885e+02	9.1095	9.934270	0.000045	0.450291	0.076281	-0.000005
1096	1.0895e+02	9.0992	9.919198	0.000151	1.514617	0.256583	-0.000015
1097	1.0905e+02	9.0885	9.908608	0.000106	1.064325	0.180302	-0.000011
1098	1.0915e+02	9.0778	9.897202	0.000115	1.146196	0.194171	-0.000011
1099	1.0925e+02	9.0696	9.887018	0.000102	1.023390	0.173367	-0.000010
1100	1.0935e+02	9.0582	9.871539	0.000156	1.555552	0.263518	-0.000016
1101	1.0945e+02	9.0466	9.863393	0.000082	0.818712	0.138694	-0.000008
1102	1.0955e+02	9.0394	9.852394	0.000111	1.105261	0.187236	-0.000011
1103	1.0965e+02	9.0284	9.844247	0.000082	0.818712	0.138694	-0.000008
1104	1.0975e+02	9.0186	9.830398	0.000139	1.391810	0.235779	-0.000014
1105	1.0985e+02	9.0121	9.818585	0.000119	1.187132	0.201106	-0.000012
1106	1.0995e+02	8.9994	9.807994	0.000106	1.064325	0.180302	-0.000011
1107	1.1005e+02	8.9874	9.796181	0.000119	1.187132	0.201106	-0.000012
1108	1.1015e+02	8.9801	9.786812	0.000094	0.941518	0.159498	-0.000009
1109	1.1025e+02	8.9703	9.774592	0.000123	1.228068	0.208040	-0.000012
1110	1.1035e+02	8.9600	9.761557	0.000131	1.309939	0.221910	-0.000013
1111	1.1044e+02	8.9490	9.749337	0.000123	1.228068	0.208040	-0.000012
1112	1.1054e+02	8.9404	9.740375	0.000090	0.900583	0.152563	-0.000009
1113	1.1064e+02	8.9318	9.725711	0.000147	1.473681	0.249648	-0.000015
1114	1.1074e+02	8.9214	9.715120	0.000106	1.064325	0.180302	-0.000011
1115	1.1084e+02	8.9101	9.703307	0.000119	1.187132	0.201106	-0.000012
1116	1.1094e+02	8.9023	9.694345	0.000090	0.900583	0.152563	-0.000009
1117	1.1104e+02	8.8916	9.680903	0.000135	1.350874	0.228844	-0.000014
1118	1.1114e+02	8.8794	9.671534	0.000094	0.941518	0.159498	-0.000009
1119	1.1124e+02	8.8690	9.656870	0.000147	1.473681	0.249648	-0.000015
1120	1.1134e+02	8.8623	9.642613	0.000143	1.432745	0.242714	-0.000014
1121	1.1144e+02	8.8488	9.635281	0.000074	0.736841	0.124824	-0.000007
1122	1.1154e+02	8.8407	9.614914	0.000205	2.046779	0.346734	-0.000020
1123	1.1164e+02	8.8309	9.603915	0.000111	1.105261	0.187236	-0.000011
1124	1.1174e+02	8.8204	9.594954	0.000090	0.900583	0.152563	-0.000009
1125	1.1184e+02	8.8078	9.573772	0.000213	2.128650	0.360603	-0.000021
1126	1.1194e+02	8.8002	9.561144	0.000127	1.269003	0.214975	-0.000013
1127	1.1204e+02	8.7917	9.552998	0.000082	0.818712	0.138694	-0.000008
1128	1.1214e+02	8.7829	9.536704	0.000164	1.637423	0.277387	-0.000016
1129	1.1224e+02	8.7695	9.522039	0.000147	1.473681	0.249648	-0.000015
1130	1.1234e+02	8.7631	9.511449	0.000106	1.064325	0.180302	-0.000011
1131	1.1244e+02	8.7518	9.493118	0.000184	1.842101	0.312060	-0.000018
1132	1.1253e+02	8.7391	9.480083	0.000131	1.309939	0.221910	-0.000013
1133	1.1263e+02	8.7310	9.466234	0.000139	1.391810	0.235779	-0.000014
1134	1.1273e+02	8.7207	9.448718	0.000176	1.760230	0.298191	-0.000018
1135	1.1283e+02	8.7117	9.435683	0.000131	1.309939	0.221910	-0.000013
1136	1.1293e+02	8.7015	9.418574	0.000172	1.719295	0.291256	-0.000017
1137	1.1303e+02	8.6921	9.405132	0.000135	1.350874	0.228844	-0.000014
1138	1.1313e+02	8.6824	9.387616	0.000176	1.760230	0.298191	-0.000018
1139	1.1323e+02	8.6709	9.370101	0.000176	1.760230	0.298191	-0.000018
1140	1.1333e+02	8.6603	9.355029	0.000151	1.514617	0.256583	-0.000015
1141	1.1343e+02	8.6532	9.339143	0.000160	1.596488	0.270452	-0.000016
1142	1.1353e+02	8.6443	9.322034	0.000172	1.719295	0.291256	-0.000017
1143	1.1363e+02	8.6325	9.304926	0.000172	1.719295	0.291256	-0.000017
1144	1.1373e+02	8.6219	9.289040	0.000160	1.596488	0.270452	-0.000016
1145	1.1383e+02	8.6162	9.270302	0.000188	1.883037	0.318995	-0.000019
1146	1.1393e+02	8.6018	9.254823	0.000156	1.555552	0.263518	-0.000016
1147	1.1403e+02	8.5945	9.237307	0.000176	1.760230	0.298191	-0.000018
1148	1.1413e+02	8.5844	9.221421	0.000160	1.596488	0.270452	-0.000016
1149	1.1423e+02	8.5722	9.206349	0.000151	1.514617	0.256583	-0.000015
1150	1.1433e+02	8.5615	9.185982	0.000205	2.046779	0.346734	-0.000020
1151	1.1442e+02	8.5535	9.169688	0.000164	1.637423	0.277387	-0.000016
1152	1.1452e+02	8.5434	9.151765	0.000180	1.801166	0.305126	-0.000018
1153	1.1462e+02	8.5305	9.137508	0.000143	1.432745	0.242714	-0.000014
1154	1.1472e+02	8.5246	9.120807	0.000168	1.678359	0.284322	-0.000017
1155	1.1482e+02	8.5110	9.107772	0.000131	1.309939	0.221910	-0.000013
1156	1.1492e+02	8.5024	9.087812	0.000201	2.005844	0.339799	-0.000020
1157	1.1502e+02	8.4924	9.072333	0.000156	1.555552	0.263518	-0.000016
1158	1.1512e+02	8.4827	9.057669	0.000147	1.473681	0.249648	-0.000015
1159	1.1522e+02	8.4707	9.038931	0.000188	1.883037	0.318995	-0.000019
1160	1.1532e+02	8.4599	9.024674	0.000143	1.432745	0.242714	-0.000014
1161	1.1542e+02	8.4546	9.007973	0.000168	1.678359	0.284322	-0.000017
1162	1.1552e+02	8.4431	8.995753	0.000123	1.228068	0.208040	-0.000012
1163	1.1562e+02	8.4330	8.979052	0.000168	1.678359	0.284322	-0.000017
1164	1.1572e+02	8.4234	8.964388	0.000147	1.473681	0.249648	-0.000015
1165	1.1582e+02	8.4112	8.946057	0.000184	1.842101	0.312060	-0.000018
1166	1.1592e+02	8.4027	8.934244	0.000119	1.187132	0.201106	-0.000012
1167	1.1602e+02	8.3941	8.915506	0.000188	1.883037	0.318995	-0.000019
1168	1.1612e+02	8.3820	8.899213	0.000164	1.637423	0.277387	-0.000016
1169	1.1622e+02	8.3740	8.882512	0.000168	1.678359	0.284322	-0.000017
1170	1.1632e+02	8.3630	8.868255	0.000143	1.432745	0.242714	-0.000014
1171	1.1642e+02	8.3528	8.853183	0.000151	1.514617	0.256583	-0.000015
1172	1.1651e+02	8.3427	8.837297	0.000160	1.596488	0.270452	-0.000016
1173	1.1661e+02	8.3317	8.820188	0.000172	1.719295	0.291256	-0.000017
1174	1.1671e+02	8.3228	8.806746	0.000135	1.350874	0.228844	-0.000014
1175	1.1681e+02	8.3154	8.786786	0.000201	2.005844	0.339799	-0.000020
1176	1.1691e+02	8.3021	8.771715	0.000151	1.514617	0.256583	-0.000015
1177	1.1701e+02	8.2924	8.752569	0.000192	1.923972	0.325930	-0.000019
1178	1.1711e+02	8.2826	8.741164	0.000115	1.146196	0.194171	-0.000011
1179	1.1721e+02	8.2742	8.724870	0.000164	1.637423	0.277387	-0.000016
1180	1.1731e+02	8.2626	8.708169	0.000168	1.678359	0.284322	-0.000017
1181	1.1741e+02	8.2526	8.695541	0.000127	1.269003	0.214975	-0.000013
1182	1.1751e+02	8.2440	8.676804	0.000188	1.883037	0.318995	-0.000019
1183	1.1761e+02	8.2319	8.661325	0.000156	1.555552	0.263518	-0.000016
1184	1.1771e+02	8.2245	8.643402	0.000180	1.801166	0.305126	-0.000018
1185	1.1781e+02	8.2155	8.630367	0.000131	1.309939	0.221910	-0.000013
1186	1.1791e+02	8.2015	8.608370	0.000221	2.210522	0.374472	-0.000022
1187	1.1801e+02	8.1934	8.594520	0.000139	1.391810	0.235779	-0.000014
1188	1.1811e+02	8.1856	8.577412	0.000172	1.719295	0.291256	-0.000017
1189	1.1821e+02	8.1738	8.559489	0.000180	1.801166	0.305126	-0.000018
1190	1.1831e+02	8.1653	8.544010	0.000156	1.555552	0.263518	-0.000016
1191	1.1841e+02	8.1550	8.527309	0.000168	1.678359	0.284322	-0.000017
1192	1.1850e+02	8.1442	8.508164	0.000192	1.923972	0.325930	-0.000019
1193	1.1860e+02	8.1329	8.493092	0.000151	1.514617	0.256583	-0.000015
1194	1.1870e+02	8.1216	8.474354	0.000188	1.883037	0.318995	-0.000019
1195	1.1880e+02	8.1139	8.455617	0.000188	1.883037	0.318995	-0.000019
1196	1.1890e+02	8.1050	8.442174	0.000135	1.350874	0.228844	-0.000014
1197	1.1900e+02	8.0934	8.423844	0.000184	1.842101	0.312060	-0.000018
1198	1.1910e+02	8.0826	8.405514	0.000184	1.842101	0.312060	-0.000018
1199	1.1920e+02	8.0721	8.389627	0.000160	1.596488	0.270452	-0.000016
1200	1.1930e+02	8.0625	8.373741	0.000160	1.596488	0.270452	-0.000016
1201	1.1940e+02	8.0532	8.355818	0.000180	1.801166	0.305126	-0.000018
1202	1.1950e+02	8.0441	8.333821	0.000221	2.210522	0.374472	-0.000022
1203	1.1960e+02	8.0353	8.321601	0.000123	1.228068	0.208040	-0.000012
1204	1.1970e+02	8.0225	8.306529	0.000151	1.514617	0.256583	-0.000015
1205	1.1980e+02	8.0127	8.288606	0.000180	1.801166	0.305126	-0.000018
1206	1.1990e+02	8.0054	8.272720	0.000160	1.596488	0.270452	-0.000016
1207	1.2000e+02	7.9973	8.257241	0.000156	1.555552	0.263518	-0.000016
1208	1.2010e+02	7.9853	8.242984	0.000143	1.432745	0.242714	-0.000014
1209	1.2020e+02	7.9752	8.227098	0.000160	1.596488	0.270452	-0.000016
1210	1.2030e+02	7.9666	8.210804	0.000164	1.637423	0.277387	-0.000016
1211	1.2039e+02	7.9552	8.195325	0.000156	1.555552	0.263518	-0.000016
1212	1.2049e+02	7.9447	8.179438	0.000160	1.596488	0.270452	-0.000016
1213	1.2059e+02	7.9359	8.161515	0.000180	1.801166	0.305126	-0.000018
1214	1.2069e+02	7.9250	8.148888	0.000127	1.269003	0.214975	-0.000013
1215	1.2079e+02	7.9170	8.133816	0.000151	1.514617	0.256583	-0.000015
1216	1.2089e+02	7.9063	8.117930	0.000160	1.596488	0.270452	-0.000016
1217	1.2099e+02	7.8955	8.101636	0.000164	1.637423	0.277387	-0.000016
1218	1.2109e+02	7.8873	8.089008	0.000127	1.269003	0.214975	-0.000013
1219	1.2119e+02	7.8755	8.071085	0.000180	1.801166	0.305126	-0.000018
1220	1.2129e+02	7.8635	8.058458	0.000127	1.269003	0.214975	-0.000013
1221	1.2139e+02	7.8551	8.043793	0.000147	1.473681	0.249648	-0.000015
1222	1.2149e+02	7.8462	8.028314	0.000156	1.555552	0.263518	-0.000016
1223	1.2159e+02	7.8345	8.014057	0.000143	1.432745	0.242714	-0.000014
1224	1.2169e+02	7.8242	7.998986	0.000151	1.514617	0.256583	-0.000015
1225	1.2179e+02	7.8149	7.986358	0.000127	1.269003	0.214975	-0.000013
1226	1.2189e+02	7.8065	7.972916	0.000135	1.350874	0.228844	-0.000014
1227	1.2199e+02	7.7982	7.956622	0.000164	1.637423	0.277387	-0.000016
1228	1.2209e+02	7.7858	7.944809	0.000119	1.187132	0.201106	-0.000012
1229	1.2219e+02	7.7755	7.927701	0.000172	1.719295	0.291256	-0.000017
1230	1.2229e+02	7.7663	7.917925	0.000098	0.982454	0.166432	-0.000010
1231	1.2239e+02	7.7603	7.902853	0.000151	1.514617	0.256583	-0.000015
1232	1.2248e+02	7.7474	7.884930	0.000180	1.801166	0.305126	-0.000018
1233	1.2258e+02	7.7377	7.871895	0.000131	1.309939	0.221910	-0.000013
1234	1.2268e+02	7.7279	7.858453	0.000135	1.350874	0.228844	-0.000014
1235	1.2278e+02	7.7153	7.845825	0.000127	1.269003	0.214975	-0.000013
1236	1.2288e+02	7.7051	7.831161	0.000147	1.473681	0.249648	-0.000015
1237	1.2298e+02	7.6959	7.817311	0.000139	1.391810	0.235779	-0.000014
1238	1.2308e+02	7.6855	7.803054	0.000143	1.432745	0.242714	-0.000014
1239	1.2318e+02	7.6745	7.787575	0.000156	1.555552	0.263518	-0.000016
1240	1.2328e+02	7.6660	7.774540	0.000131	1.309939	0.221910	-0.000013
1241	1.2338e+02	7.6566	7.757024	0.000176	1.760230	0.298191	-0.000018
1242	1.2348e+02	7.6489	7.743582	0.000135	1.350874	0.228844	-0.000014
1243	1.2358e+02	7.6367	7.731362	0.000123	1.228068	0.208040	-0.000012
1244	1.2368e+02	7.6270	7.712624	0.000188	1.883037	0.318995	-0.000019
1245	1.2378e+02	7.6162	7.696738	0.000160	1.596488	0.270452	-0.000016
1246	1.2388e+02	7.6077	7.680851	0.000160	1.596488	0.270452	-0.000016
1247	1.2398e+02	7.5974	7.664965	0.000160	1.596488	0.270452	-0.000016
1248	1.2408e+02	7.5879	7.646227	0.000188	1.883037	0.318995	-0.000019
1249	1.2418e+02	7.5758	7.635636	0.000106	1.064325	0.180302	-0.000011
1250	1.2428e+02	7.5700	7.616084	0.000196	1.964908	0.332864	-0.000020
1251	1.2438e+02	7.5564	7.598568	0.000176	1.760230	0.298191	-0.000018
1252	1.2447e+02	7.5491	7.582274	0.000164	1.637423	0.277387	-0.000016
1253	1.2457e+02	7.5368	7.568832	0.000135	1.350874	0.228844	-0.000014
1254	1.2467e+02	7.5298	7.554982	0.000139	1.391810	0.235779	-0.000014
1255	1.2477e+02	7.5175	7.535023	0.000201	2.005844	0.339799	-0.000020
1256	1.2487e+02	7.5054	7.523617	0.000115	1.146196	0.194171	-0.000011
1257	1.2497e+02	7.4986	7.504472	0.000192	1.923972	0.325930	-0.000019
1258	1.2507e+02	7.4891	7.488585	0.000160	1.596488	0.270452	-0.000016
1259	1.2517e+02	7.4789	7.469033	0.000196	1.964908	0.332864	-0.000020
1260	1.2527e+02	7.4668	7.456405	0.000127	1.269003	0.214975	-0.000013
1261	1.2537e+02	7.4576	7.439297	0.000172	1.719295	0.291256	-0.000017
1262	1.2547e+02	7.4483	7.420559	0.000188	1.883037	0.318995	-0.000019
1263	1.2557e+02	7.4380	7.405488	0.000151	1.514617	0.256583	-0.000015
1264	1.2567e+02	7.4280	7.388787	0.000168	1.678359	0.284322	-0.000017
1265	1.2577e+02	7.4172	7.375752	0.000131	1.309939	0.221910	-0.000013
1266	1.2587e+02	7.4073	7.354977	0.000209	2.087715	0.353668	-0.000021
1267	1.2597e+02	7.3981	7.341535	0.000135	1.350874	0.228844	-0.000014
1268	1.2607e+02	7.3879	7.328500	0.000131	1.309939	0.221910	-0.000013
1269	1.2617e+02	7.3780	7.310577	0.000180	1.801166	0.305126	-0.000018
1270	1.2627e+02	7.3676	7.296320	0.000143	1.432745	0.242714	-0.000014
1271	1.2636e+02	7.3580	7.276360	0.000201	2.005844	0.339799	-0.000020
1272	1.2646e+02	7.3499	7.265769	0.000106	1.064325	0.180302	-0.000011
1273	1.2656e+02	7.3376	7.248661	0.000172	1.719295	0.291256	-0.000017
1274	1.2666e+02	7.3302	7.230738	0.000180	1.801166	0.305126	-0.000018
1275	1.2676e+02	7.3198	7.218517	0.000123	1.228068	0.208040	-0.000012
1276	1.2686e+02	7.3122	7.197743	0.000209	2.087715	0.353668	-0.000021
1277	1.2696e+02	7.2980	7.181449	0.000164	1.637423	0.277387	-0.000016
1278	1.2706e+02	7.2906	7.169636	0.000119	1.187132	0.201106	-0.000012
1279	1.2716e+02	7.2783	7.151713	0.000180	1.801166	0.305126	-0.000018
1280	1.2726e+02	7.2689	7.135827	0.000160	1.596488	0.270452	-0.000016
1281	1.2736e+02	7.2583	7.121570	0.000143	1.432745	0.242714	-0.000014
1282	1.2746e+02	7.2500	7.110164	0.000115	1.146196	0.194171	-0.000011
1283	1.2756e+02	7.2387	7.089797	0.000205	2.046779	0.346734	-0.000020
1284	1.2766e+02	7.2297	7.073096	0.000168	1.678359	0.284322	-0.000017
1285	1.2776e+02	7.2209	7.062505	0.000106	1.064325	0.180302	-0.000011
1286	1.2786e+02	7.2081	7.041323	0.000213	2.128650	0.360603	-0.000021
1287	1.2796e+02	7.1991	7.027474	0.000139	1.391810	0.235779	-0.000014
1288	1.2806e+02	7.1862	7.012809	0.000147	1.473681	0.249648	-0.000015
1289	1.2816e+02	7.1799	6.991628	0.000213	2.128650	0.360603	-0.000021
1290	1.2826e+02	7.1699	6.974927	0.000168	1.678359	0.284322	-0.000017
1291	1.2835e+02	7.1593	6.958225	0.000168	1.678359	0.284322	-0.000017
1292	1.2845e+02	7.1500	6.939488	0.000188	1.883037	0.318995	-0.000019
1293	1.2855e+02	7.1394	6.924416	0.000151	1.514617	0.256583	-0.000015
1294	1.2865e+02	7.1291	6.904456	0.000201	2.005844	0.339799	-0.000020
1295	1.2875e+02	7.1221	6.888977	0.000156	1.555552	0.263518	-0.000016
1296	1.2885e+02	7.1094	6.870647	0.000184	1.842101	0.312060	-0.000018
1297	1.2895e+02	7.0996	6.853946	0.000168	1.678359	0.284322	-0.000017
1298	1.2905e+02	7.0898	6.836837	0.000172	1.719295	0.291256	-0.000017
1299	1.2915e+02	7.0806	6.817285	0.000196	1.964908	0.332864	-0.000020
1300	1.2925e+02	7.0684	6.798547	0.000188	1.883037	0.318995	-0.000019
1301	1.2935e+02	7.0589	6.781031	0.000176	1.760230	0.298191	-0.000018
1302	1.2945e+02	7.0467	6.760664	0.000205	2.046779	0.346734	-0.000020
1303	1.2955e+02	7.0403	6.741519	0.000192	1.923972	0.325930	-0.000019
1304	1.2965e+02	7.0290	6.722374	0.000192	1.923972	0.325930	-0.000019
1305	1.2975e+02	7.0196	6.704044	0.000184	1.842101	0.312060	-0.000018
1306	1.2985e+02	7.0106	6.686528	0.000176	1.760230	0.298191	-0.000018
1307	1.2995e+02	7.0022	6.664939	0.000217	2.169586	0.367538	-0.000022
1308	1.3005e+02	6.9927	6.645794	0.000192	1.923972	0.325930	-0.000019
1309	1.3015e+02	6.9792	6.626241	0.000196	1.964908	0.332864	-0.000020
1310	1.3025e+02	6.9683	6.605874	0.000205	2.046779	0.346734	-0.000020
1311	1.3034e+02	6.9604	6.587544	0.000184	1.842101	0.312060	-0.000018
1312	1.3044e+02	6.9503	6.570435	0.000172	1.719295	0.291256	-0.000017
1313	1.3054e+02	6.9425	6.551698	0.000188	1.883037	0.318995	-0.000019
1314	1.3064e+02	6.9315	6.531738	0.000201	2.005844	0.339799	-0.000020
1315	1.3074e+02	6.9225	6.511371	0.000205	2.046779	0.346734	-0.000020
1316	1.3084e+02	6.9089	6.488967	0.000225	2.251457	0.381407	-0.000023
1317	1.3094e+02	6.9000	6.469007	0.000201	2.005844	0.339799	-0.000020
1318	1.3104e+02	6.8909	6.449455	0.000196	1.964908	0.332864	-0.000020
1319	1.3114e+02	6.8848	6.430717	0.000188	1.883037	0.318995	-0.000019
1320	1.3124e+02	6.8694	6.411572	0.000192	1.923972	0.325930	-0.000019
1321	1.3134e+02	6.8597	6.388353	0.000233	2.333328	0.395277	-0.000023
1322	1.3144e+02	6.8506	6.372874	0.000156	1.555552	0.263518	-0.000016
1323	1.3154e+02	6.8398	6.351692	0.000213	2.128650	0.360603	-0.000021
1324	1.3164e+02	6.8325	6.335806	0.000160	1.596488	0.270452	-0.000016
1325	1.3174e+02	6.8200	6.311365	0.000246	2.456135	0.416081	-0.000025
1326	1.3184e+02	6.8092	6.295072	0.000164	1.637423	0.277387	-0.000016
1327	1.3194e+02	6.8006	6.275927	0.000192	1.923972	0.325930	-0.000019
1328	1.3204e+02	6.7919	6.258818	0.000172	1.719295	0.291256	-0.000017
1329	1.3214e+02	6.7809	6.240081	0.000188	1.883037	0.318995	-0.000019
1330	1.3224e+02	6.7721	6.219306	0.000209	2.087715	0.353668	-0.000021
1331	1.3234e+02	6.7602	6.202605	0.000168	1.678359	0.284322	-0.000017
1332	1.3243e+02	6.7535	6.183053	0.000196	1.964908	0.332864	-0.000020
1333	1.3253e+02	6.7426	6.164722	0.000184	1.842101	0.312060	-0.000018
1334	1.3263e+02	6.7305	6.147206	0.000176	1.760230	0.298191	-0.000018
1335	1.3273e+02	6.7216	6.128469	0.000188	1.883037	0.318995	-0.000019
1336	1.3283e+02	6.7130	6.110546	0.000180	1.801166	0.305126	-0.000018
1337	1.3293e+02	6.7004	6.093030	0.000176	1.760230	0.298191	-0.000018
1338	1.3303e+02	6.6926	6.073070	0.000201	2.005844	0.339799	-0.000020
1339	1.3313e+02	6.6811	6.056776	0.000164	1.637423	0.277387	-0.000016
1340	1.3323e+02	6.6741	6.033965	0.000229	2.292393	0.388342	-0.000023
1341	1.3333e+02	6.6630	6.016857	0.000172	1.719295	0.291256	-0.000017
1342	1.3343e+02	6.6521	6.001785	0.000151	1.514617	0.256583	-0.000015
1343	1.3353e+02	6.6424	5.978567	0.000233	2.333328	0.395277	-0.000023
1344	1.3363e+02	6.6320	5.961051	0.000176	1.760230	0.298191	-0.000018
1345	1.3373e+02	6.6204	5.943943	0.000172	1.719295	0.291256	-0.000017
1346	1.3383e+02	6.6123	5.926427	0.000176	1.760230	0.298191	-0.000018
1347	1.3393e+02	6.6022	5.906874	0.000196	1.964908	0.332864	-0.000020
1348	1.3403e+02	6.5928	5.889359	0.000176	1.760230	0.298191	-0.000018
1349	1.3413e+02	6.5834	5.873472	0.000160	1.596488	0.270452	-0.000016
1350	1.3423e+02	6.5742	5.853105	0.000205	2.046779	0.346734	-0.000020
1351	1.3432e+02	6.5636	5.833553	0.000196	1.964908	0.332864	-0.000020
1352	1.3442e+02	6.5522	5.814408	0.000192	1.923972	0.325930	-0.000019
1353	1.3452e+02	6.5435	5.800151	0.000143	1.432745	0.242714	-0.000014
1354	1.3462e+02	6.5328	5.777339	0.000229	2.292393	0.388342	-0.000023
1355	1.3472e+02	6.5237	5.758602	0.000188	1.883037	0.318995	-0.000019
1356	1.3482e+02	6.5137	5.739049	0.000196	1.964908	0.332864	-0.000020
1357	1.3492e+02	6.5020	5.717460	0.000217	2.169586	0.367538	-0.000022
1358	1.3502e+02	6.4916	5.699130	0.000184	1.842101	0.312060	-0.000018
1359	1.3512e+02	6.4814	5.678763	0.000205	2.046779	0.346734	-0.000020
1360	1.3522e+02	6.4729	5.660432	0.000184	1.842101	0.312060	-0.000018
1361	1.3532e+02	6.4631	5.642102	0.000184	1.842101	0.312060	-0.000018
1362	1.3542e+02	6.4532	5.621327	0.000209	2.087715	0.353668	-0.000021
1363	1.3552e+02	6.4453	5.606256	0.000151	1.514617	0.256583	-0.000015
1364	1.3562e+02	6.4342	5.581408	0.000250	2.497071	0.423015	-0.000025
1365	1.3572e+02	6.4236	5.561041	0.000205	2.046779	0.346734	-0.000020
1366	1.3582e+02	6.4128	5.543117	0.000180	1.801166	0.305126	-0.000018
1367	1.3592e+02	6.4019	5.524787	0.000184	1.842101	0.312060	-0.000018
1368	1.3602e+02	6.3931	5.506864	0.000180	1.801166	0.305126	-0.000018
1369	1.3612e+02	6.3833	5.485682	0.000213	2.128650	0.360603	-0.000021
1370	1.3622e+02	6.3732	5.465722	0.000201	2.005844	0.339799	-0.000020
1371	1.3631e+02	6.3592	5.450651	0.000151	1.514617	0.256583	-0.000015
1372	1.3641e+02	6.3528	5.427025	0.000237	2.374264	0.402211	-0.000024
1373	1.3651e+02	6.3418	5.407472	0.000196	1.964908	0.332864	-0.000020
1374	1.3661e+02	6.3342	5.391993	0.000156	1.555552	0.263518	-0.000016
1375	1.3671e+02	6.3233	5.376922	0.000151	1.514617	0.256583	-0.000015
1376	1.3681e+02	6.3117	5.355740	0.000213	2.128650	0.360603	-0.000021
1377	1.3691e+02	6.3023	5.339039	0.000168	1.678359	0.284322	-0.000017
1378	1.3701e+02	6.2937	5.320301	0.000188	1.883037	0.318995	-0.000019
1379	1.3711e+02	6.2844	5.305229	0.000151	1.514617	0.256583	-0.000015
1380	1.3721e+02	6.2751	5.286084	0.000192	1.923972	0.325930	-0.000019
1381	1.3731e+02	6.2659	5.267347	0.000188	1.883037	0.318995	-0.000019
1382	1.3741e+02	6.2554	5.251053	0.000164	1.637423	0.277387	-0.000016
1383	1.3751e+02	6.2440	5.229464	0.000217	2.169586	0.367538	-0.000022
1384	1.3761e+02	6.2359	5.215207	0.000143	1.432745	0.242714	-0.000014
1385	1.3771e+02	6.2258	5.196469	0.000188	1.883037	0.318995	-0.000019
1386	1.3781e+02	6.2158	5.178953	0.000176	1.760230	0.298191	-0.000018
1387	1.3791e+02	6.2044	5.161845	0.000172	1.719295	0.291256	-0.000017
1388	1.3801e+02	6.1954	5.146366	0.000156	1.555552	0.263518	-0.000016
1389	1.3811e+02	6.1851	5.128850	0.000176	1.760230	0.298191	-0.000018
1390	1.3821e+02	6.1742	5.112964	0.000160	1.596488	0.270452	-0.000016
1391	1.3831e+02	6.1648	5.096670	0.000164	1.637423	0.277387	-0.000016
1392	1.3840e+02	6.1542	5.079969	0.000168	1.678359	0.284322	-0.000017
1393	1.3850e+02	6.1442	5.065712	0.000143	1.432745	0.242714	-0.000014
1394	1.3860e+02	6.1337	5.048196	0.000176	1.760230	0.298191	-0.000018
1395	1.3870e+02	6.1269	5.034347	0.000139	1.391810	0.235779	-0.000014
1396	1.3880e+02	6.1167	5.015609	0.000188	1.883037	0.318995	-0.000019
1397	1.3890e+02	6.1055	5.000130	0.000156	1.555552	0.263518	-0.000016
1398	1.3900e+02	6.0931	4.985465	0.000147	1.473681	0.249648	-0.000015
1399	1.3910e+02	6.0870	4.965913	0.000196	1.964908	0.332864	-0.000020
1400	1.3920e+02	6.0742	4.954100	0.000119	1.187132	0.201106	-0.000012
1401	1.3930e+02	6.0645	4.935362	0.000188	1.883037	0.318995	-0.000019
1402	1.3940e+02	6.0554	4.920698	0.000147	1.473681	0.249648	-0.000015
1403	1.3950e+02	6.0439	4.905626	0.000151	1.514617	0.256583	-0.000015
1404	1.3960e+02	6.0355	4.888111	0.000176	1.760230	0.298191	-0.000018
1405	1.3970e+02	6.0250	4.873039	0.000151	1.514617	0.256583	-0.000015
1406	1.3980e+02	6.0146	4.855523	0.000176	1.760230	0.298191	-0.000018
1407	1.3990e+02	6.0058	4.837193	0.000184	1.842101	0.312060	-0.000018
1408	1.4000e+02	5.9966	4.818048	0.000192	1.923972	0.325930	-0.000019
1409	1.4010e+02	5.9864	4.804605	0.000135	1.350874	0.228844	-0.000014
1410	1.4020e+02	5.9760	4.785053	0.000196	1.964908	0.332864	-0.000020
1411	1.4029e+02	5.9663	4.769167	0.000160	1.596488	0.270452	-0.000016
1412	1.4039e+02	5.9560	4.750021	0.000192	1.923972	0.325930	-0.000019
1413	1.4049e+02	5.9461	4.733320	0.000168	1.678359	0.284322	-0.000017
1414	1.4059e+02	5.9354	4.717027	0.000164	1.637423	0.277387	-0.000016
1415	1.4069e+02	5.9243	4.698289	0.000188	1.883037	0.318995	-0.000019
1416	1.4079e+02	5.9165	4.677107	0.000213	2.128650	0.360603	-0.000021
1417	1.4089e+02	5.9058	4.659184	0.000180	1.801166	0.305126	-0.000018
1418	1.4099e+02	5.8961	4.643298	0.000160	1.596488	0.270452	-0.000016
1419	1.4109e+02	5.8869	4.625782	0.000176	1.760230	0.298191	-0.000018
1420	1.4119e+02	5.8747	4.607859	0.000180	1.801166	0.305126	-0.000018
1421	1.4129e+02	5.8654	4.587899	0.000201	2.005844	0.339799	-0.000020
1422	1.4139e+02	5.8566	4.571605	0.000164	1.637423	0.277387	-0.000016
1423	1.4149e+02	5.8450	4.550831	0.000209	2.087715	0.353668	-0.000021
1424	1.4159e+02	5.8376	4.533723	0.000172	1.719295	0.291256	-0.000017
1425	1.4169e+02	5.8257	4.516207	0.000176	1.760230	0.298191	-0.000018
1426	1.4179e+02	5.8152	4.499506	0.000168	1.678359	0.284322	-0.000017
1427	1.4189e+02	5.8073	4.478731	0.000209	2.087715	0.353668	-0.000021
1428	1.4199e+02	5.7959	4.461623	0.000172	1.719295	0.291256	-0.000017
1429	1.4209e+02	5.7863	4.442478	0.000192	1.923972	0.325930	-0.000019
1430	1.4219e+02	5.7782	4.423740	0.000188	1.883037	0.318995	-0.000019
1431	1.4228e+02	5.7681	4.407854	0.000160	1.596488	0.270452	-0.000016
1432	1.4238e+02	5.7552	4.388301	0.000196	1.964908	0.332864	-0.000020
1433	1.4248e+02	5.7449	4.372822	0.000156	1.555552	0.263518	-0.000016
1434	1.4258e+02	5.7359	4.354085	0.000188	1.883037	0.318995	-0.000019
1435	1.4268e+02	5.7262	4.334532	0.000196	1.964908	0.332864	-0.000020
1436	1.4278e+02	5.7162	4.319053	0.000156	1.555552	0.263518	-0.000016
1437	1.4288e+02	5.7071	4.301537	0.000176	1.760230	0.298191	-0.000018
1438	1.4298e+02	5.6954	4.280763	0.000209	2.087715	0.353668	-0.000021
1439	1.4308e+02	5.6869	4.263654	0.000172	1.719295	0.291256	-0.000017
1440	1.4318e+02	5.6767	4.248990	0.000147	1.473681	0.249648	-0.000015
1441	1.4328e+02	5.6680	4.231882	0.000172	1.719295	0.291256	-0.000017
1442	1.4338e+02	5.6573	4.213551	0.000184	1.842101	0.312060	-0.000018
1443	1.4348e+02	5.6495	4.194814	0.000188	1.883037	0.318995	-0.000019
1444	1.4358e+02	5.6403	4.178927	0.000160	1.596488	0.270452	-0.000016
1445	1.4368e+02	5.6269	4.159375	0.000196	1.964908	0.332864	-0.000020
1446	1.4378e+02	5.6185	4.141859	0.000176	1.760230	0.298191	-0.000018
1447	1.4388e+02	5.6094	4.121085	0.000209	2.087715	0.353668	-0.000021
1448	1.4398e+02	5.5973	4.105606	0.000156	1.555552	0.263518	-0.000016
1449	1.4408e+02	5.5872	4.089719	0.000160	1.596488	0.270452	-0.000016
1450	1.4418e+02	5.5795	4.074648	0.000151	1.514617	0.256583	-0.000015
1451	1.4428e+02	5.5679	4.057132	0.000176	1.760230	0.298191	-0.000018
1452	1.4437e+02	5.5585	4.035135	0.000221	2.210522	0.374472	-0.000022
1453	1.4447e+02	5.5489	4.019249	0.000160	1.596488	0.270452	-0.000016
1454	1.4457e+02	5.5373	4.002141	0.000172	1.719295	0.291256	-0.000017
1455	1.4467e+02	5.5286	3.983403	0.000188	1.883037	0.318995	-0.000019
1456	1.4477e+02	5.5190	3.964665	0.000188	1.883037	0.318995	-0.000019
1457	1.4487e+02	5.5082	3.944298	0.000205	2.046779	0.346734	-0.000020
1458	1.4497e+02	5.4957	3.930041	0.000143	1.432745	0.242714	-0.000014
1459	1.4507e+02	5.4894	3.907637	0.000225	2.251457	0.381407	-0.000023
1460	1.4517e+02	5.4752	3.887677	0.000201	2.005844	0.339799	-0.000020
1461	1.4527e+02	5.4705	3.867310	0.000205	2.046779	0.346734	-0.000020
1462	1.4537e+02	5.4562	3.855905	0.000115	1.146196	0.194171	-0.000011
1463	1.4547e+02	5.4483	3.833093	0.000229	2.292393	0.388342	-0.000023
1464	1.4557e+02	5.4383	3.809875	0.000233	2.333328	0.395277	-0.000023
1465	1.4567e+02	5.4259	3.787064	0.000229	2.292393	0.388342	-0.000023
1466	1.4577e+02	5.4171	3.769141	0.000180	1.801166	0.305126	-0.000018
1467	1.4587e+02	5.4107	3.751625	0.000176	1.760230	0.298191	-0.000018
1468	1.4597e+02	5.3974	3.732480	0.000192	1.923972	0.325930	-0.000019
1469	1.4607e+02	5.3882	3.710891	0.000217	2.169586	0.367538	-0.000022
1470	1.4617e+02	5.3778	3.690524	0.000205	2.046779	0.346734	-0.000020
1471	1.4626e+02	5.3679	3.669342	0.000213	2.128650	0.360603	-0.000021
1472	1.4636e+02	5.3561	3.648567	0.000209	2.087715	0.353668	-0.000021
1473	1.4646e+02	5.3474	3.629015	0.000196	1.964908	0.332864	-0.000020
1474	1.4656e+02	5.3378	3.607018	0.000221	2.210522	0.374472	-0.000022
1475	1.4666e+02	5.3324	3.585022	0.000221	2.210522	0.374472	-0.000022
1476	1.4676e+02	5.3185	3.559359	0.000258	2.578942	0.436885	-0.000026
1477	1.4686e+02	5.3078	3.543066	0.000164	1.637423	0.277387	-0.000016
1478	1.4696e+02	5.3001	3.525142	0.000180	1.801166	0.305126	-0.000018
1479	1.4706e+02	5.2905	3.500295	0.000250	2.497071	0.423015	-0.000025
1480	1.4716e+02	5.2792	3.478705	0.000217	2.169586	0.367538	-0.000022
1481	1.4726e+02	5.2700	3.457116	0.000217	2.169586	0.367538	-0.000022
1482	1.4736e+02	5.2607	3.437971	0.000192	1.923972	0.325930	-0.000019
1483	1.4746e+02	5.2474	3.414753	0.000233	2.333328	0.395277	-0.000023
1484	1.4756e+02	5.2379	3.393978	0.000209	2.087715	0.353668	-0.000021
1485	1.4766e+02	5.2290	3.372796	0.000213	2.128650	0.360603	-0.000021
1486	1.4776e+02	5.2195	3.352022	0.000209	2.087715	0.353668	-0.000021
1487	1.4786e+02	5.2100	3.327581	0.000246	2.456135	0.416081	-0.000025
1488	1.4796e+02	5.1997	3.307622	0.000201	2.005844	0.339799	-0.000020
1489	1.4806e+02	5.1907	3.286847	0.000209	2.087715	0.353668	-0.000021
1490	1.4816e+02	5.1774	3.262406	0.000246	2.456135	0.416081	-0.000025
1491	1.4825e+02	5.1716	3.244891	0.000176	1.760230	0.298191	-0.000018
1492	1.4835e+02	5.1588	3.226153	0.000188	1.883037	0.318995	-0.000019
1493	1.4845e+02	5.1493	3.201305	0.000250	2.497071	0.423015	-0.000025
1494	1.4855e+02	5.1376	3.177272	0.000242	2.415199	0.409146	-0.000024
1495	1.4865e+02	5.1305	3.158941	0.000184	1.842101	0.312060	-0.000018
1496	1.4875e+02	5.1197	3.141018	0.000180	1.801166	0.305126	-0.000018
1497	1.4885e+02	5.1101	3.123910	0.000172	1.719295	0.291256	-0.000017
1498	1.4895e+02	5.0973	3.102728	0.000213	2.128650	0.360603	-0.000021
1499	1.4905e+02	5.0916	3.084398	0.000184	1.842101	0.312060	-0.000018
1500	1.4915e+02	5.0787	3.058328	0.000262	2.619877	0.443819	-0.000026
1501	1.4925e+02	5.0692	3.041627	0.000168	1.678359	0.284322	-0.000017
1502	1.4935e+02	5.0594	3.020445	0.000213	2.128650	0.360603	-0.000021
1503	1.4945e+02	5.0503	3.004151	0.000164	1.637423	0.277387	-0.000016
1504	1.4955e+02	5.0420	2.981340	0.000229	2.292393	0.388342	-0.000023
1505	1.4965e+02	5.0311	2.962195	0.000192	1.923972	0.325930	-0.000019
1506	1.4975e+02	5.0198	2.943457	0.000188	1.883037	0.318995	-0.000019
1507	1.4985e+02	5.0105	2.919831	0.000237	2.374264	0.402211	-0.000024
1508	1.4995e+02	4.9992	2.900279	0.000196	1.964908	0.332864	-0.000020
1509	1.5005e+02	4.9923	2.881541	0.000188	1.883037	0.318995	-0.000019
1510	1.5015e+02	4.9789	2.859952	0.000217	2.169586	0.367538	-0.000022
1511	1.5025e+02	4.9712	2.842029	0.000180	1.801166	0.305126	-0.000018
1512	1.5034e+02	4.9627	2.819218	0.000229	2.292393	0.388342	-0.000023
1513	1.5044e+02	4.9509	2.804146	0.000151	1.514617	0.256583	-0.000015
1514	1.5054e+02	4.9420	2.783372	0.000209	2.087715	0.353668	-0.000021
1515	1.5064e+02	4.9316	2.763005	0.000205	2.046779	0.346734	-0.000020
1516	1.5074e+02	4.9223	2.742230	0.000209	2.087715	0.353668	-0.000021
1517	1.5084e+02	4.9123	2.723900	0.000184	1.842101	0.312060	-0.000018
1518	1.5094e+02	4.9014	2.703940	0.000201	2.005844	0.339799	-0.000020
1519	1.5104e+02	4.8893	2.682758	0.000213	2.128650	0.360603	-0.000021
1520	1.5114e+02	4.8798	2.661984	0.000209	2.087715	0.353668	-0.000021
1521	1.5124e+02	4.8698	2.639580	0.000225	2.251457	0.381407	-0.000023
1522	1.5134e+02	4.8614	2.617583	0.000221	2.210522	0.374472	-0.000022
1523	1.5144e+02	4.8537	2.596401	0.000213	2.128650	0.360603	-0.000021
1524	1.5154e+02	4.8422	2.576442	0.000201	2.005844	0.339799	-0.000020
1525	1.5164e+02	4.8313	2.555667	0.000209	2.087715	0.353668	-0.000021
1526	1.5174e+02	4.8236	2.535707	0.000201	2.005844	0.339799	-0.000020
1527	1.5184e+02	4.8110	2.515340	0.000205	2.046779	0.346734	-0.000020
1528	1.5194e+02	4.8006	2.492529	0.000229	2.292393	0.388342	-0.000023
1529	1.5204e+02	4.7920	2.475421	0.000172	1.719295	0.291256	-0.000017
1530	1.5214e+02	4.7811	2.453424	0.000221	2.210522	0.374472	-0.000022
1531	1.5224e+02	4.7715	2.431835	0.000217	2.169586	0.367538	-0.000022
1532	1.5233e+02	4.7622	2.411061	0.000209	2.087715	0.353668	-0.000021
1533	1.5243e+02	4.7503	2.389471	0.000217	2.169586	0.367538	-0.000022
1534	1.5253e+02	4.7414	2.367068	0.000225	2.251457	0.381407	-0.000023
1535	1.5263e+02	4.7338	2.345478	0.000217	2.169586	0.367538	-0.000022
1536	1.5273e+02	4.7233	2.323889	0.000217	2.169586	0.367538	-0.000022
1537	1.5283e+02	4.7100	2.302300	0.000217	2.169586	0.367538	-0.000022
1538	1.5293e+02	4.7024	2.280304	0.000221	2.210522	0.374472	-0.000022
1539	1.5303e+02	4.6938	2.263195	0.000172	1.719295	0.291256	-0.000017
1540	1.5313e+02	4.6832	2.240791	0.000225	2.251457	0.381407	-0.000023
1541	1.5323e+02	4.6725	2.223683	0.000172	1.719295	0.291256	-0.000017
1542	1.5333e+02	4.6636	2.200057	0.000237	2.374264	0.402211	-0.000024
1543	1.5343e+02	4.6519	2.183356	0.000168	1.678359	0.284322	-0.000017
1544	1.5353e+02	4.6427	2.161360	0.000221	2.210522	0.374472	-0.000022
1545	1.5363e+02	4.6319	2.143844	0.000176	1.760230	0.298191	-0.000018
1546	1.5373e+02	4.6233	2.119811	0.000242	2.415199	0.409146	-0.000024
1547	1.5383e+02	4.6167	2.103924	0.000160	1.596488	0.270452	-0.000016
1548	1.5393e+02	4.6039	2.084372	0.000196	1.964908	0.332864	-0.000020
1549	1.5403e+02	4.5927	2.064412	0.000201	2.005844	0.339799	-0.000020
1550	1.5413e+02	4.5852	2.044860	0.000196	1.964908	0.332864	-0.000020
1551	1.5422e+02	4.5702	2.026529	0.000184	1.842101	0.312060	-0.000018
1552	1.5432e+02	4.5628	2.004533	0.000221	2.210522	0.374472	-0.000022
1553	1.5442e+02	4.5547	1.990276	0.000143	1.432745	0.242714	-0.000014
1554	1.5452e+02	4.5437	1.971538	0.000188	1.883037	0.318995	-0.000019
1555	1.5462e+02	4.5345	1.949134	0.000225	2.251457	0.381407	-0.000023
1556	1.5472e+02	4.5251	1.934062	0.000151	1.514617	0.256583	-0.000015
1557	1.5482e+02	4.5107	1.915732	0.000184	1.842101	0.312060	-0.000018
1558	1.5492e+02	4.5054	1.901068	0.000147	1.473681	0.249648	-0.000015
1559	1.5502e+02	4.4934	1.880293	0.000209	2.087715	0.353668	-0.000021
1560	1.5512e+02	4.4826	1.862370	0.000180	1.801166	0.305126	-0.000018
1561	1.5522e+02	4.4739	1.846076	0.000164	1.637423	0.277387	-0.000016
1562	1.5532e+02	4.4630	1.827746	0.000184	1.842101	0.312060	-0.000018
1563	1.5542e+02	4.4523	1.808601	0.000192	1.923972	0.325930	-0.000019
1564	1.5552e+02	4.4437	1.790678	0.000180	1.801166	0.305126	-0.000018
1565	1.5562e+02	4.4329	1.773569	0.000172	1.719295	0.291256	-0.000017
1566	1.5572e+02	4.4209	1.756461	0.000172	1.719295	0.291256	-0.000017
1567	1.5582e+02	4.4122	1.738945	0.000176	1.760230	0.298191	-0.000018
1568	1.5592e+02	4.4045	1.725096	0.000139	1.391810	0.235779	-0.000014
1569	1.5602e+02	4.3970	1.703507	0.000217	2.169586	0.367538	-0.000022
1570	1.5612e+02	4.3824	1.682732	0.000209	2.087715	0.353668	-0.000021
1571	1.5622e+02	4.3717	1.670512	0.000123	1.228068	0.208040	-0.000012
1572	1.5631e+02	4.3645	1.650959	0.000196	1.964908	0.332864	-0.000020
1573	1.5641e+02	4.3507	1.632222	0.000188	1.883037	0.318995	-0.000019
1574	1.5651e+02	4.3427	1.612669	0.000196	1.964908	0.332864	-0.000020
1575	1.5661e+02	4.3317	1.592302	0.000205	2.046779	0.346734	-0.000020
1576	1.5671e+02	4.3201	1.577230	0.000151	1.514617	0.256583	-0.000015
1577	1.5681e+02	4.3151	1.557678	0.000196	1.964908	0.332864	-0.000020
1578	1.5691e+02	4.3042	1.537311	0.000205	2.046779	0.346734	-0.000020
1579	1.5701e+02	4.2941	1.517758	0.000196	1.964908	0.332864	-0.000020
1580	1.5711e+02	4.2818	1.494540	0.000233	2.333328	0.395277	-0.000023
1581	1.5721e+02	4.2739	1.479875	0.000147	1.473681	0.249648	-0.000015
1582	1.5731e+02	4.2645	1.460730	0.000192	1.923972	0.325930	-0.000019
1583	1.5741e+02	4.2550	1.444437	0.000164	1.637423	0.277387	-0.000016
1584	1.5751e+02	4.2460	1.423255	0.000213	2.128650	0.360603	-0.000021
1585	1.5761e+02	4.2336	1.400851	0.000225	2.251457	0.381407	-0.000023
1586	1.5771e+02	4.2249	1.380077	0.000209	2.087715	0.353668	-0.000021
1587	1.5781e+02	4.2121	1.358895	0.000213	2.128650	0.360603	-0.000021
1588	1.5791e+02	4.2056	1.341786	0.000172	1.719295	0.291256	-0.000017
1589	1.5801e+02	4.1959	1.321827	0.000201	2.005844	0.339799	-0.000020
1590	1.5811e+02	4.1843	1.300237	0.000217	2.169586	0.367538	-0.000022
1591	1.5821e+02	4.1749	1.283129	0.000172	1.719295	0.291256	-0.000017
1592	1.5830e+02	4.1631	1.263577	0.000196	1.964908	0.332864	-0.000020
1593	1.5840e+02	4.1553	1.245246	0.000184	1.842101	0.312060	-0.000018
1594	1.5850e+02	4.1470	1.222028	0.000233	2.333328	0.395277	-0.000023
1595	1.5860e+02	4.1360	1.204105	0.000180	1.801166	0.305126	-0.000018
1596	1.5870e+02	4.1261	1.186589	0.000176	1.760230	0.298191	-0.000018
1597	1.5880e+02	4.1138	1.160926	0.000258	2.578942	0.436885	-0.000026
1598	1.5890e+02	4.1048	1.143003	0.000180	1.801166	0.305126	-0.000018
1599	1.5900e+02	4.0948	1.125080	0.000180	1.801166	0.305126	-0.000018
1600	1.5910e+02	4.0867	1.099418	0.000258	2.578942	0.436885	-0.000026
1601	1.5920e+02	4.0740	1.083531	0.000160	1.596488	0.270452	-0.000016
1602	1.5930e+02	4.0643	1.064793	0.000188	1.883037	0.318995	-0.000019
1603	1.5940e+02	4.0566	1.049314	0.000156	1.555552	0.263518	-0.000016
1604	1.5950e+02	4.0454	1.028947	0.000205	2.046779	0.346734	-0.000020
1605	1.5960e+02	4.0365	1.008173	0.000209	2.087715	0.353668	-0.000021
1606	1.5970e+02	4.0223	0.986584	0.000217	2.169586	0.367538	-0.000022
1607	1.5980e+02	4.0118	0.969068	0.000176	1.760230	0.298191	-0.000018
1608	1.5990e+02	4.0026	0.950738	0.000184	1.842101	0.312060	-0.000018
1609	1.6000e+02	3.9947	0.931592	0.000192	1.923972	0.325930	-0.000019
1610	1.6010e+02	3.9848	0.911225	0.000205	2.046779	0.346734	-0.000020
1611	1.6019e+02	3.9759	0.892895	0.000184	1.842101	0.312060	-0.000018
1612	1.6029e+02	3.9660	0.873750	0.000192	1.923972	0.325930	-0.000019
1613	1.6039e+02	3.9552	0.851753	0.000221	2.210522	0.374472	-0.000022
1614	1.6049e+02	3.9455	0.834645	0.000172	1.719295	0.291256	-0.000017
1615	1.6059e+02	3.9365	0.815500	0.000192	1.923972	0.325930	-0.000019
1616	1.6069e+02	3.9257	0.798799	0.000168	1.678359	0.284322	-0.000017
1617	1.6079e+02	3.9139	0.777617	0.000213	2.128650	0.360603	-0.000021
1618	1.6089e+02	3.9041	0.759694	0.000180	1.801166	0.305126	-0.000018
1619	1.6099e+02	3.8972	0.739327	0.000205	2.046779	0.346734	-0.000020
1620	1.6109e+02	3.8839	0.720182	0.000192	1.923972	0.325930	-0.000019
1621	1.6119e+02	3.8772	0.699407	0.000209	2.087715	0.353668	-0.000021
1622	1.6129e+02	3.8645	0.682706	0.000168	1.678359	0.284322	-0.000017
1623	1.6139e+02	3.8577	0.664783	0.000180	1.801166	0.305126	-0.000018
1624	1.6149e+02	3.8465	0.639935	0.000250	2.497071	0.423015	-0.000025
1625	1.6159e+02	3.8372	0.619975	0.000201	2.005844	0.339799	-0.000020
1626	1.6169e+02	3.8271	0.598794	0.000213	2.128650	0.360603	-0.000021
1627	1.6179e+02	3.8152	0.576797	0.000221	2.210522	0.374472	-0.000022
1628	1.6189e+02	3.8047	0.558059	0.000188	1.883037	0.318995	-0.000019
1629	1.6199e+02	3.7974	0.534433	0.000237	2.374264	0.402211	-0.000024
1630	1.6209e+02	3.7854	0.514474	0.000201	2.005844	0.339799	-0.000020
1631	1.6219e+02	3.7769	0.494107	0.000205	2.046779	0.346734	-0.000020
1632	1.6228e+02	3.7666	0.472517	0.000217	2.169586	0.367538	-0.000022
1633	1.6238e+02	3.7582	0.453780	0.000188	1.883037	0.318995	-0.000019
1634	1.6248e+02	3.7481	0.428932	0.000250	2.497071	0.423015	-0.000025
1635	1.6258e+02	3.7365	0.407750	0.000213	2.128650	0.360603	-0.000021
1636	1.6268e+02	3.7267	0.390234	0.000176	1.760230	0.298191	-0.000018
1637	1.6278e+02	3.7173	0.364164	0.000262	2.619877	0.443819	-0.000026
1638	1.6288e+02	3.7074	0.343797	0.000205	2.046779	0.346734	-0.000020
1639	1.6298e+02	3.6951	0.322615	0.000213	2.128650	0.360603	-0.000021
1640	1.6308e+02	3.6868	0.295323	0.000274	2.742684	0.464623	-0.000027
1641	1.6318e+02	3.6761	0.273327	0.000221	2.210522	0.374472	-0.000022
1642	1.6328e+02	3.6657	0.249701	0.000237	2.374264	0.402211	-0.000024
1643	1.6338e+02	3.6581	0.229741	0.000201	2.005844	0.339799	-0.000020
1644	1.6348e+02	3.6481	0.205708	0.000242	2.415199	0.409146	-0.000024
1645	1.6358e+02	3.6373	0.181675	0.000242	2.415199	0.409146	-0.000024
1646	1.6368e+02	3.6280	0.162122	0.000196	1.964908	0.332864	-0.000020
1647	1.6378e+02	3.6194	0.141348	0.000209	2.087715	0.353668	-0.000021
1648	1.6388e+02	3.6079	0.112427	0.000291	2.906426	0.492362	-0.000029
1649	1.6398e+02	3.5989	0.090023	0.000225	2.251457	0.381407	-0.000023
1650	1.6408e+02	3.5870	0.070878	0.000192	1.923972	0.325930	-0.000019
1651	1.6418e+02	3.5789	0.044808	0.000262	2.619877	0.443819	-0.000026
1652	1.6427e+02	3.5685	0.020367	0.000246	2.456135	0.416081	-0.000025
1653	1.6437e+02	3.5574	0.002037	0.000184	1.842101	0.312060	-0.000018
1654	1.6447e+02	3.5478	-0.022404	0.000246	2.456135	0.416081	-0.000025
1655	1.6457e+02	3.5369	-0.047252	0.000250	2.497071	0.423015	-0.000025
1656	1.6467e+02	3.5261	-0.065989	0.000188	1.883037	0.318995	-0.000019
1657	1.6477e+02	3.5177	-0.092874	0.000270	2.701749	0.457689	-0.000027
1658	1.6487e+02	3.5084	-0.118944	0.000262	2.619877	0.443819	-0.000026
1659	1.6497e+02	3.4980	-0.136867	0.000180	1.801166	0.305126	-0.000018
1660	1.6507e+02	3.4879	-0.163752	0.000270	2.701749	0.457689	-0.000027
1661	1.6517e+02	3.4785	-0.183304	0.000196	1.964908	0.332864	-0.000020
1662	1.6527e+02	3.4694	-0.204486	0.000213	2.128650	0.360603	-0.000021
1663	1.6537e+02	3.4578	-0.226890	0.000225	2.251457	0.381407	-0.000023
1664	1.6547e+02	3.4474	-0.247664	0.000209	2.087715	0.353668	-0.000021
1665	1.6557e+02	3.4385	-0.269253	0.000217	2.169586	0.367538	-0.000022
1666	1.6567e+02	3.4272	-0.294509	0.000254	2.538006	0.429950	-0.000025
1667	1.6577e+02	3.4194	-0.316913	0.000225	2.251457	0.381407	-0.000023
1668	1.6587e+02	3.4086	-0.336872	0.000201	2.005844	0.339799	-0.000020
1669	1.6597e+02	3.3991	-0.357239	0.000205	2.046779	0.346734	-0.000020
1670	1.6607e+02	3.3912	-0.379236	0.000221	2.210522	0.374472	-0.000022
1671	1.6616e+02	3.3770	-0.400825	0.000217	2.169586	0.367538	-0.000022
1672	1.6626e+02	3.3704	-0.419970	0.000192	1.923972	0.325930	-0.000019
1673	1.6636e+02	3.3573	-0.448891	0.000291	2.906426	0.492362	-0.000029
1674	1.6646e+02	3.3463	-0.466815	0.000180	1.801166	0.305126	-0.000018
1675	1.6656e+02	3.3379	-0.489626	0.000229	2.292393	0.388342	-0.000023
1676	1.6666e+02	3.3286	-0.511215	0.000217	2.169586	0.367538	-0.000022
1677	1.6676e+02	3.3183	-0.534026	0.000229	2.292393	0.388342	-0.000023
1678	1.6686e+02	3.3099	-0.554393	0.000205	2.046779	0.346734	-0.000020
1679	1.6696e+02	3.3002	-0.576797	0.000225	2.251457	0.381407	-0.000023
1680	1.6706e+02	3.2885	-0.596757	0.000201	2.005844	0.339799	-0.000020
1681	1.6716e+02	3.2787	-0.619975	0.000233	2.333328	0.395277	-0.000023
1682	1.6726e+02	3.2681	-0.637898	0.000180	1.801166	0.305126	-0.000018
1683	1.6736e+02	3.2577	-0.661117	0.000233	2.333328	0.395277	-0.000023
1684	1.6746e+02	3.2470	-0.679855	0.000188	1.883037	0.318995	-0.000019
1685	1.6756e+02	3.2365	-0.703888	0.000242	2.415199	0.409146	-0.000024
1686	1.6766e+02	3.2296	-0.729551	0.000258	2.578942	0.436885	-0.000026
1687	1.6776e+02	3.2194	-0.750732	0.000213	2.128650	0.360603	-0.000021
1688	1.6786e+02	3.2082	-0.775173	0.000246	2.456135	0.416081	-0.000025
1689	1.6796e+02	3.2000	-0.796762	0.000217	2.169586	0.367538	-0.000022
1690	1.6806e+02	3.1903	-0.819166	0.000225	2.251457	0.381407	-0.000023
1691	1.6816e+02	3.1799	-0.837089	0.000180	1.801166	0.305126	-0.000018
1692	1.6825e+02	3.1715	-0.861937	0.000250	2.497071	0.423015	-0.000025
1693	1.6835e+02	3.1603	-0.886377	0.000246	2.456135	0.416081	-0.000025
1694	1.6845e+02	3.1518	-0.909596	0.000233	2.333328	0.395277	-0.000023
1695	1.6855e+02	3.1409	-0.930370	0.000209	2.087715	0.353668	-0.000021
1696	1.6865e+02	3.1301	-0.950330	0.000201	2.005844	0.339799	-0.000020
1697	1.6875e+02	3.1209	-0.974363	0.000242	2.415199	0.409146	-0.000024
1698	1.6885e+02	3.1126	-0.997175	0.000229	2.292393	0.388342	-0.000023
1699	1.6895e+02	3.1016	-1.022430	0.000254	2.538006	0.429950	-0.000025
1700	1.6905e+02	3.0904	-1.043204	0.000209	2.087715	0.353668	-0.000021
1701	1.6915e+02	3.0815	-1.066830	0.000237	2.374264	0.402211	-0.000024
1702	1.6925e+02	3.0713	-1.092085	0.000254	2.538006	0.429950	-0.000025
1703	1.6935e+02	3.0601	-1.111638	0.000196	1.964908	0.332864	-0.000020
1704	1.6945e+02	3.0485	-1.136486	0.000250	2.497071	0.423015	-0.000025
1705	1.6955e+02	3.0391	-1.158075	0.000217	2.169586	0.367538	-0.000022
1706	1.6965e+02	3.0311	-1.180071	0.000221	2.210522	0.374472	-0.000022
1707	1.6975e+02	3.0182	-1.201253	0.000213	2.128650	0.360603	-0.000021
1708	1.6985e+02	3.0099	-1.226101	0.000250	2.497071	0.423015	-0.000025
1709	1.6995e+02	3.0043	-1.244839	0.000188	1.883037	0.318995	-0.000019
1710	1.7005e+02	2.9920	-1.266021	0.000213	2.128650	0.360603	-0.000021
1711	1.7015e+02	2.9813	-1.285980	0.000201	2.005844	0.339799	-0.000020
1712	1.7024e+02	2.9696	-1.310014	0.000242	2.415199	0.409146	-0.000024
1713	1.7034e+02	2.9601	-1.327937	0.000180	1.801166	0.305126	-0.000018
1714	1.7044e+02	2.9508	-1.353192	0.000254	2.538006	0.429950	-0.000025
1715	1.7054e+02	2.9419	-1.373152	0.000201	2.005844	0.339799	-0.000020
1716	1.7064e+02	2.9285	-1.392704	0.000196	1.964908	0.332864	-0.000020
1717	1.7074e+02	2.9205	-1.414293	0.000217	2.169586	0.367538	-0.000022
1718	1.7084e+02	2.9113	-1.438327	0.000242	2.415199	0.409146	-0.000024
1719	1.7094e+02	2.9015	-1.459101	0.000209	2.087715	0.353668	-0.000021
1720	1.7104e+02	2.8893	-1.477431	0.000184	1.842101	0.312060	-0.000018
1721	1.7114e+02	2.8828	-1.499021	0.000217	2.169586	0.367538	-0.000022
1722	1.7124e+02	2.8729	-1.520610	0.000217	2.169586	0.367538	-0.000022
1723	1.7134e+02	2.8622	-1.535274	0.000147	1.473681	0.249648	-0.000015
1724	1.7144e+02	2.8510	-1.557271	0.000221	2.210522	0.374472	-0.000022
1725	1.7154e+02	2.8396	-1.574379	0.000172	1.719295	0.291256	-0.000017
1726	1.7164e+02	2.8312	-1.596375	0.000221	2.210522	0.374472	-0.000022
1727	1.7174e+02	2.8184	-1.617557	0.000213	2.128650	0.360603	-0.000021
1728	1.7184e+02	2.8114	-1.633444	0.000160	1.596488	0.270452	-0.000016
1729	1.7194e+02	2.8020	-1.658292	0.000250	2.497071	0.423015	-0.000025
1730	1.7204e+02	2.7910	-1.677029	0.000188	1.883037	0.318995	-0.000019
1731	1.7213e+02	2.7812	-1.696582	0.000196	1.964908	0.332864	-0.000020
1732	1.7223e+02	2.7747	-1.716134	0.000196	1.964908	0.332864	-0.000020
1733	1.7233e+02	2.7637	-1.730391	0.000143	1.432745	0.242714	-0.000014
1734	1.7243e+02	2.7526	-1.754424	0.000242	2.415199	0.409146	-0.000024
1735	1.7253e+02	2.7428	-1.771125	0.000168	1.678359	0.284322	-0.000017
1736	1.7263e+02	2.7325	-1.794751	0.000237	2.374264	0.402211	-0.000024
1737	1.7273e+02	2.7198	-1.812267	0.000176	1.760230	0.298191	-0.000018
1738	1.7283e+02	2.7121	-1.830190	0.000180	1.801166	0.305126	-0.000018
1739	1.7293e+02	2.7038	-1.853001	0.000229	2.292393	0.388342	-0.000023
1740	1.7303e+02	2.6907	-1.869295	0.000164	1.637423	0.277387	-0.000016
1741	1.7313e+02	2.6817	-1.890884	0.000217	2.169586	0.367538	-0.000022
1742	1.7323e+02	2.6732	-1.909215	0.000184	1.842101	0.312060	-0.000018
1743	1.7333e+02	2.6618	-1.929174	0.000201	2.005844	0.339799	-0.000020
1744	1.7343e+02	2.6535	-1.949541	0.000205	2.046779	0.346734	-0.000020
1745	1.7353e+02	2.6431	-1.974389	0.000250	2.497071	0.423015	-0.000025
1746	1.7363e+02	2.6305	-1.992312	0.000180	1.801166	0.305126	-0.000018
1747	1.7373e+02	2.6219	-2.011458	0.000192	1.923972	0.325930	-0.000019
1748	1.7383e+02	2.6128	-2.036305	0.000250	2.497071	0.423015	-0.000025
1749	1.7393e+02	2.6022	-2.054636	0.000184	1.842101	0.312060	-0.000018
1750	1.7403e+02	2.5919	-2.073781	0.000192	1.923972	0.325930	-0.000019
1751	1.7413e+02	2.5827	-2.099036	0.000254	2.538006	0.429950	-0.000025
1752	1.7422e+02	2.5723	-2.118996	0.000201	2.005844	0.339799	-0.000020
1753	1.7432e+02	2.5636	-2.140992	0.000221	2.210522	0.374472	-0.000022
1754	1.7442e+02	2.5491	-2.164211	0.000233	2.333328	0.395277	-0.000023
1755	1.7452e+02	2.5416	-2.184985	0.000209	2.087715	0.353668	-0.000021
1756	1.7462e+02	2.5320	-2.206575	0.000217	2.169586	0.367538	-0.000022
1757	1.7472e+02	2.5217	-2.226942	0.000205	2.046779	0.346734	-0.000020
1758	1.7482e+02	2.5097	-2.249753	0.000229	2.292393	0.388342	-0.000023
1759	1.7492e+02	2.5043	-2.268898	0.000192	1.923972	0.325930	-0.000019
1760	1.7502e+02	2.4951	-2.287228	0.000184	1.842101	0.312060	-0.000018
1761	1.7512e+02	2.4813	-2.313298	0.000262	2.619877	0.443819	-0.000026
1762	1.7522e+02	2.4729	-2.332036	0.000188	1.883037	0.318995	-0.000019
1763	1.7532e+02	2.4653	-2.354847	0.000229	2.292393	0.388342	-0.000023
1764	1.7542e+02	2.4533	-2.373992	0.000192	1.923972	0.325930	-0.000019
1765	1.7552e+02	2.4440	-2.400470	0.000266	2.660813	0.450754	-0.000027
1766	1.7562e+02	2.4361	-2.420837	0.000205	2.046779	0.346734	-0.000020
1767	1.7572e+02	2.4221	-2.444463	0.000237	2.374264	0.402211	-0.000024
1768	1.7582e+02	2.4136	-2.462386	0.000180	1.801166	0.305126	-0.000018
1769	1.7592e+02	2.4022	-2.483568	0.000213	2.128650	0.360603	-0.000021
1770	1.7602e+02	2.3933	-2.505157	0.000217	2.169586	0.367538	-0.000022
1771	1.7612e+02	2.3868	-2.525116	0.000201	2.005844	0.339799	-0.000020
1772	1.7621e+02	2.3717	-2.545076	0.000201	2.005844	0.339799	-0.000020
1773	1.7631e+02	2.3632	-2.569109	0.000242	2.415199	0.409146	-0.000024
1774	1.7641e+02	2.3524	-2.589477	0.000205	2.046779	0.346734	-0.000020
1775	1.7651e+02	2.3430	-2.609436	0.000201	2.005844	0.339799	-0.000020
1776	1.7661e+02	2.3343	-2.632248	0.000229	2.292393	0.388342	-0.000023
1777	1.7671e+02	2.3237	-2.651800	0.000196	1.964908	0.332864	-0.000020
1778	1.7681e+02	2.3138	-2.676241	0.000246	2.456135	0.416081	-0.000025
1779	1.7691e+02	2.3034	-2.693349	0.000172	1.719295	0.291256	-0.000017
1780	1.7701e+02	2.2932	-2.715345	0.000221	2.210522	0.374472	-0.000022
1781	1.7711e+02	2.2824	-2.735305	0.000201	2.005844	0.339799	-0.000020
1782	1.7721e+02	2.2723	-2.758931	0.000237	2.374264	0.402211	-0.000024
1783	1.7731e+02	2.2637	-2.780113	0.000213	2.128650	0.360603	-0.000021
1784	1.7741e+02	2.2551	-2.799258	0.000192	1.923972	0.325930	-0.000019
1785	1.7751e+02	2.2443	-2.820847	0.000217	2.169586	0.367538	-0.000022
1786	1.7761e+02	2.2369	-2.839178	0.000184	1.842101	0.312060	-0.000018
1787	1.7771e+02	2.2254	-2.858730	0.000196	1.964908	0.332864	-0.000020
1788	1.7781e+02	2.2125	-2.879912	0.000213	2.128650	0.360603	-0.000021
1789	1.7791e+02	2.2033	-2.902723	0.000229	2.292393	0.388342	-0.000023
1790	1.7801e+02	2.1920	-2.928793	0.000262	2.619877	0.443819	-0.000026
1791	1.7810e+02	2.1844	-2.946309	0.000176	1.760230	0.298191	-0.000018
1792	1.7820e+02	2.1742	-2.971157	0.000250	2.497071	0.423015	-0.000025
1793	1.7830e+02	2.1660	-2.993560	0.000225	2.251457	0.381407	-0.000023
1794	1.7840e+02	2.1544	-3.015964	0.000225	2.251457	0.381407	-0.000023
1795	1.7850e+02	2.1450	-3.038368	0.000225	2.251457	0.381407	-0.000023
1796	1.7860e+02	2.1319	-3.058735	0.000205	2.046779	0.346734	-0.000020
1797	1.7870e+02	2.1262	-3.082768	0.000242	2.415199	0.409146	-0.000024
1798	1.7880e+02	2.1154	-3.106394	0.000237	2.374264	0.402211	-0.000024
1799	1.7890e+02	2.1072	-3.129613	0.000233	2.333328	0.395277	-0.000023
1800	1.7900e+02	2.0948	-3.151202	0.000217	2.169586	0.367538	-0.000022
1801	1.7910e+02	2.0850	-3.176050	0.000250	2.497071	0.423015	-0.000025
1802	1.7920e+02	2.0740	-3.197639	0.000217	2.169586	0.367538	-0.000022
1803	1.7930e+02	2.0653	-3.220450	0.000229	2.292393	0.388342	-0.000023
1804	1.7940e+02	2.0564	-3.244891	0.000246	2.456135	0.416081	-0.000025
1805	1.7950e+02	2.0477	-3.267702	0.000229	2.292393	0.388342	-0.000023
1806	1.7960e+02	2.0357	-3.293365	0.000258	2.578942	0.436885	-0.000026
1807	1.7970e+02	2.0255	-3.319434	0.000262	2.619877	0.443819	-0.000026
1808	1.7980e+02	2.0164	-3.338987	0.000196	1.964908	0.332864	-0.000020
1809	1.7990e+02	2.0063	-3.367094	0.000282	2.824555	0.478493	-0.000028
1810	1.8000e+02	1.9958	-3.389497	0.000225	2.251457	0.381407	-0.000023
1811	1.8009e+02	1.9855	-3.416382	0.000270	2.701749	0.457689	-0.000027
1812	1.8019e+02	1.9740	-3.440008	0.000237	2.374264	0.402211	-0.000024
1813	1.8029e+02	1.9648	-3.463226	0.000233	2.333328	0.395277	-0.000023
1814	1.8039e+02	1.9569	-3.488482	0.000254	2.538006	0.429950	-0.000025
1815	1.8049e+02	1.9458	-3.512515	0.000242	2.415199	0.409146	-0.000024
1816	1.8059e+02	1.9346	-3.536141	0.000237	2.374264	0.402211	-0.000024
1817	1.8069e+02	1.9258	-3.561803	0.000258	2.578942	0.436885	-0.000026
1818	1.8079e+02	1.9150	-3.589095	0.000274	2.742684	0.464623	-0.000027
1819	1.8089e+02	1.9048	-3.615165	0.000262	2.619877	0.443819	-0.000026
1820	1.8099e+02	1.8974	-3.641235	0.000262	2.619877	0.443819	-0.000026
1821	1.8109e+02	1.8874	-3.664861	0.000237	2.374264	0.402211	-0.000024
1822	1.8119e+02	1.8780	-3.689301	0.000246	2.456135	0.416081	-0.000025
1823	1.8129e+02	1.8671	-3.715371	0.000262	2.619877	0.443819	-0.000026
1824	1.8139e+02	1.8598	-3.736553	0.000213	2.128650	0.360603	-0.000021
1825	1.8149e+02	1.8451	-3.762216	0.000258	2.578942	0.436885	-0.000026
1826	1.8159e+02	1.8361	-3.786249	0.000242	2.415199	0.409146	-0.000024
1827	1.8169e+02	1.8266	-3.811097	0.000250	2.497071	0.423015	-0.000025
1828	1.8179e+02	1.8161	-3.835130	0.000242	2.415199	0.409146	-0.000024
1829	1.8189e+02	1.8058	-3.855905	0.000209	2.087715	0.353668	-0.000021
1830	1.8199e+02	1.7972	-3.882789	0.000270	2.701749	0.457689	-0.000027
1831	1.8209e+02	1.7879	-3.907637	0.000250	2.497071	0.423015	-0.000025
1832	1.8218e+02	1.7756	-3.930041	0.000225	2.251457	0.381407	-0.000023
1833	1.8228e+02	1.7659	-3.954074	0.000242	2.415199	0.409146	-0.000024
1834	1.8238e+02	1.7580	-3.974849	0.000209	2.087715	0.353668	-0.000021
1835	1.8248e+02	1.7469	-3.998474	0.000237	2.374264	0.402211	-0.000024
1836	1.8258e+02	1.7353	-4.022100	0.000237	2.374264	0.402211	-0.000024
1837	1.8268e+02	1.7268	-4.046541	0.000246	2.456135	0.416081	-0.000025
1838	1.8278e+02	1.7159	-4.073426	0.000270	2.701749	0.457689	-0.000027
1839	1.8288e+02	1.7076	-4.093793	0.000205	2.046779	0.346734	-0.000020
1840	1.8298e+02	1.6952	-4.115789	0.000221	2.210522	0.374472	-0.000022
1841	1.8308e+02	1.6882	-4.140637	0.000250	2.497071	0.423015	-0.000025
1842	1.8318e+02	1.6752	-4.167114	0.000266	2.660813	0.450754	-0.000027
1843	1.8328e+02	1.6673	-4.189518	0.000225	2.251457	0.381407	-0.000023
1844	1.8338e+02	1.6565	-4.212737	0.000233	2.333328	0.395277	-0.000023
1845	1.8348e+02	1.6474	-4.239214	0.000266	2.660813	0.450754	-0.000027
1846	1.8358e+02	1.6363	-4.260803	0.000217	2.169586	0.367538	-0.000022
1847	1.8368e+02	1.6289	-4.279541	0.000188	1.883037	0.318995	-0.000019
1848	1.8378e+02	1.6178	-4.305611	0.000262	2.619877	0.443819	-0.000026
1849	1.8388e+02	1.6083	-4.329644	0.000242	2.415199	0.409146	-0.000024
1850	1.8398e+02	1.5981	-4.351640	0.000221	2.210522	0.374472	-0.000022
1851	1.8407e+02	1.5887	-4.372822	0.000213	2.128650	0.360603	-0.000021
1852	1.8417e+02	1.5723	-4.400522	0.000278	2.783620	0.471558	-0.000028
1853	1.8427e+02	1.5672	-4.421703	0.000213	2.128650	0.360603	-0.000021
1854	1.8437e+02	1.5575	-4.448588	0.000270	2.701749	0.457689	-0.000027
1855	1.8447e+02	1.5483	-4.474658	0.000262	2.619877	0.443819	-0.000026
1856	1.8457e+02	1.5385	-4.492174	0.000176	1.760230	0.298191	-0.000018
1857	1.8467e+02	1.5285	-4.519873	0.000278	2.783620	0.471558	-0.000028
1858	1.8477e+02	1.5164	-4.544314	0.000246	2.456135	0.416081	-0.000025
1859	1.8487e+02	1.5086	-4.569569	0.000254	2.538006	0.429950	-0.000025
1860	1.8497e+02	1.4989	-4.592787	0.000233	2.333328	0.395277	-0.000023
1861	1.8507e+02	1.4883	-4.616820	0.000242	2.415199	0.409146	-0.000024
1862	1.8517e+02	1.4783	-4.643705	0.000270	2.701749	0.457689	-0.000027
1863	1.8527e+02	1.4669	-4.668146	0.000246	2.456135	0.416081	-0.000025
1864	1.8537e+02	1.4597	-4.689735	0.000217	2.169586	0.367538	-0.000022
1865	1.8547e+02	1.4469	-4.714175	0.000246	2.456135	0.416081	-0.000025
1866	1.8557e+02	1.4382	-4.738616	0.000246	2.456135	0.416081	-0.000025
1867	1.8567e+02	1.4300	-4.761020	0.000225	2.251457	0.381407	-0.000023
1868	1.8577e+02	1.4171	-4.791570	0.000307	3.070169	0.520101	-0.000031
1869	1.8587e+02	1.4093	-4.816418	0.000250	2.497071	0.423015	-0.000025
1870	1.8597e+02	1.4017	-4.838822	0.000225	2.251457	0.381407	-0.000023
1871	1.8606e+02	1.3876	-4.862855	0.000242	2.415199	0.409146	-0.000024
1872	1.8616e+02	1.3778	-4.889740	0.000270	2.701749	0.457689	-0.000027
1873	1.8626e+02	1.3741	-4.914995	0.000254	2.538006	0.429950	-0.000025
1874	1.8636e+02	1.3580	-4.935770	0.000209	2.087715	0.353668	-0.000021
1875	1.8646e+02	1.3482	-4.959396	0.000237	2.374264	0.402211	-0.000024
1876	1.8656e+02	1.3390	-4.984243	0.000250	2.497071	0.423015	-0.000025
1877	1.8666e+02	1.3277	-5.005425	0.000213	2.128650	0.360603	-0.000021
1878	1.8676e+02	1.3194	-5.028644	0.000233	2.333328	0.395277	-0.000023
1879	1.8686e+02	1.3100	-5.051862	0.000233	2.333328	0.395277	-0.000023
1880	1.8696e+02	1.2970	-5.077932	0.000262	2.619877	0.443819	-0.000026
1881	1.8706e+02	1.2901	-5.100743	0.000229	2.292393	0.388342	-0.000023
1882	1.8716e+02	1.2791	-5.120296	0.000196	1.964908	0.332864	-0.000020
1883	1.8726e+02	1.2691	-5.142700	0.000225	2.251457	0.381407	-0.000023
1884	1.8736e+02	1.2585	-5.164696	0.000221	2.210522	0.374472	-0.000022
1885	1.8746e+02	1.2491	-5.190359	0.000258	2.578942	0.436885	-0.000026
1886	1.8756e+02	1.2415	-5.216021	0.000258	2.578942	0.436885	-0.000026
1887	1.8766e+02	1.2287	-5.232315	0.000164	1.637423	0.277387	-0.000016
1888	1.8776e+02	1.2205	-5.257978	0.000258	2.578942	0.436885	-0.000026
1889	1.8786e+02	1.2093	-5.280789	0.000229	2.292393	0.388342	-0.000023
1890	1.8796e+02	1.2021	-5.306044	0.000254	2.538006	0.429950	-0.000025
1891	1.8806e+02	1.1889	-5.322338	0.000164	1.637423	0.277387	-0.000016
1892	1.8815e+02	1.1777	-5.343520	0.000213	2.128650	0.360603	-0.000021
1893	1.8825e+02	1.1705	-5.365109	0.000217	2.169586	0.367538	-0.000022
1894	1.8835e+02	1.1611	-5.382217	0.000172	1.719295	0.291256	-0.000017
1895	1.8845e+02	1.1494	-5.405843	0.000237	2.374264	0.402211	-0.000024
1896	1.8855e+02	1.1405	-5.427839	0.000221	2.210522	0.374472	-0.000022
1897	1.8865e+02	1.1301	-5.447392	0.000196	1.964908	0.332864	-0.000020
1898	1.8875e+02	1.1192	-5.470610	0.000233	2.333328	0.395277	-0.000023
1899	1.8885e+02	1.1120	-5.495458	0.000250	2.497071	0.423015	-0.000025
1900	1.8895e+02	1.0988	-5.515418	0.000201	2.005844	0.339799	-0.000020
1901	1.8905e+02	1.0940	-5.534971	0.000196	1.964908	0.332864	-0.000020
1902	1.8915e+02	1.0791	-5.558596	0.000237	2.374264	0.402211	-0.000024
1903	1.8925e+02	1.0665	-5.579778	0.000213	2.128650	0.360603	-0.000021
1904	1.8935e+02	1.0612	-5.600960	0.000213	2.128650	0.360603	-0.000021
1905	1.8945e+02	1.0493	-5.620513	0.000196	1.964908	0.332864	-0.000020
1906	1.8955e+02	1.0417	-5.642509	0.000221	2.210522	0.374472	-0.000022
1907	1.8965e+02	1.0318	-5.663283	0.000209	2.087715	0.353668	-0.000021
1908	1.8975e+02	1.0198	-5.684465	0.000213	2.128650	0.360603	-0.000021
1909	1.8985e+02	1.0114	-5.706054	0.000217	2.169586	0.367538	-0.000022
1910	1.8995e+02	1.0025	-5.725200	0.000192	1.923972	0.325930	-0.000019
1911	1.9004e+02	0.9937	-5.751269	0.000262	2.619877	0.443819	-0.000026
1912	1.9014e+02	0.9829	-5.771637	0.000205	2.046779	0.346734	-0.000020
1913	1.9024e+02	0.9704	-5.798521	0.000270	2.701749	0.457689	-0.000027
1914	1.9034e+02	0.9622	-5.819296	0.000209	2.087715	0.353668	-0.000021
1915	1.9044e+02	0.9512	-5.840478	0.000213	2.128650	0.360603	-0.000021
1916	1.9054e+02	0.9389	-5.864103	0.000237	2.374264	0.402211	-0.000024
1917	1.9064e+02	0.9308	-5.885693	0.000217	2.169586	0.367538	-0.000022
1918	1.9074e+02	0.9212	-5.912577	0.000270	2.701749	0.457689	-0.000027
1919	1.9084e+02	0.9098	-5.933352	0.000209	2.087715	0.353668	-0.000021
1920	1.9094e+02	0.9000	-5.956977	0.000237	2.374264	0.402211	-0.000024
1921	1.9104e+02	0.8903	-5.978159	0.000213	2.128650	0.360603	-0.000021
1922	1.9114e+02	0.8829	-6.003007	0.000250	2.497071	0.423015	-0.000025
1923	1.9124e+02	0.8723	-6.024189	0.000213	2.128650	0.360603	-0.000021
1924	1.9134e+02	0.8593	-6.049037	0.000250	2.497071	0.423015	-0.000025
1925	1.9144e+02	0.8517	-6.072663	0.000237	2.374264	0.402211	-0.000024
1926	1.9154e+02	0.8424	-6.094659	0.000221	2.210522	0.374472	-0.000022
1927	1.9164e+02	0.8324	-6.120322	0.000258	2.578942	0.436885	-0.000026
1928	1.9174e+02	0.8258	-6.141504	0.000213	2.128650	0.360603	-0.000021
1929	1.9184e+02	0.8115	-6.162278	0.000209	2.087715	0.353668	-0.000021
1930	1.9194e+02	0.8019	-6.187533	0.000254	2.538006	0.429950	-0.000025
1931	1.9203e+02	0.7919	-6.209530	0.000221	2.210522	0.374472	-0.000022
1932	1.9213e+02	0.7803	-6.236414	0.000270	2.701749	0.457689	-0.000027
1933	1.9223e+02	0.7718	-6.262077	0.000258	2.578942	0.436885	-0.000026
1934	1.9233e+02	0.7617	-6.282037	0.000201	2.005844	0.339799	-0.000020
1935	1.9243e+02	0.7516	-6.309329	0.000274	2.742684	0.464623	-0.000027
1936	1.9253e+02	0.7417	-6.331325	0.000221	2.210522	0.374472	-0.000022
1937	1.9263e+02	0.7310	-6.354136	0.000229	2.292393	0.388342	-0.000023
1938	1.9273e+02	0.7217	-6.377355	0.000233	2.333328	0.395277	-0.000023
1939	1.9283e+02	0.7132	-6.398944	0.000217	2.169586	0.367538	-0.000022
1940	1.9293e+02	0.6997	-6.423385	0.000246	2.456135	0.416081	-0.000025
1941	1.9303e+02	0.6920	-6.441715	0.000184	1.842101	0.312060	-0.000018
1942	1.9313e+02	0.6812	-6.466563	0.000250	2.497071	0.423015	-0.000025
1943	1.9323e+02	0.6721	-6.487745	0.000213	2.128650	0.360603	-0.000021
1944	1.9333e+02	0.6633	-6.514222	0.000266	2.660813	0.450754	-0.000027
1945	1.9343e+02	0.6517	-6.534997	0.000209	2.087715	0.353668	-0.000021
1946	1.9353e+02	0.6422	-6.559437	0.000246	2.456135	0.416081	-0.000025
1947	1.9363e+02	0.6355	-6.578582	0.000192	1.923972	0.325930	-0.000019
1948	1.9373e+02	0.6221	-6.604652	0.000262	2.619877	0.443819	-0.000026
1949	1.9383e+02	0.6116	-6.627463	0.000229	2.292393	0.388342	-0.000023
1950	1.9393e+02	0.6034	-6.652311	0.000250	2.497071	0.423015	-0.000025
1951	1.9403e+02	0.5918	-6.672678	0.000205	2.046779	0.346734	-0.000020
1952	1.9412e+02	0.5808	-6.695490	0.000229	2.292393	0.388342	-0.000023
1953	1.9422e+02	0.5738	-6.719115	0.000237	2.374264	0.402211	-0.000024
1954	1.9432e+02	0.5637	-6.739890	0.000209	2.087715	0.353668	-0.000021
1955	1.9442e+02	0.5531	-6.766774	0.000270	2.701749	0.457689	-0.000027
1956	1.9452e+02	0.5416	-6.785512	0.000188	1.883037	0.318995	-0.000019
1957	1.9462e+02	0.5332	-6.809138	0.000237	2.374264	0.402211	-0.000024
1958	1.9472e+02	0.5224	-6.833579	0.000246	2.456135	0.416081	-0.000025
1959	1.9482e+02	0.5129	-6.855575	0.000221	2.210522	0.374472	-0.000022
1960	1.9492e+02	0.5038	-6.882867	0.000274	2.742684	0.464623	-0.000027
1961	1.9502e+02	0.4952	-6.902420	0.000196	1.964908	0.332864	-0.000020
1962	1.9512e+02	0.4806	-6.927267	0.000250	2.497071	0.423015	-0.000025
1963	1.9522e+02	0.4725	-6.958633	0.000315	3.152040	0.533970	-0.000032
1964	1.9532e+02	0.4626	-6.977778	0.000192	1.923972	0.325930	-0.000019
1965	1.9542e+02	0.4519	-7.004663	0.000270	2.701749	0.457689	-0.000027
1966	1.9552e+02	0.4456	-7.031140	0.000266	2.660813	0.450754	-0.000027
1967	1.9562e+02	0.4361	-7.054358	0.000233	2.333328	0.395277	-0.000023
1968	1.9572e+02	0.4243	-7.077984	0.000237	2.374264	0.402211	-0.000024
1969	1.9582e+02	0.4151	-7.104054	0.000262	2.619877	0.443819	-0.000026
1970	1.9592e+02	0.4021	-7.127680	0.000237	2.374264	0.402211	-0.000024
1971	1.9601e+02	0.3925	-7.151713	0.000242	2.415199	0.409146	-0.000024
1972	1.9611e+02	0.3839	-7.178598	0.000270	2.701749	0.457689	-0.000027
1973	1.9621e+02	0.3742	-7.204260	0.000258	2.578942	0.436885	-0.000026
1974	1.9631e+02	0.3662	-7.227072	0.000229	2.292393	0.388342	-0.000023
1975	1.9641e+02	0.3541	-7.259659	0.000327	3.274847	0.554774	-0.000033
1976	1.9651e+02	0.3432	-7.284914	0.000254	2.538006	0.429950	-0.000025
1977	1.9661e+02	0.3341	-7.308540	0.000237	2.374264	0.402211	-0.000024
1978	1.9671e+02	0.3250	-7.337869	0.000295	2.947362	0.499297	-0.000029
1979	1.9681e+02	0.3147	-7.363939	0.000262	2.619877	0.443819	-0.000026
1980	1.9691e+02	0.3050	-7.389601	0.000258	2.578942	0.436885	-0.000026
1981	1.9701e+02	0.2942	-7.412820	0.000233	2.333328	0.395277	-0.000023
1982	1.9711e+02	0.2866	-7.445814	0.000332	3.315782	0.561709	-0.000033
1983	1.9721e+02	0.2723	-7.472292	0.000266	2.660813	0.450754	-0.000027
1984	1.9731e+02	0.2632	-7.499584	0.000274	2.742684	0.464623	-0.000027
1985	1.9741e+02	0.2536	-7.527690	0.000282	2.824555	0.478493	-0.000028
1986	1.9751e+02	0.2442	-7.550502	0.000229	2.292393	0.388342	-0.000023
1987	1.9761e+02	0.2335	-7.575757	0.000254	2.538006	0.429950	-0.000025
1988	1.9771e+02	0.2213	-7.604678	0.000291	2.906426	0.492362	-0.000029
1989	1.9781e+02	0.2139	-7.631970	0.000274	2.742684	0.464623	-0.000027
1990	1.9791e+02	0.2029	-7.657633	0.000258	2.578942	0.436885	-0.000026
1991	1.9800e+02	0.1920	-7.684925	0.000274	2.742684	0.464623	-0.000027
1992	1.9810e+02	0.1841	-7.708958	0.000242	2.415199	0.409146	-0.000024
1993	1.9820e+02	0.1745	-7.737879	0.000291	2.906426	0.492362	-0.000029
1994	1.9830e+02	0.1639	-7.763134	0.000254	2.538006	0.429950	-0.000025
1995	1.9840e+02	0.1522	-7.786760	0.000237	2.374264	0.402211	-0.000024
1996	1.9850e+02	0.1443	-7.815682	0.000291	2.906426	0.492362	-0.000029
1997	1.9860e+02	0.1368	-7.842566	0.000270	2.701749	0.457689	-0.000027
1998	1.9870e+02	0.1247	-7.869451	0.000270	2.701749	0.457689	-0.000027
1999	1.9880e+02	0.1166	-7.892262	0.000229	2.292393	0.388342	-0.000023
2000	1.9890e+02	0.1059	-7.915073	0.000229	2.292393	0.388342	-0.000023
2001	1.9900e+02	0.0932	-7.946438	0.000315	3.152040	0.533970	-0.000032
2002	1.9910e+02	0.0854	-7.965584	0.000192	1.923972	0.325930	-0.000019
2003	1.9920e+02	0.0764	-7.994912	0.000295	2.947362	0.499297	-0.000029
2004	1.9930e+02	0.0648	-8.015279	0.000205	2.046779	0.346734	-0.000020
2005	1.9940e+02	0.0546	-8.040535	0.000254	2.538006	0.429950	-0.000025
2006	1.9950e+02	0.0449	-8.069049	0.000287	2.865491	0.485427	-0.000029
2007	1.9960e+02	0.0364	-8.091045	0.000221	2.210522	0.374472	-0.000022
2008	1.9970e+02	0.0223	-8.123225	0.000323	3.233911	0.547839	-0.000032
2009	1.9980e+02	0.0166	-8.146851	0.000237	2.374264	0.402211	-0.000024
2010	1.9990e+02	0.0065	-8.172921	0.000262	2.619877	0.443819	-0.000026
2011	2.0000e+02	-0.0046	-8.196547	0.000262	2.619877	0.443819	-0.000024

PMax (uC/cm2):	2.13e+01
Pr (uC/cm2):	2.48e+00
-Pr (uC/cm2):	0.00e+00
PLoss (uC/cm2):	0.00e+00
C (Max-Eff) (nF):	2.14e-01
K (Eff):	3.62e+02
Vert. (+/-Pr) Shift (uC/cm2):	1.24e+00
Offset (uC/cm2):	1.07e+01

A (Loop Area - uC/cm2·Volts):	-2.47e-02



Hysteresis Version: 5.48.1 - Radiant Technologies, Inc., 1999 - 9/12/24

