»»»»»»»»»»»»»»»»»»»»»»»»»»»»»»»»»»»» Hysteresis ««««««««««««««««««««««««««««««««««««
»»»  Executed Version:	5.48.1
»»»  Vision Version:	5.48.4 (R)
»»»  Vision Compiled:	9/18/24
»»»  Driver Version:	5.47.0
»»»  Windows Version:	Windows 8 or 8.1
»»»  Processor Information:	x86 (AMD or Intel) - 32 Processors
»»»  Tester Name:	PMF21124-494 (100V)
»»»  Tester S/N:	PMF21124-494
»»»  Internal Amp Type:	100V RevK 270k
»»»  Internal Amp S/N:	iAB2-596/K     
»»»  Execution Count:	1
»»»»»»»»»»»»»»»»»»»»»»»»»»»»»»»»»»»»»»»»»»««««««««««««««««««««««««««««««««««««««««««

Stored:	6/26/2025 - 17:50:0
Configured:	06/26/25 10:24:47 AM
Executed:	06/26/25 05:49:26 PM

»»»»»»»»»»»»»»»»»»»»»»»»»»»»»»»»»»» Sample Info ««««««««««««««««««««««««««««««««««««
Sample Name:	
Lot Name:	
Wafer Name:	
Die Row/Column:	0/0
Capacitor Number:	0
Sample Area (cm2):	1.00e-04
Sample Thickness (microns):	1.50e-01

Amplifier:	Internal

»»»»»»»»»»»»»»»»»»»»»»»»»»»»»»»»»»» Tester Info «««««««««««««««««««««««««««««««««««
Tester Name:	PMF21124-494 (100V)
Tester Serial Number:	PMF21124-494
Return Signal Amp. Level:	1.9 [Index: 2]

»»»»»»»»»»»»»»»»»»»»»»»»»»»»»»»» Hysteresis Info ««««««««««««««««««««««««««««««««««
Task Name:	Hyst-562
Volts:	10.00
Field:	666.67 (kV/cm)
DCBias:	0.00
DCField:	0.00 (kV/cm)
Hysteresis Period (ms):	2.00e+02
Preset:	Enabled
Preset Delay (ms):	1.00e+03
Profile:	Standard Monopolar

»»»»»»»»»»»»»»»»»»»»»»»»»»»»»»»»»»»»»» Data «««««««««««««««««««««««««««««««««««««««
Points:	2011

Valid Data

Point	Time (ms)	Drive Voltage	Measured Polarization (uC/cm2)	Capacitance (uF)	Normalized Capacitance (uF/cm2)	Dielectric Constant	Instantaneous Current (mA)
   1	0.0000e+00	-0.0027	-11.203346	0.000242	2.415273	0.409158	0.000024
   2	9.9500e-02	0.0040	-11.179313	0.000242	2.415273	0.409158	0.000024
   3	1.9900e-01	0.0150	-11.147540	0.000319	3.193073	0.540921	0.000032
   4	2.9850e-01	0.0266	-11.122285	0.000254	2.538084	0.429963	0.000025
   5	3.9800e-01	0.0345	-11.092141	0.000303	3.029326	0.513182	0.000030
   6	4.9750e-01	0.0440	-11.057925	0.000344	3.438694	0.582531	0.000034
   7	5.9700e-01	0.0540	-11.029003	0.000291	2.906515	0.492377	0.000029
   8	6.9650e-01	0.0620	-10.998045	0.000311	3.111199	0.527051	0.000031
   9	7.9600e-01	0.0758	-10.967902	0.000303	3.029326	0.513182	0.000030
  10	8.9550e-01	0.0834	-10.942239	0.000258	2.579020	0.436898	0.000026
  11	9.9500e-01	0.0967	-10.913725	0.000287	2.865578	0.485442	0.000029
  12	1.0945e+00	0.1037	-10.884397	0.000295	2.947452	0.499312	0.000029
  13	1.1940e+00	0.1162	-10.854253	0.000303	3.029326	0.513182	0.000030
  14	1.2935e+00	0.1289	-10.826961	0.000274	2.742768	0.464637	0.000027
  15	1.3930e+00	0.1368	-10.798447	0.000287	2.865578	0.485442	0.000029
  16	1.4925e+00	0.1459	-10.765045	0.000336	3.356820	0.568661	0.000034
  17	1.5920e+00	0.1520	-10.734495	0.000307	3.070262	0.520117	0.000031
  18	1.6915e+00	0.1637	-10.702315	0.000323	3.234010	0.547856	0.000032
  19	1.7910e+00	0.1751	-10.675430	0.000270	2.701831	0.457703	0.000027
  20	1.8905e+00	0.1835	-10.643657	0.000319	3.193073	0.540921	0.000032
  21	1.9900e+00	0.1955	-10.615143	0.000287	2.865578	0.485442	0.000029
  22	2.0895e+00	0.2048	-10.589888	0.000254	2.538084	0.429963	0.000025
  23	2.1890e+00	0.2163	-10.560559	0.000295	2.947452	0.499312	0.000029
  24	2.2885e+00	0.2246	-10.532860	0.000278	2.783705	0.471572	0.000028
  25	2.3880e+00	0.2354	-10.504346	0.000287	2.865578	0.485442	0.000029
  26	2.4875e+00	0.2410	-10.481942	0.000225	2.251526	0.381419	0.000023
  27	2.5870e+00	0.2562	-10.453021	0.000291	2.906515	0.492377	0.000029
  28	2.6865e+00	0.2666	-10.424507	0.000287	2.865578	0.485442	0.000029
  29	2.7860e+00	0.2753	-10.402510	0.000221	2.210589	0.374484	0.000022
  30	2.8855e+00	0.2829	-10.374404	0.000282	2.824641	0.478507	0.000028
  31	2.9850e+00	0.2943	-10.346297	0.000282	2.824641	0.478507	0.000028
  32	3.0845e+00	0.3047	-10.321042	0.000254	2.538084	0.429963	0.000025
  33	3.1840e+00	0.3143	-10.297416	0.000237	2.374336	0.402223	0.000024
  34	3.2835e+00	0.3243	-10.271346	0.000262	2.619957	0.443833	0.000026
  35	3.3830e+00	0.3356	-10.244054	0.000274	2.742768	0.464637	0.000027
  36	3.4825e+00	0.3445	-10.220428	0.000237	2.374336	0.402223	0.000024
  37	3.5820e+00	0.3542	-10.193544	0.000270	2.701831	0.457703	0.000027
  38	3.6815e+00	0.3629	-10.167474	0.000262	2.619957	0.443833	0.000026
  39	3.7810e+00	0.3713	-10.143441	0.000242	2.415273	0.409158	0.000024
  40	3.8805e+00	0.3864	-10.116556	0.000270	2.701831	0.457703	0.000027
  41	3.9800e+00	0.3952	-10.089671	0.000270	2.701831	0.457703	0.000027
  42	4.0795e+00	0.4039	-10.065638	0.000242	2.415273	0.409158	0.000024
  43	4.1790e+00	0.4144	-10.037531	0.000282	2.824641	0.478507	0.000028
  44	4.2785e+00	0.4237	-10.012684	0.000250	2.497147	0.423028	0.000025
  45	4.3780e+00	0.4330	-9.992316	0.000205	2.046842	0.346744	0.000020
  46	4.4775e+00	0.4453	-9.961358	0.000311	3.111199	0.527051	0.000031
  47	4.5770e+00	0.4549	-9.939362	0.000221	2.210589	0.374484	0.000022
  48	4.6765e+00	0.4646	-9.911663	0.000278	2.783705	0.471572	0.000028
  49	4.7760e+00	0.4713	-9.885593	0.000262	2.619957	0.443833	0.000026
  50	4.8755e+00	0.4820	-9.864004	0.000217	2.169652	0.367549	0.000022
  51	4.9750e+00	0.4945	-9.833860	0.000303	3.029326	0.513182	0.000030
  52	5.0745e+00	0.5027	-9.811864	0.000221	2.210589	0.374484	0.000022
  53	5.1740e+00	0.5153	-9.787016	0.000250	2.497147	0.423028	0.000025
  54	5.2735e+00	0.5229	-9.760946	0.000262	2.619957	0.443833	0.000026
  55	5.3730e+00	0.5338	-9.735691	0.000254	2.538084	0.429963	0.000025
  56	5.4725e+00	0.5449	-9.711250	0.000246	2.456210	0.416093	0.000025
  57	5.5720e+00	0.5519	-9.685588	0.000258	2.579020	0.436898	0.000026
  58	5.6715e+00	0.5614	-9.661962	0.000237	2.374336	0.402223	0.000024
  59	5.7710e+00	0.5721	-9.641187	0.000209	2.087778	0.353679	0.000021
  60	5.8705e+00	0.5836	-9.615932	0.000254	2.538084	0.429963	0.000025
  61	5.9700e+00	0.5928	-9.593121	0.000229	2.292463	0.388354	0.000023
  62	6.0695e+00	0.6028	-9.566643	0.000266	2.660894	0.450768	0.000027
  63	6.1690e+00	0.6120	-9.542610	0.000242	2.415273	0.409158	0.000024
  64	6.2685e+00	0.6238	-9.516133	0.000266	2.660894	0.450768	0.000027
  65	6.3680e+00	0.6332	-9.492507	0.000237	2.374336	0.402223	0.000024
  66	6.4675e+00	0.6430	-9.467252	0.000254	2.538084	0.429963	0.000025
  67	6.5670e+00	0.6573	-9.440775	0.000266	2.660894	0.450768	0.000027
  68	6.6665e+00	0.6606	-9.419185	0.000217	2.169652	0.367549	0.000022
  69	6.7660e+00	0.6707	-9.392301	0.000270	2.701831	0.457703	0.000027
  70	6.8655e+00	0.6811	-9.367453	0.000250	2.497147	0.423028	0.000025
  71	6.9650e+00	0.6906	-9.349530	0.000180	1.801221	0.305135	0.000018
  72	7.0645e+00	0.7037	-9.320201	0.000295	2.947452	0.499312	0.000029
  73	7.1640e+00	0.7088	-9.300649	0.000196	1.964968	0.332875	0.000020
  74	7.2635e+00	0.7240	-9.274986	0.000258	2.579020	0.436898	0.000026
  75	7.3630e+00	0.7319	-9.248102	0.000270	2.701831	0.457703	0.000027
  76	7.4625e+00	0.7419	-9.224068	0.000242	2.415273	0.409158	0.000024
  77	7.5620e+00	0.7520	-9.203294	0.000209	2.087778	0.353679	0.000021
  78	7.6615e+00	0.7635	-9.178446	0.000250	2.497147	0.423028	0.000025
  79	7.7610e+00	0.7732	-9.148710	0.000299	2.988389	0.506247	0.000030
  80	7.8605e+00	0.7805	-9.125084	0.000237	2.374336	0.402223	0.000024
  81	7.9600e+00	0.7909	-9.101051	0.000242	2.415273	0.409158	0.000024
  82	8.0595e+00	0.8002	-9.077832	0.000233	2.333399	0.395289	0.000023
  83	8.1590e+00	0.8118	-9.050133	0.000278	2.783705	0.471572	0.000028
  84	8.2585e+00	0.8208	-9.028544	0.000217	2.169652	0.367549	0.000022
  85	8.3580e+00	0.8324	-9.005733	0.000229	2.292463	0.388354	0.000023
  86	8.4575e+00	0.8407	-8.983736	0.000221	2.210589	0.374484	0.000022
  87	8.5570e+00	0.8530	-8.961740	0.000221	2.210589	0.374484	0.000022
  88	8.6565e+00	0.8583	-8.936077	0.000258	2.579020	0.436898	0.000026
  89	8.7560e+00	0.8723	-8.915303	0.000209	2.087778	0.353679	0.000021
  90	8.8555e+00	0.8807	-8.894528	0.000209	2.087778	0.353679	0.000021
  91	8.9550e+00	0.8897	-8.874976	0.000196	1.964968	0.332875	0.000020
  92	9.0545e+00	0.9002	-8.853387	0.000217	2.169652	0.367549	0.000022
  93	9.1540e+00	0.9119	-8.830576	0.000229	2.292463	0.388354	0.000023
  94	9.2535e+00	0.9217	-8.810208	0.000205	2.046842	0.346744	0.000020
  95	9.3530e+00	0.9316	-8.789841	0.000205	2.046842	0.346744	0.000020
  96	9.4525e+00	0.9415	-8.759291	0.000307	3.070262	0.520117	0.000031
  97	9.5520e+00	0.9514	-8.743404	0.000160	1.596536	0.270461	0.000016
  98	9.6515e+00	0.9599	-8.720593	0.000229	2.292463	0.388354	0.000023
  99	9.7510e+00	0.9681	-8.698597	0.000221	2.210589	0.374484	0.000022
 100	9.8505e+00	0.9804	-8.681895	0.000168	1.678410	0.284330	0.000017
 101	9.9500e+00	0.9873	-8.659899	0.000221	2.210589	0.374484	0.000022
 102	1.0050e+01	1.0001	-8.639125	0.000209	2.087778	0.353679	0.000021
 103	1.0149e+01	1.0110	-8.620794	0.000184	1.842157	0.312070	0.000018
 104	1.0248e+01	1.0220	-8.592280	0.000287	2.865578	0.485442	0.000029
 105	1.0348e+01	1.0321	-8.571913	0.000205	2.046842	0.346744	0.000020
 106	1.0447e+01	1.0413	-8.547472	0.000246	2.456210	0.416093	0.000025
 107	1.0547e+01	1.0478	-8.522625	0.000250	2.497147	0.423028	0.000025
 108	1.0646e+01	1.0610	-8.501850	0.000209	2.087778	0.353679	0.000021
 109	1.0746e+01	1.0692	-8.477002	0.000250	2.497147	0.423028	0.000025
 110	1.0845e+01	1.0810	-8.453784	0.000233	2.333399	0.395289	0.000023
 111	1.0945e+01	1.0896	-8.426084	0.000278	2.783705	0.471572	0.000028
 112	1.1044e+01	1.1047	-8.401236	0.000250	2.497147	0.423028	0.000025
 113	1.1144e+01	1.1091	-8.375167	0.000262	2.619957	0.443833	0.000026
 114	1.1243e+01	1.1192	-8.349504	0.000258	2.579020	0.436898	0.000026
 115	1.1343e+01	1.1314	-8.328322	0.000213	2.128715	0.360614	0.000021
 116	1.1443e+01	1.1399	-8.304289	0.000242	2.415273	0.409158	0.000024
 117	1.1542e+01	1.1488	-8.276997	0.000274	2.742768	0.464637	0.000027
 118	1.1642e+01	1.1593	-8.251742	0.000254	2.538084	0.429963	0.000025
 119	1.1741e+01	1.1678	-8.228116	0.000237	2.374336	0.402223	0.000024
 120	1.1841e+01	1.1802	-8.202453	0.000258	2.579020	0.436898	0.000026
 121	1.1940e+01	1.1906	-8.177605	0.000250	2.497147	0.423028	0.000025
 122	1.2040e+01	1.2005	-8.151535	0.000262	2.619957	0.443833	0.000026
 123	1.2139e+01	1.2101	-8.128317	0.000233	2.333399	0.395289	0.000023
 124	1.2239e+01	1.2193	-8.102247	0.000262	2.619957	0.443833	0.000026
 125	1.2338e+01	1.2291	-8.076177	0.000262	2.619957	0.443833	0.000026
 126	1.2438e+01	1.2394	-8.049292	0.000270	2.701831	0.457703	0.000027
 127	1.2537e+01	1.2493	-8.021593	0.000278	2.783705	0.471572	0.000028
 128	1.2636e+01	1.2588	-7.998782	0.000229	2.292463	0.388354	0.000023
 129	1.2736e+01	1.2698	-7.976378	0.000225	2.251526	0.381419	0.000023
 130	1.2835e+01	1.2771	-7.950308	0.000262	2.619957	0.443833	0.000026
 131	1.2935e+01	1.2888	-7.922609	0.000278	2.783705	0.471572	0.000028
 132	1.3034e+01	1.2997	-7.901020	0.000217	2.169652	0.367549	0.000022
 133	1.3134e+01	1.3081	-7.870876	0.000303	3.029326	0.513182	0.000030
 134	1.3233e+01	1.3171	-7.849287	0.000217	2.169652	0.367549	0.000022
 135	1.3333e+01	1.3286	-7.821588	0.000278	2.783705	0.471572	0.000028
 136	1.3432e+01	1.3393	-7.794296	0.000274	2.742768	0.464637	0.000027
 137	1.3532e+01	1.3477	-7.771078	0.000233	2.333399	0.395289	0.000023
 138	1.3632e+01	1.3553	-7.749488	0.000217	2.169652	0.367549	0.000022
 139	1.3731e+01	1.3673	-7.715272	0.000344	3.438694	0.582531	0.000034
 140	1.3831e+01	1.3779	-7.691238	0.000242	2.415273	0.409158	0.000024
 141	1.3930e+01	1.3898	-7.665576	0.000258	2.579020	0.436898	0.000026
 142	1.4030e+01	1.3966	-7.636247	0.000295	2.947452	0.499312	0.000029
 143	1.4129e+01	1.4063	-7.610585	0.000258	2.579020	0.436898	0.000026
 144	1.4229e+01	1.4183	-7.586144	0.000246	2.456210	0.416093	0.000025
 145	1.4328e+01	1.4277	-7.559667	0.000266	2.660894	0.450768	0.000027
 146	1.4428e+01	1.4391	-7.532375	0.000274	2.742768	0.464637	0.000027
 147	1.4527e+01	1.4469	-7.505490	0.000270	2.701831	0.457703	0.000027
 148	1.4627e+01	1.4567	-7.481864	0.000237	2.374336	0.402223	0.000024
 149	1.4726e+01	1.4677	-7.448462	0.000336	3.356820	0.568661	0.000034
 150	1.4825e+01	1.4772	-7.427688	0.000209	2.087778	0.353679	0.000021
 151	1.4925e+01	1.4897	-7.401618	0.000262	2.619957	0.443833	0.000026
 152	1.5024e+01	1.4970	-7.373511	0.000282	2.824641	0.478507	0.000028
 153	1.5124e+01	1.5055	-7.349885	0.000237	2.374336	0.402223	0.000024
 154	1.5223e+01	1.5202	-7.320557	0.000295	2.947452	0.499312	0.000029
 155	1.5323e+01	1.5257	-7.293265	0.000274	2.742768	0.464637	0.000027
 156	1.5422e+01	1.5376	-7.271676	0.000217	2.169652	0.367549	0.000022
 157	1.5522e+01	1.5481	-7.242347	0.000295	2.947452	0.499312	0.000029
 158	1.5621e+01	1.5587	-7.216684	0.000258	2.579020	0.436898	0.000026
 159	1.5721e+01	1.5664	-7.193873	0.000229	2.292463	0.388354	0.000023
 160	1.5820e+01	1.5763	-7.163322	0.000307	3.070262	0.520117	0.000031
 161	1.5920e+01	1.5852	-7.136845	0.000266	2.660894	0.450768	0.000027
 162	1.6020e+01	1.5981	-7.108739	0.000282	2.824641	0.478507	0.000028
 163	1.6119e+01	1.6092	-7.086742	0.000221	2.210589	0.374484	0.000022
 164	1.6218e+01	1.6145	-7.060672	0.000262	2.619957	0.443833	0.000026
 165	1.6318e+01	1.6277	-7.036639	0.000242	2.415273	0.409158	0.000024
 166	1.6418e+01	1.6379	-7.008940	0.000278	2.783705	0.471572	0.000028
 167	1.6517e+01	1.6482	-6.981648	0.000274	2.742768	0.464637	0.000027
 168	1.6616e+01	1.6563	-6.955578	0.000262	2.619957	0.443833	0.000026
 169	1.6716e+01	1.6683	-6.928693	0.000270	2.701831	0.457703	0.000027
 170	1.6816e+01	1.6763	-6.900994	0.000278	2.783705	0.471572	0.000028
 171	1.6915e+01	1.6880	-6.871258	0.000299	2.988389	0.506247	0.000030
 172	1.7015e+01	1.6967	-6.843966	0.000274	2.742768	0.464637	0.000027
 173	1.7114e+01	1.7068	-6.812193	0.000319	3.193073	0.540921	0.000032
 174	1.7213e+01	1.7154	-6.784087	0.000282	2.824641	0.478507	0.000028
 175	1.7313e+01	1.7251	-6.754758	0.000295	2.947452	0.499312	0.000029
 176	1.7413e+01	1.7378	-6.725429	0.000295	2.947452	0.499312	0.000029
 177	1.7512e+01	1.7461	-6.700989	0.000246	2.456210	0.416093	0.000025
 178	1.7611e+01	1.7578	-6.668809	0.000323	3.234010	0.547856	0.000032
 179	1.7711e+01	1.7670	-6.644368	0.000246	2.456210	0.416093	0.000025
 180	1.7811e+01	1.7754	-6.614225	0.000303	3.029326	0.513182	0.000030
 181	1.7910e+01	1.7878	-6.586118	0.000282	2.824641	0.478507	0.000028
 182	1.8009e+01	1.7967	-6.556789	0.000295	2.947452	0.499312	0.000029
 183	1.8109e+01	1.8058	-6.522980	0.000340	3.397757	0.575596	0.000034
 184	1.8209e+01	1.8163	-6.499354	0.000237	2.374336	0.402223	0.000024
 185	1.8308e+01	1.8255	-6.467989	0.000315	3.152136	0.533986	0.000032
 186	1.8407e+01	1.8373	-6.439882	0.000282	2.824641	0.478507	0.000028
 187	1.8507e+01	1.8450	-6.408924	0.000311	3.111199	0.527051	0.000031
 188	1.8607e+01	1.8549	-6.383669	0.000254	2.538084	0.429963	0.000025
 189	1.8706e+01	1.8658	-6.356784	0.000270	2.701831	0.457703	0.000027
 190	1.8805e+01	1.8750	-6.326641	0.000303	3.029326	0.513182	0.000030
 191	1.8905e+01	1.8868	-6.304644	0.000221	2.210589	0.374484	0.000022
 192	1.9005e+01	1.8999	-6.276538	0.000282	2.824641	0.478507	0.000028
 193	1.9104e+01	1.9040	-6.252504	0.000242	2.415273	0.409158	0.000024
 194	1.9203e+01	1.9149	-6.227657	0.000250	2.497147	0.423028	0.000025
 195	1.9303e+01	1.9251	-6.200772	0.000270	2.701831	0.457703	0.000027
 196	1.9402e+01	1.9362	-6.175924	0.000250	2.497147	0.423028	0.000025
 197	1.9502e+01	1.9456	-6.146595	0.000295	2.947452	0.499312	0.000029
 198	1.9602e+01	1.9558	-6.124599	0.000221	2.210589	0.374484	0.000022
 199	1.9701e+01	1.9648	-6.100566	0.000242	2.415273	0.409158	0.000024
 200	1.9800e+01	1.9748	-6.075718	0.000250	2.497147	0.423028	0.000025
 201	1.9900e+01	1.9837	-6.049241	0.000266	2.660894	0.450768	0.000027
 202	2.0000e+01	1.9955	-6.023985	0.000254	2.538084	0.429963	0.000025
 203	2.0099e+01	2.0019	-6.001581	0.000225	2.251526	0.381419	0.000023
 204	2.0198e+01	2.0151	-5.977548	0.000242	2.415273	0.409158	0.000024
 205	2.0298e+01	2.0222	-5.948627	0.000291	2.906515	0.492377	0.000029
 206	2.0398e+01	2.0364	-5.923779	0.000250	2.497147	0.423028	0.000025
 207	2.0497e+01	2.0452	-5.899339	0.000246	2.456210	0.416093	0.000025
 208	2.0596e+01	2.0548	-5.877749	0.000217	2.169652	0.367549	0.000022
 209	2.0696e+01	2.0648	-5.849643	0.000282	2.824641	0.478507	0.000028
 210	2.0796e+01	2.0745	-5.826832	0.000229	2.292463	0.388354	0.000023
 211	2.0895e+01	2.0888	-5.805242	0.000217	2.169652	0.367549	0.000022
 212	2.0994e+01	2.0949	-5.774284	0.000311	3.111199	0.527051	0.000031
 213	2.1094e+01	2.1032	-5.753917	0.000205	2.046842	0.346744	0.000020
 214	2.1194e+01	2.1151	-5.731106	0.000229	2.292463	0.388354	0.000023
 215	2.1293e+01	2.1223	-5.708295	0.000229	2.292463	0.388354	0.000023
 216	2.1392e+01	2.1336	-5.679781	0.000287	2.865578	0.485442	0.000029
 217	2.1492e+01	2.1438	-5.655748	0.000242	2.415273	0.409158	0.000024
 218	2.1591e+01	2.1568	-5.634566	0.000213	2.128715	0.360614	0.000021
 219	2.1691e+01	2.1658	-5.607681	0.000270	2.701831	0.457703	0.000027
 220	2.1791e+01	2.1775	-5.587314	0.000205	2.046842	0.346744	0.000020
 221	2.1890e+01	2.1856	-5.564503	0.000229	2.292463	0.388354	0.000023
 222	2.1989e+01	2.1947	-5.538026	0.000266	2.660894	0.450768	0.000027
 223	2.2089e+01	2.2047	-5.511141	0.000270	2.701831	0.457703	0.000027
 224	2.2189e+01	2.2152	-5.487923	0.000233	2.333399	0.395289	0.000023
 225	2.2288e+01	2.2228	-5.467148	0.000209	2.087778	0.353679	0.000021
 226	2.2387e+01	2.2353	-5.444744	0.000225	2.251526	0.381419	0.000023
 227	2.2487e+01	2.2449	-5.423155	0.000217	2.169652	0.367549	0.000022
 228	2.2587e+01	2.2529	-5.400344	0.000229	2.292463	0.388354	0.000023
 229	2.2686e+01	2.2659	-5.378755	0.000217	2.169652	0.367549	0.000022
 230	2.2785e+01	2.2756	-5.351870	0.000270	2.701831	0.457703	0.000027
 231	2.2885e+01	2.2839	-5.328652	0.000233	2.333399	0.395289	0.000023
 232	2.2985e+01	2.2952	-5.305026	0.000237	2.374336	0.402223	0.000024
 233	2.3084e+01	2.3043	-5.283029	0.000221	2.210589	0.374484	0.000022
 234	2.3183e+01	2.3125	-5.257774	0.000254	2.538084	0.429963	0.000025
 235	2.3283e+01	2.3245	-5.237000	0.000209	2.087778	0.353679	0.000021
 236	2.3383e+01	2.3331	-5.210522	0.000266	2.660894	0.450768	0.000027
 237	2.3482e+01	2.3444	-5.189748	0.000209	2.087778	0.353679	0.000021
 238	2.3581e+01	2.3525	-5.166122	0.000237	2.374336	0.402223	0.000024
 239	2.3681e+01	2.3627	-5.143311	0.000229	2.292463	0.388354	0.000023
 240	2.3780e+01	2.3727	-5.120500	0.000229	2.292463	0.388354	0.000023
 241	2.3880e+01	2.3854	-5.098910	0.000217	2.169652	0.367549	0.000022
 242	2.3980e+01	2.3939	-5.074877	0.000242	2.415273	0.409158	0.000024
 243	2.4079e+01	2.4044	-5.046771	0.000282	2.824641	0.478507	0.000028
 244	2.4178e+01	2.4138	-5.028440	0.000184	1.842157	0.312070	0.000018
 245	2.4278e+01	2.4249	-5.003592	0.000250	2.497147	0.423028	0.000025
 246	2.4378e+01	2.4292	-4.979966	0.000237	2.374336	0.402223	0.000024
 247	2.4477e+01	2.4438	-4.956340	0.000237	2.374336	0.402223	0.000024
 248	2.4576e+01	2.4570	-4.932715	0.000237	2.374336	0.402223	0.000024
 249	2.4676e+01	2.4640	-4.908681	0.000242	2.415273	0.409158	0.000024
 250	2.4776e+01	2.4746	-4.889129	0.000196	1.964968	0.332875	0.000020
 251	2.4875e+01	2.4828	-4.864688	0.000246	2.456210	0.416093	0.000025
 252	2.4974e+01	2.4959	-4.840248	0.000246	2.456210	0.416093	0.000025
 253	2.5074e+01	2.4998	-4.819881	0.000205	2.046842	0.346744	0.000020
 254	2.5174e+01	2.5147	-4.799106	0.000209	2.087778	0.353679	0.000021
 255	2.5273e+01	2.5206	-4.779146	0.000201	2.005905	0.339809	0.000020
 256	2.5372e+01	2.5336	-4.761223	0.000180	1.801221	0.305135	0.000018
 257	2.5472e+01	2.5410	-4.739227	0.000221	2.210589	0.374484	0.000022
 258	2.5572e+01	2.5532	-4.717638	0.000217	2.169652	0.367549	0.000022
 259	2.5671e+01	2.5651	-4.700122	0.000176	1.760284	0.298200	0.000018
 260	2.5770e+01	2.5738	-4.678533	0.000217	2.169652	0.367549	0.000022
 261	2.5870e+01	2.5832	-4.656536	0.000221	2.210589	0.374484	0.000022
 262	2.5970e+01	2.5913	-4.636984	0.000196	1.964968	0.332875	0.000020
 263	2.6069e+01	2.6017	-4.618654	0.000184	1.842157	0.312070	0.000018
 264	2.6169e+01	2.6138	-4.597879	0.000209	2.087778	0.353679	0.000021
 265	2.6268e+01	2.6220	-4.573438	0.000246	2.456210	0.416093	0.000025
 266	2.6367e+01	2.6339	-4.553479	0.000201	2.005905	0.339809	0.000020
 267	2.6467e+01	2.6416	-4.533112	0.000205	2.046842	0.346744	0.000020
 268	2.6567e+01	2.6517	-4.517633	0.000156	1.555600	0.263526	0.000016
 269	2.6666e+01	2.6624	-4.499302	0.000184	1.842157	0.312070	0.000018
 270	2.6765e+01	2.6719	-4.477713	0.000217	2.169652	0.367549	0.000022
 271	2.6865e+01	2.6811	-4.452865	0.000250	2.497147	0.423028	0.000025
 272	2.6965e+01	2.6935	-4.435757	0.000172	1.719347	0.291265	0.000017
 273	2.7064e+01	2.7039	-4.411316	0.000246	2.456210	0.416093	0.000025
 274	2.7163e+01	2.7117	-4.391764	0.000196	1.964968	0.332875	0.000020
 275	2.7263e+01	2.7243	-4.365694	0.000262	2.619957	0.443833	0.000026
 276	2.7363e+01	2.7340	-4.341661	0.000242	2.415273	0.409158	0.000024
 277	2.7462e+01	2.7404	-4.321293	0.000205	2.046842	0.346744	0.000020
 278	2.7561e+01	2.7499	-4.298890	0.000225	2.251526	0.381419	0.000023
 279	2.7661e+01	2.7619	-4.275264	0.000237	2.374336	0.402223	0.000024
 280	2.7761e+01	2.7705	-4.249601	0.000258	2.579020	0.436898	0.000026
 281	2.7860e+01	2.7799	-4.228012	0.000217	2.169652	0.367549	0.000022
 282	2.7959e+01	2.7932	-4.207645	0.000205	2.046842	0.346744	0.000020
 283	2.8059e+01	2.7997	-4.179538	0.000282	2.824641	0.478507	0.000028
 284	2.8159e+01	2.8104	-4.155912	0.000237	2.374336	0.402223	0.000024
 285	2.8258e+01	2.8196	-4.134323	0.000217	2.169652	0.367549	0.000022
 286	2.8358e+01	2.8336	-4.107031	0.000274	2.742768	0.464637	0.000027
 287	2.8457e+01	2.8413	-4.087479	0.000196	1.964968	0.332875	0.000020
 288	2.8556e+01	2.8515	-4.061002	0.000266	2.660894	0.450768	0.000027
 289	2.8656e+01	2.8640	-4.038190	0.000229	2.292463	0.388354	0.000023
 290	2.8756e+01	2.8722	-4.014565	0.000237	2.374336	0.402223	0.000024
 291	2.8855e+01	2.8799	-3.989309	0.000254	2.538084	0.429963	0.000025
 292	2.8954e+01	2.8889	-3.968535	0.000209	2.087778	0.353679	0.000021
 293	2.9054e+01	2.9020	-3.940021	0.000287	2.865578	0.485442	0.000029
 294	2.9154e+01	2.9119	-3.917617	0.000225	2.251526	0.381419	0.000023
 295	2.9253e+01	2.9212	-3.893991	0.000237	2.374336	0.402223	0.000024
 296	2.9352e+01	2.9324	-3.869551	0.000246	2.456210	0.416093	0.000025
 297	2.9452e+01	2.9369	-3.841851	0.000278	2.783705	0.471572	0.000028
 298	2.9552e+01	2.9476	-3.821077	0.000209	2.087778	0.353679	0.000021
 299	2.9651e+01	2.9625	-3.794192	0.000270	2.701831	0.457703	0.000027
 300	2.9750e+01	2.9708	-3.770159	0.000242	2.415273	0.409158	0.000024
 301	2.9850e+01	2.9800	-3.749385	0.000209	2.087778	0.353679	0.000021
 302	2.9950e+01	2.9903	-3.721685	0.000278	2.783705	0.471572	0.000028
 303	3.0049e+01	3.0010	-3.700096	0.000217	2.169652	0.367549	0.000022
 304	3.0148e+01	3.0127	-3.674841	0.000254	2.538084	0.429963	0.000025
 305	3.0248e+01	3.0206	-3.650400	0.000246	2.456210	0.416093	0.000025
 306	3.0348e+01	3.0302	-3.626367	0.000242	2.415273	0.409158	0.000024
 307	3.0447e+01	3.0402	-3.603149	0.000233	2.333399	0.395289	0.000023
 308	3.0547e+01	3.0494	-3.575042	0.000282	2.824641	0.478507	0.000028
 309	3.0646e+01	3.0602	-3.552231	0.000229	2.292463	0.388354	0.000023
 310	3.0745e+01	3.0706	-3.525753	0.000266	2.660894	0.450768	0.000027
 311	3.0845e+01	3.0815	-3.500091	0.000258	2.579020	0.436898	0.000026
 312	3.0945e+01	3.0872	-3.476465	0.000237	2.374336	0.402223	0.000024
 313	3.1044e+01	3.1002	-3.447136	0.000295	2.947452	0.499312	0.000029
 314	3.1143e+01	3.1113	-3.423510	0.000237	2.374336	0.402223	0.000024
 315	3.1243e+01	3.1202	-3.398255	0.000254	2.538084	0.429963	0.000025
 316	3.1343e+01	3.1297	-3.375037	0.000233	2.333399	0.395289	0.000023
 317	3.1442e+01	3.1421	-3.346523	0.000287	2.865578	0.485442	0.000029
 318	3.1541e+01	3.1468	-3.326970	0.000196	1.964968	0.332875	0.000020
 319	3.1641e+01	3.1606	-3.298864	0.000282	2.824641	0.478507	0.000028
 320	3.1741e+01	3.1710	-3.276867	0.000221	2.210589	0.374484	0.000022
 321	3.1840e+01	3.1804	-3.251205	0.000258	2.579020	0.436898	0.000026
 322	3.1939e+01	3.1873	-3.228801	0.000225	2.251526	0.381419	0.000023
 323	3.2039e+01	3.1990	-3.199065	0.000299	2.988389	0.506247	0.000030
 324	3.2139e+01	3.2100	-3.181549	0.000176	1.760284	0.298200	0.000018
 325	3.2238e+01	3.2206	-3.149776	0.000319	3.193073	0.540921	0.000032
 326	3.2337e+01	3.2288	-3.126150	0.000237	2.374336	0.402223	0.000024
 327	3.2437e+01	3.2373	-3.102525	0.000237	2.374336	0.402223	0.000024
 328	3.2536e+01	3.2529	-3.075640	0.000270	2.701831	0.457703	0.000027
 329	3.2636e+01	3.2559	-3.053643	0.000221	2.210589	0.374484	0.000022
 330	3.2736e+01	3.2674	-3.027166	0.000266	2.660894	0.450768	0.000027
 331	3.2835e+01	3.2796	-3.002726	0.000246	2.456210	0.416093	0.000025
 332	3.2934e+01	3.2888	-2.977063	0.000258	2.579020	0.436898	0.000026
 333	3.3034e+01	3.2983	-2.954252	0.000229	2.292463	0.388354	0.000023
 334	3.3133e+01	3.3076	-2.928589	0.000258	2.579020	0.436898	0.000026
 335	3.3233e+01	3.3219	-2.902927	0.000258	2.579020	0.436898	0.000026
 336	3.3333e+01	3.3279	-2.878486	0.000246	2.456210	0.416093	0.000025
 337	3.3432e+01	3.3385	-2.852824	0.000258	2.579020	0.436898	0.000026
 338	3.3532e+01	3.3491	-2.823902	0.000291	2.906515	0.492377	0.000029
 339	3.3631e+01	3.3604	-2.798647	0.000254	2.538084	0.429963	0.000025
 340	3.3730e+01	3.3679	-2.768096	0.000307	3.070262	0.520117	0.000031
 341	3.3830e+01	3.3782	-2.739175	0.000291	2.906515	0.492377	0.000029
 342	3.3929e+01	3.3900	-2.715142	0.000242	2.415273	0.409158	0.000024
 343	3.4029e+01	3.3991	-2.684184	0.000311	3.111199	0.527051	0.000031
 344	3.4129e+01	3.4079	-2.657299	0.000270	2.701831	0.457703	0.000027
 345	3.4228e+01	3.4175	-2.632044	0.000254	2.538084	0.429963	0.000025
 346	3.4328e+01	3.4289	-2.605159	0.000270	2.701831	0.457703	0.000027
 347	3.4427e+01	3.4380	-2.577460	0.000278	2.783705	0.471572	0.000028
 348	3.4526e+01	3.4484	-2.551797	0.000258	2.579020	0.436898	0.000026
 349	3.4626e+01	3.4601	-2.522061	0.000299	2.988389	0.506247	0.000030
 350	3.4725e+01	3.4692	-2.497621	0.000246	2.456210	0.416093	0.000025
 351	3.4825e+01	3.4793	-2.469514	0.000282	2.824641	0.478507	0.000028
 352	3.4925e+01	3.4871	-2.439778	0.000299	2.988389	0.506247	0.000030
 353	3.5024e+01	3.4965	-2.414116	0.000258	2.579020	0.436898	0.000026
 354	3.5123e+01	3.5083	-2.386824	0.000274	2.742768	0.464637	0.000027
 355	3.5223e+01	3.5163	-2.357902	0.000291	2.906515	0.492377	0.000029
 356	3.5322e+01	3.5267	-2.333869	0.000242	2.415273	0.409158	0.000024
 357	3.5422e+01	3.5372	-2.308614	0.000254	2.538084	0.429963	0.000025
 358	3.5522e+01	3.5477	-2.278878	0.000299	2.988389	0.506247	0.000030
 359	3.5621e+01	3.5587	-2.255659	0.000233	2.333399	0.395289	0.000023
 360	3.5721e+01	3.5691	-2.229589	0.000262	2.619957	0.443833	0.000026
 361	3.5820e+01	3.5789	-2.206371	0.000233	2.333399	0.395289	0.000023
 362	3.5919e+01	3.5876	-2.183560	0.000229	2.292463	0.388354	0.000023
 363	3.6019e+01	3.5983	-2.158712	0.000250	2.497147	0.423028	0.000025
 364	3.6118e+01	3.6079	-2.134271	0.000246	2.456210	0.416093	0.000025
 365	3.6218e+01	3.6173	-2.109831	0.000246	2.456210	0.416093	0.000025
 366	3.6318e+01	3.6308	-2.087020	0.000229	2.292463	0.388354	0.000023
 367	3.6417e+01	3.6367	-2.065430	0.000217	2.169652	0.367549	0.000022
 368	3.6517e+01	3.6477	-2.039360	0.000262	2.619957	0.443833	0.000026
 369	3.6616e+01	3.6586	-2.017364	0.000221	2.210589	0.374484	0.000022
 370	3.6715e+01	3.6660	-1.992516	0.000250	2.497147	0.423028	0.000025
 371	3.6815e+01	3.6781	-1.972556	0.000201	2.005905	0.339809	0.000020
 372	3.6914e+01	3.6848	-1.946486	0.000262	2.619957	0.443833	0.000026
 373	3.7014e+01	3.6958	-1.923268	0.000233	2.333399	0.395289	0.000023
 374	3.7114e+01	3.7075	-1.901271	0.000221	2.210589	0.374484	0.000022
 375	3.7213e+01	3.7171	-1.874794	0.000266	2.660894	0.450768	0.000027
 376	3.7313e+01	3.7282	-1.856464	0.000184	1.842157	0.312070	0.000018
 377	3.7412e+01	3.7358	-1.831208	0.000254	2.538084	0.429963	0.000025
 378	3.7511e+01	3.7473	-1.804731	0.000266	2.660894	0.450768	0.000027
 379	3.7611e+01	3.7589	-1.785179	0.000196	1.964968	0.332875	0.000020
 380	3.7711e+01	3.7656	-1.766034	0.000192	1.924031	0.325940	0.000019
 381	3.7810e+01	3.7768	-1.740778	0.000254	2.538084	0.429963	0.000025
 382	3.7910e+01	3.7859	-1.718375	0.000225	2.251526	0.381419	0.000023
 383	3.8009e+01	3.7964	-1.696378	0.000221	2.210589	0.374484	0.000022
 384	3.8108e+01	3.8107	-1.672752	0.000237	2.374336	0.402223	0.000024
 385	3.8208e+01	3.8163	-1.647497	0.000254	2.538084	0.429963	0.000025
 386	3.8307e+01	3.8259	-1.627537	0.000201	2.005905	0.339809	0.000020
 387	3.8407e+01	3.8378	-1.607577	0.000201	2.005905	0.339809	0.000020
 388	3.8507e+01	3.8490	-1.582729	0.000250	2.497147	0.423028	0.000025
 389	3.8606e+01	3.8564	-1.559918	0.000229	2.292463	0.388354	0.000023
 390	3.8706e+01	3.8655	-1.536292	0.000237	2.374336	0.402223	0.000024
 391	3.8805e+01	3.8784	-1.514296	0.000221	2.210589	0.374484	0.000022
 392	3.8904e+01	3.8852	-1.493929	0.000205	2.046842	0.346744	0.000020
 393	3.9004e+01	3.8978	-1.471932	0.000221	2.210589	0.374484	0.000022
 394	3.9103e+01	3.9071	-1.451973	0.000201	2.005905	0.339809	0.000020
 395	3.9203e+01	3.9156	-1.434457	0.000176	1.760284	0.298200	0.000018
 396	3.9303e+01	3.9242	-1.406350	0.000282	2.824641	0.478507	0.000028
 397	3.9402e+01	3.9340	-1.383946	0.000225	2.251526	0.381419	0.000023
 398	3.9502e+01	3.9473	-1.362765	0.000213	2.128715	0.360614	0.000021
 399	3.9601e+01	3.9565	-1.342397	0.000205	2.046842	0.346744	0.000020
 400	3.9700e+01	3.9661	-1.318364	0.000242	2.415273	0.409158	0.000024
 401	3.9800e+01	3.9750	-1.295553	0.000229	2.292463	0.388354	0.000023
 402	3.9900e+01	3.9864	-1.275186	0.000205	2.046842	0.346744	0.000020
 403	3.9999e+01	3.9953	-1.251560	0.000237	2.374336	0.402223	0.000024
 404	4.0099e+01	4.0064	-1.232415	0.000192	1.924031	0.325940	0.000019
 405	4.0198e+01	4.0178	-1.208789	0.000237	2.374336	0.402223	0.000024
 406	4.0297e+01	4.0249	-1.190051	0.000188	1.883094	0.319005	0.000019
 407	4.0397e+01	4.0343	-1.168055	0.000221	2.210589	0.374484	0.000022
 408	4.0496e+01	4.0456	-1.150132	0.000180	1.801221	0.305135	0.000018
 409	4.0596e+01	4.0525	-1.123247	0.000270	2.701831	0.457703	0.000027
 410	4.0696e+01	4.0659	-1.104509	0.000188	1.883094	0.319005	0.000019
 411	4.0795e+01	4.0758	-1.080883	0.000237	2.374336	0.402223	0.000024
 412	4.0895e+01	4.0847	-1.062553	0.000184	1.842157	0.312070	0.000018
 413	4.0994e+01	4.0954	-1.039335	0.000233	2.333399	0.395289	0.000023
 414	4.1093e+01	4.1079	-1.014079	0.000254	2.538084	0.429963	0.000025
 415	4.1193e+01	4.1148	-0.992490	0.000217	2.169652	0.367549	0.000022
 416	4.1292e+01	4.1238	-0.970901	0.000217	2.169652	0.367549	0.000022
 417	4.1392e+01	4.1324	-0.947275	0.000237	2.374336	0.402223	0.000024
 418	4.1492e+01	4.1440	-0.927723	0.000196	1.964968	0.332875	0.000020
 419	4.1591e+01	4.1553	-0.905319	0.000225	2.251526	0.381419	0.000023
 420	4.1691e+01	4.1640	-0.887803	0.000176	1.760284	0.298200	0.000018
 421	4.1790e+01	4.1730	-0.867843	0.000201	2.005905	0.339809	0.000020
 422	4.1889e+01	4.1834	-0.846661	0.000213	2.128715	0.360614	0.000021
 423	4.1989e+01	4.1924	-0.826702	0.000201	2.005905	0.339809	0.000020
 424	4.2089e+01	4.2049	-0.808371	0.000184	1.842157	0.312070	0.000018
 425	4.2188e+01	4.2135	-0.790041	0.000184	1.842157	0.312070	0.000018
 426	4.2288e+01	4.2245	-0.769266	0.000209	2.087778	0.353679	0.000021
 427	4.2387e+01	4.2380	-0.752973	0.000164	1.637473	0.277395	0.000016
 428	4.2486e+01	4.2426	-0.732198	0.000209	2.087778	0.353679	0.000021
 429	4.2586e+01	4.2551	-0.715497	0.000168	1.678410	0.284330	0.000017
 430	4.2685e+01	4.2623	-0.691057	0.000246	2.456210	0.416093	0.000025
 431	4.2785e+01	4.2751	-0.671912	0.000192	1.924031	0.325940	0.000019
 432	4.2885e+01	4.2828	-0.653581	0.000184	1.842157	0.312070	0.000018
 433	4.2984e+01	4.2951	-0.636473	0.000172	1.719347	0.291265	0.000017
 434	4.3084e+01	4.3035	-0.621808	0.000147	1.473726	0.249656	0.000015
 435	4.3183e+01	4.3160	-0.602663	0.000192	1.924031	0.325940	0.000019
 436	4.3282e+01	4.3238	-0.584333	0.000184	1.842157	0.312070	0.000018
 437	4.3382e+01	4.3319	-0.562744	0.000217	2.169652	0.367549	0.000022
 438	4.3481e+01	4.3433	-0.545228	0.000176	1.760284	0.298200	0.000018
 439	4.3581e+01	4.3546	-0.529749	0.000156	1.555600	0.263526	0.000016
 440	4.3681e+01	4.3635	-0.504901	0.000250	2.497147	0.423028	0.000025
 441	4.3780e+01	4.3755	-0.487385	0.000176	1.760284	0.298200	0.000018
 442	4.3880e+01	4.3826	-0.464167	0.000233	2.333399	0.395289	0.000023
 443	4.3979e+01	4.3968	-0.443800	0.000205	2.046842	0.346744	0.000020
 444	4.4078e+01	4.4032	-0.425469	0.000184	1.842157	0.312070	0.000018
 445	4.4178e+01	4.4134	-0.401029	0.000246	2.456210	0.416093	0.000025
 446	4.4278e+01	4.4218	-0.378625	0.000225	2.251526	0.381419	0.000023
 447	4.4377e+01	4.4336	-0.356628	0.000221	2.210589	0.374484	0.000022
 448	4.4477e+01	4.4424	-0.337076	0.000196	1.964968	0.332875	0.000020
 449	4.4576e+01	4.4521	-0.311413	0.000258	2.579020	0.436898	0.000026
 450	4.4675e+01	4.4630	-0.293490	0.000180	1.801221	0.305135	0.000018
 451	4.4775e+01	4.4755	-0.270272	0.000233	2.333399	0.395289	0.000023
 452	4.4874e+01	4.4820	-0.245831	0.000246	2.456210	0.416093	0.000025
 453	4.4974e+01	4.4941	-0.222613	0.000233	2.333399	0.395289	0.000023
 454	4.5074e+01	4.5041	-0.201838	0.000209	2.087778	0.353679	0.000021
 455	4.5173e+01	4.5113	-0.181878	0.000201	2.005905	0.339809	0.000020
 456	4.5273e+01	4.5254	-0.156216	0.000258	2.579020	0.436898	0.000026
 457	4.5372e+01	4.5321	-0.136663	0.000196	1.964968	0.332875	0.000020
 458	4.5471e+01	4.5426	-0.112223	0.000246	2.456210	0.416093	0.000025
 459	4.5571e+01	4.5530	-0.088190	0.000242	2.415273	0.409158	0.000024
 460	4.5670e+01	4.5616	-0.067008	0.000213	2.128715	0.360614	0.000021
 461	4.5770e+01	4.5742	-0.044197	0.000229	2.292463	0.388354	0.000023
 462	4.5870e+01	4.5818	-0.022200	0.000221	2.210589	0.374484	0.000022
 463	4.5969e+01	4.5928	0.000204	0.000225	2.251526	0.381419	0.000023
 464	4.6069e+01	4.6038	0.025052	0.000250	2.497147	0.423028	0.000025
 465	4.6168e+01	4.6127	0.049492	0.000246	2.456210	0.416093	0.000025
 466	4.6267e+01	4.6232	0.072711	0.000233	2.333399	0.395289	0.000023
 467	4.6367e+01	4.6333	0.094707	0.000221	2.210589	0.374484	0.000022
 468	4.6467e+01	4.6409	0.115074	0.000205	2.046842	0.346744	0.000020
 469	4.6566e+01	4.6516	0.139515	0.000246	2.456210	0.416093	0.000025
 470	4.6666e+01	4.6657	0.162733	0.000233	2.333399	0.395289	0.000023
 471	4.6765e+01	4.6729	0.184730	0.000221	2.210589	0.374484	0.000022
 472	4.6864e+01	4.6803	0.208356	0.000237	2.374336	0.402223	0.000024
 473	4.6964e+01	4.6960	0.231982	0.000237	2.374336	0.402223	0.000024
 474	4.7063e+01	4.7039	0.255607	0.000237	2.374336	0.402223	0.000024
 475	4.7163e+01	4.7124	0.277197	0.000217	2.169652	0.367549	0.000022
 476	4.7263e+01	4.7225	0.302452	0.000254	2.538084	0.429963	0.000025
 477	4.7362e+01	4.7315	0.326485	0.000242	2.415273	0.409158	0.000024
 478	4.7462e+01	4.7434	0.350926	0.000246	2.456210	0.416093	0.000025
 479	4.7561e+01	4.7507	0.376996	0.000262	2.619957	0.443833	0.000026
 480	4.7660e+01	4.7604	0.397363	0.000205	2.046842	0.346744	0.000020
 481	4.7760e+01	4.7707	0.422211	0.000250	2.497147	0.423028	0.000025
 482	4.7859e+01	4.7821	0.440541	0.000184	1.842157	0.312070	0.000018
 483	4.7959e+01	4.7915	0.467426	0.000270	2.701831	0.457703	0.000027
 484	4.8059e+01	4.8041	0.489422	0.000221	2.210589	0.374484	0.000022
 485	4.8158e+01	4.8104	0.511826	0.000225	2.251526	0.381419	0.000023
 486	4.8258e+01	4.8215	0.539118	0.000274	2.742768	0.464637	0.000027
 487	4.8357e+01	4.8327	0.560300	0.000213	2.128715	0.360614	0.000021
 488	4.8456e+01	4.8452	0.583926	0.000237	2.374336	0.402223	0.000024
 489	4.8556e+01	4.8540	0.608773	0.000250	2.497147	0.423028	0.000025
 490	4.8656e+01	4.8595	0.627104	0.000184	1.842157	0.312070	0.000018
 491	4.8755e+01	4.8719	0.655618	0.000287	2.865578	0.485442	0.000029
 492	4.8855e+01	4.8809	0.680058	0.000246	2.456210	0.416093	0.000025
 493	4.8954e+01	4.8902	0.700018	0.000201	2.005905	0.339809	0.000020
 494	4.9053e+01	4.9010	0.725681	0.000258	2.579020	0.436898	0.000026
 495	4.9153e+01	4.9120	0.750936	0.000254	2.538084	0.429963	0.000025
 496	4.9252e+01	4.9220	0.773747	0.000229	2.292463	0.388354	0.000023
 497	4.9352e+01	4.9332	0.795744	0.000221	2.210589	0.374484	0.000022
 498	4.9452e+01	4.9403	0.817333	0.000217	2.169652	0.367549	0.000022
 499	4.9551e+01	4.9506	0.839329	0.000221	2.210589	0.374484	0.000022
 500	4.9651e+01	4.9607	0.860511	0.000213	2.128715	0.360614	0.000021
 501	4.9750e+01	4.9702	0.887803	0.000274	2.742768	0.464637	0.000027
 502	4.9849e+01	4.9819	0.910614	0.000229	2.292463	0.388354	0.000023
 503	4.9949e+01	4.9885	0.935055	0.000246	2.456210	0.416093	0.000025
 504	5.0048e+01	5.0002	0.959903	0.000250	2.497147	0.423028	0.000025
 505	5.0148e+01	5.0101	0.982307	0.000225	2.251526	0.381419	0.000023
 506	5.0248e+01	5.0208	1.006747	0.000246	2.456210	0.416093	0.000025
 507	5.0347e+01	5.0268	1.035261	0.000287	2.865578	0.485442	0.000029
 508	5.0447e+01	5.0440	1.061331	0.000262	2.619957	0.443833	0.000026
 509	5.0546e+01	5.0509	1.087401	0.000262	2.619957	0.443833	0.000026
 510	5.0645e+01	5.0588	1.111027	0.000237	2.374336	0.402223	0.000024
 511	5.0745e+01	5.0683	1.139133	0.000282	2.824641	0.478507	0.000028
 512	5.0844e+01	5.0787	1.163574	0.000246	2.456210	0.416093	0.000025
 513	5.0944e+01	5.0896	1.190459	0.000270	2.701831	0.457703	0.000027
 514	5.1044e+01	5.1007	1.214899	0.000246	2.456210	0.416093	0.000025
 515	5.1143e+01	5.1093	1.243820	0.000291	2.906515	0.492377	0.000029
 516	5.1242e+01	5.1199	1.268261	0.000246	2.456210	0.416093	0.000025
 517	5.1342e+01	5.1296	1.292702	0.000246	2.456210	0.416093	0.000025
 518	5.1441e+01	5.1408	1.318772	0.000262	2.619957	0.443833	0.000026
 519	5.1541e+01	5.1492	1.346471	0.000278	2.783705	0.471572	0.000028
 520	5.1641e+01	5.1585	1.375392	0.000291	2.906515	0.492377	0.000029
 521	5.1740e+01	5.1685	1.398611	0.000233	2.333399	0.395289	0.000023
 522	5.1840e+01	5.1814	1.422644	0.000242	2.415273	0.409158	0.000024
 523	5.1939e+01	5.1907	1.451158	0.000287	2.865578	0.485442	0.000029
 524	5.2038e+01	5.2004	1.475191	0.000242	2.415273	0.409158	0.000024
 525	5.2138e+01	5.2100	1.497595	0.000225	2.251526	0.381419	0.000023
 526	5.2237e+01	5.2163	1.525702	0.000282	2.824641	0.478507	0.000028
 527	5.2337e+01	5.2314	1.543625	0.000180	1.801221	0.305135	0.000018
 528	5.2437e+01	5.2401	1.566436	0.000229	2.292463	0.388354	0.000023
 529	5.2536e+01	5.2479	1.592913	0.000266	2.660894	0.450768	0.000027
 530	5.2636e+01	5.2605	1.614095	0.000213	2.128715	0.360614	0.000021
 531	5.2735e+01	5.2679	1.638535	0.000246	2.456210	0.416093	0.000025
 532	5.2834e+01	5.2781	1.658495	0.000201	2.005905	0.339809	0.000020
 533	5.2934e+01	5.2901	1.680492	0.000221	2.210589	0.374484	0.000022
 534	5.3033e+01	5.2991	1.704118	0.000237	2.374336	0.402223	0.000024
 535	5.3133e+01	5.3094	1.722855	0.000188	1.883094	0.319005	0.000019
 536	5.3233e+01	5.3174	1.746074	0.000233	2.333399	0.395289	0.000023
 537	5.3332e+01	5.3261	1.767663	0.000217	2.169652	0.367549	0.000022
 538	5.3431e+01	5.3381	1.790882	0.000233	2.333399	0.395289	0.000023
 539	5.3531e+01	5.3480	1.811656	0.000209	2.087778	0.353679	0.000021
 540	5.3630e+01	5.3571	1.836097	0.000246	2.456210	0.416093	0.000025
 541	5.3730e+01	5.3672	1.855649	0.000196	1.964968	0.332875	0.000020
 542	5.3830e+01	5.3783	1.874794	0.000192	1.924031	0.325940	0.000019
 543	5.3929e+01	5.3902	1.899642	0.000250	2.497147	0.423028	0.000025
 544	5.4029e+01	5.3969	1.920009	0.000205	2.046842	0.346744	0.000020
 545	5.4128e+01	5.4078	1.943228	0.000233	2.333399	0.395289	0.000023
 546	5.4227e+01	5.4182	1.963187	0.000201	2.005905	0.339809	0.000020
 547	5.4327e+01	5.4285	1.985184	0.000221	2.210589	0.374484	0.000022
 548	5.4426e+01	5.4366	2.008402	0.000233	2.333399	0.395289	0.000023
 549	5.4526e+01	5.4488	2.029992	0.000217	2.169652	0.367549	0.000022
 550	5.4626e+01	5.4601	2.047507	0.000176	1.760284	0.298200	0.000018
 551	5.4725e+01	5.4707	2.069504	0.000221	2.210589	0.374484	0.000022
 552	5.4825e+01	5.4760	2.090686	0.000213	2.128715	0.360614	0.000021
 553	5.4924e+01	5.4859	2.114312	0.000237	2.374336	0.402223	0.000024
 554	5.5023e+01	5.4993	2.135086	0.000209	2.087778	0.353679	0.000021
 555	5.5123e+01	5.5070	2.153824	0.000188	1.883094	0.319005	0.000019
 556	5.5222e+01	5.5189	2.175413	0.000217	2.169652	0.367549	0.000022
 557	5.5322e+01	5.5266	2.196187	0.000209	2.087778	0.353679	0.000021
 558	5.5422e+01	5.5349	2.217369	0.000213	2.128715	0.360614	0.000021
 559	5.5521e+01	5.5488	2.234885	0.000176	1.760284	0.298200	0.000018
 560	5.5620e+01	5.5569	2.254845	0.000201	2.005905	0.339809	0.000020
 561	5.5720e+01	5.5678	2.276841	0.000221	2.210589	0.374484	0.000022
 562	5.5819e+01	5.5770	2.297208	0.000205	2.046842	0.346744	0.000020
 563	5.5919e+01	5.5894	2.313909	0.000168	1.678410	0.284330	0.000017
 564	5.6019e+01	5.5975	2.340387	0.000266	2.660894	0.450768	0.000027
 565	5.6118e+01	5.6071	2.360754	0.000205	2.046842	0.346744	0.000020
 566	5.6218e+01	5.6165	2.379899	0.000192	1.924031	0.325940	0.000019
 567	5.6317e+01	5.6287	2.405969	0.000262	2.619957	0.443833	0.000026
 568	5.6416e+01	5.6381	2.418189	0.000123	1.228105	0.208047	0.000012
 569	5.6516e+01	5.6501	2.438556	0.000205	2.046842	0.346744	0.000020
 570	5.6615e+01	5.6573	2.459738	0.000213	2.128715	0.360614	0.000021
 571	5.6715e+01	5.6683	2.484179	0.000246	2.456210	0.416093	0.000025
 572	5.6815e+01	5.6788	2.504138	0.000201	2.005905	0.339809	0.000020
 573	5.6914e+01	5.6869	2.521654	0.000176	1.760284	0.298200	0.000018
 574	5.7014e+01	5.6976	2.540799	0.000192	1.924031	0.325940	0.000019
 575	5.7113e+01	5.7057	2.561166	0.000205	2.046842	0.346744	0.000020
 576	5.7212e+01	5.7159	2.581126	0.000201	2.005905	0.339809	0.000020
 577	5.7312e+01	5.7244	2.601086	0.000201	2.005905	0.339809	0.000020
 578	5.7411e+01	5.7378	2.621046	0.000201	2.005905	0.339809	0.000020
 579	5.7511e+01	5.7473	2.643042	0.000221	2.210589	0.374484	0.000022
 580	5.7611e+01	5.7548	2.664224	0.000213	2.128715	0.360614	0.000021
 581	5.7710e+01	5.7676	2.683369	0.000192	1.924031	0.325940	0.000019
 582	5.7809e+01	5.7761	2.704958	0.000217	2.169652	0.367549	0.000022
 583	5.7909e+01	5.7830	2.725325	0.000205	2.046842	0.346744	0.000020
 584	5.8008e+01	5.7961	2.744470	0.000192	1.924031	0.325940	0.000019
 585	5.8108e+01	5.8057	2.761986	0.000176	1.760284	0.298200	0.000018
 586	5.8208e+01	5.8155	2.786427	0.000246	2.456210	0.416093	0.000025
 587	5.8307e+01	5.8285	2.811275	0.000250	2.497147	0.423028	0.000025
 588	5.8407e+01	5.8344	2.824310	0.000131	1.309979	0.221916	0.000013
 589	5.8506e+01	5.8463	2.841011	0.000168	1.678410	0.284330	0.000017
 590	5.8605e+01	5.8567	2.858119	0.000172	1.719347	0.291265	0.000017
 591	5.8705e+01	5.8665	2.876449	0.000184	1.842157	0.312070	0.000018
 592	5.8804e+01	5.8736	2.893558	0.000172	1.719347	0.291265	0.000017
 593	5.8904e+01	5.8877	2.909852	0.000164	1.637473	0.277395	0.000016
 594	5.9004e+01	5.8968	2.926553	0.000168	1.678410	0.284330	0.000017
 595	5.9103e+01	5.9071	2.945698	0.000192	1.924031	0.325940	0.000019
 596	5.9203e+01	5.9178	2.964028	0.000184	1.842157	0.312070	0.000018
 597	5.9302e+01	5.9255	2.981951	0.000180	1.801221	0.305135	0.000018
 598	5.9401e+01	5.9364	3.002318	0.000205	2.046842	0.346744	0.000020
 599	5.9501e+01	5.9451	3.018612	0.000164	1.637473	0.277395	0.000016
 600	5.9600e+01	5.9557	3.037757	0.000192	1.924031	0.325940	0.000019
 601	5.9700e+01	5.9664	3.054051	0.000164	1.637473	0.277395	0.000016
 602	5.9800e+01	5.9763	3.065864	0.000119	1.187168	0.201112	0.000012
 603	5.9899e+01	5.9864	3.085416	0.000196	1.964968	0.332875	0.000020
 604	5.9998e+01	5.9956	3.101303	0.000160	1.596536	0.270461	0.000016
 605	6.0098e+01	6.0092	3.124114	0.000229	2.292463	0.388354	0.000023
 606	6.0197e+01	6.0151	3.136741	0.000127	1.269042	0.214982	0.000013
 607	6.0297e+01	6.0255	3.155479	0.000188	1.883094	0.319005	0.000019
 608	6.0397e+01	6.0342	3.174624	0.000192	1.924031	0.325940	0.000019
 609	6.0496e+01	6.0458	3.194991	0.000205	2.046842	0.346744	0.000020
 610	6.0596e+01	6.0535	3.214136	0.000192	1.924031	0.325940	0.000019
 611	6.0695e+01	6.0645	3.232467	0.000184	1.842157	0.312070	0.000018
 612	6.0794e+01	6.0754	3.254463	0.000221	2.210589	0.374484	0.000022
 613	6.0894e+01	6.0871	3.273201	0.000188	1.883094	0.319005	0.000019
 614	6.0993e+01	6.0967	3.293976	0.000209	2.087778	0.353679	0.000021
 615	6.1093e+01	6.1060	3.314343	0.000205	2.046842	0.346744	0.000020
 616	6.1193e+01	6.1134	3.335524	0.000213	2.128715	0.360614	0.000021
 617	6.1292e+01	6.1247	3.355077	0.000196	1.964968	0.332875	0.000020
 618	6.1392e+01	6.1326	3.375444	0.000205	2.046842	0.346744	0.000020
 619	6.1491e+01	6.1448	3.401107	0.000258	2.579020	0.436898	0.000026
 620	6.1590e+01	6.1550	3.419844	0.000188	1.883094	0.319005	0.000019
 621	6.1690e+01	6.1655	3.438989	0.000192	1.924031	0.325940	0.000019
 622	6.1789e+01	6.1749	3.460579	0.000217	2.169652	0.367549	0.000022
 623	6.1889e+01	6.1839	3.481760	0.000213	2.128715	0.360614	0.000021
 624	6.1989e+01	6.1929	3.506201	0.000246	2.456210	0.416093	0.000025
 625	6.2088e+01	6.2046	3.522087	0.000160	1.596536	0.270461	0.000016
 626	6.2188e+01	6.2133	3.544899	0.000229	2.292463	0.388354	0.000023
 627	6.2287e+01	6.2260	3.566895	0.000221	2.210589	0.374484	0.000022
 628	6.2386e+01	6.2359	3.588892	0.000221	2.210589	0.374484	0.000022
 629	6.2486e+01	6.2453	3.610888	0.000221	2.210589	0.374484	0.000022
 630	6.2586e+01	6.2530	3.630440	0.000196	1.964968	0.332875	0.000020
 631	6.2685e+01	6.2627	3.652030	0.000217	2.169652	0.367549	0.000022
 632	6.2785e+01	6.2728	3.669138	0.000172	1.719347	0.291265	0.000017
 633	6.2884e+01	6.2858	3.696837	0.000278	2.783705	0.471572	0.000028
 634	6.2983e+01	6.2966	3.715168	0.000184	1.842157	0.312070	0.000018
 635	6.3083e+01	6.3032	3.736757	0.000217	2.169652	0.367549	0.000022
 636	6.3182e+01	6.3144	3.758753	0.000221	2.210589	0.374484	0.000022
 637	6.3282e+01	6.3268	3.779935	0.000213	2.128715	0.360614	0.000021
 638	6.3382e+01	6.3335	3.799488	0.000196	1.964968	0.332875	0.000020
 639	6.3481e+01	6.3470	3.821484	0.000221	2.210589	0.374484	0.000022
 640	6.3581e+01	6.3536	3.845110	0.000237	2.374336	0.402223	0.000024
 641	6.3680e+01	6.3628	3.867514	0.000225	2.251526	0.381419	0.000023
 642	6.3779e+01	6.3737	3.884622	0.000172	1.719347	0.291265	0.000017
 643	6.3879e+01	6.3850	3.909063	0.000246	2.456210	0.416093	0.000025
 644	6.3978e+01	6.3906	3.929023	0.000201	2.005905	0.339809	0.000020
 645	6.4078e+01	6.4029	3.955093	0.000262	2.619957	0.443833	0.000026
 646	6.4177e+01	6.4126	3.979126	0.000242	2.415273	0.409158	0.000024
 647	6.4277e+01	6.4234	4.001530	0.000225	2.251526	0.381419	0.000023
 648	6.4376e+01	6.4317	4.023119	0.000217	2.169652	0.367549	0.000022
 649	6.4476e+01	6.4422	4.047967	0.000250	2.497147	0.423028	0.000025
 650	6.4576e+01	6.4526	4.064668	0.000168	1.678410	0.284330	0.000017
 651	6.4675e+01	6.4645	4.086664	0.000221	2.210589	0.374484	0.000022
 652	6.4775e+01	6.4735	4.107439	0.000209	2.087778	0.353679	0.000021
 653	6.4874e+01	6.4812	4.130250	0.000229	2.292463	0.388354	0.000023
 654	6.4974e+01	6.4930	4.151839	0.000217	2.169652	0.367549	0.000022
 655	6.5073e+01	6.5005	4.172206	0.000205	2.046842	0.346744	0.000020
 656	6.5172e+01	6.5127	4.196647	0.000246	2.456210	0.416093	0.000025
 657	6.5272e+01	6.5239	4.219865	0.000233	2.333399	0.395289	0.000023
 658	6.5371e+01	6.5313	4.242269	0.000225	2.251526	0.381419	0.000023
 659	6.5471e+01	6.5415	4.262636	0.000205	2.046842	0.346744	0.000020
 660	6.5570e+01	6.5520	4.289521	0.000270	2.701831	0.457703	0.000027
 661	6.5670e+01	6.5621	4.308258	0.000188	1.883094	0.319005	0.000019
 662	6.5769e+01	6.5715	4.328626	0.000205	2.046842	0.346744	0.000020
 663	6.5869e+01	6.5826	4.350622	0.000221	2.210589	0.374484	0.000022
 664	6.5969e+01	6.5923	4.374655	0.000242	2.415273	0.409158	0.000024
 665	6.6068e+01	6.5997	4.396652	0.000221	2.210589	0.374484	0.000022
 666	6.6168e+01	6.6113	4.414982	0.000184	1.842157	0.312070	0.000018
 667	6.6267e+01	6.6230	4.435349	0.000205	2.046842	0.346744	0.000020
 668	6.6367e+01	6.6331	4.460197	0.000250	2.497147	0.423028	0.000025
 669	6.6466e+01	6.6407	4.484638	0.000246	2.456210	0.416093	0.000025
 670	6.6566e+01	6.6529	4.503783	0.000192	1.924031	0.325940	0.000019
 671	6.6665e+01	6.6610	4.527816	0.000242	2.415273	0.409158	0.000024
 672	6.6764e+01	6.6733	4.548591	0.000209	2.087778	0.353679	0.000021
 673	6.6864e+01	6.6816	4.574661	0.000262	2.619957	0.443833	0.000026
 674	6.6963e+01	6.6925	4.599101	0.000246	2.456210	0.416093	0.000025
 675	6.7063e+01	6.7010	4.625986	0.000270	2.701831	0.457703	0.000027
 676	6.7162e+01	6.7115	4.650019	0.000242	2.415273	0.409158	0.000024
 677	6.7262e+01	6.7222	4.671608	0.000217	2.169652	0.367549	0.000022
 678	6.7362e+01	6.7323	4.696456	0.000250	2.497147	0.423028	0.000025
 679	6.7461e+01	6.7448	4.722933	0.000266	2.660894	0.450768	0.000027
 680	6.7561e+01	6.7487	4.746152	0.000233	2.333399	0.395289	0.000023
 681	6.7660e+01	6.7609	4.768148	0.000221	2.210589	0.374484	0.000022
 682	6.7760e+01	6.7713	4.793403	0.000254	2.538084	0.429963	0.000025
 683	6.7859e+01	6.7782	4.818251	0.000250	2.497147	0.423028	0.000025
 684	6.7959e+01	6.7933	4.841877	0.000237	2.374336	0.402223	0.000024
 685	6.8058e+01	6.8019	4.865503	0.000237	2.374336	0.402223	0.000024
 686	6.8157e+01	6.8121	4.892795	0.000274	2.742768	0.464637	0.000027
 687	6.8257e+01	6.8217	4.921716	0.000291	2.906515	0.492377	0.000029
 688	6.8356e+01	6.8303	4.942898	0.000213	2.128715	0.360614	0.000021
 689	6.8456e+01	6.8404	4.973042	0.000303	3.029326	0.513182	0.000030
 690	6.8555e+01	6.8521	4.991779	0.000188	1.883094	0.319005	0.000019
 691	6.8655e+01	6.8627	5.017035	0.000254	2.538084	0.429963	0.000025
 692	6.8754e+01	6.8702	5.036587	0.000196	1.964968	0.332875	0.000020
 693	6.8854e+01	6.8816	5.062250	0.000258	2.579020	0.436898	0.000026
 694	6.8954e+01	6.8935	5.083839	0.000217	2.169652	0.367549	0.000022
 695	6.9053e+01	6.9028	5.105428	0.000217	2.169652	0.367549	0.000022
 696	6.9153e+01	6.9125	5.123351	0.000180	1.801221	0.305135	0.000018
 697	6.9252e+01	6.9183	5.145755	0.000225	2.251526	0.381419	0.000023
 698	6.9352e+01	6.9312	5.168159	0.000225	2.251526	0.381419	0.000023
 699	6.9451e+01	6.9411	5.188526	0.000205	2.046842	0.346744	0.000020
 700	6.9550e+01	6.9508	5.210522	0.000221	2.210589	0.374484	0.000022
 701	6.9650e+01	6.9573	5.228853	0.000184	1.842157	0.312070	0.000018
 702	6.9749e+01	6.9727	5.252479	0.000237	2.374336	0.402223	0.000024
 703	6.9849e+01	6.9801	5.274882	0.000225	2.251526	0.381419	0.000023
 704	6.9948e+01	6.9888	5.298101	0.000233	2.333399	0.395289	0.000023
 705	7.0048e+01	7.0020	5.317246	0.000192	1.924031	0.325940	0.000019
 706	7.0147e+01	7.0103	5.334354	0.000172	1.719347	0.291265	0.000017
 707	7.0247e+01	7.0219	5.357166	0.000229	2.292463	0.388354	0.000023
 708	7.0347e+01	7.0301	5.375903	0.000188	1.883094	0.319005	0.000019
 709	7.0446e+01	7.0396	5.394641	0.000188	1.883094	0.319005	0.000019
 710	7.0546e+01	7.0488	5.417045	0.000225	2.251526	0.381419	0.000023
 711	7.0645e+01	7.0595	5.438227	0.000213	2.128715	0.360614	0.000021
 712	7.0745e+01	7.0696	5.455742	0.000176	1.760284	0.298200	0.000018
 713	7.0844e+01	7.0776	5.478554	0.000229	2.292463	0.388354	0.000023
 714	7.0944e+01	7.0923	5.500143	0.000217	2.169652	0.367549	0.000022
 715	7.1043e+01	7.0967	5.518881	0.000188	1.883094	0.319005	0.000019
 716	7.1142e+01	7.1093	5.535989	0.000172	1.719347	0.291265	0.000017
 717	7.1242e+01	7.1188	5.556356	0.000205	2.046842	0.346744	0.000020
 718	7.1341e+01	7.1288	5.577945	0.000217	2.169652	0.367549	0.000022
 719	7.1441e+01	7.1391	5.599127	0.000213	2.128715	0.360614	0.000021
 720	7.1540e+01	7.1490	5.615013	0.000160	1.596536	0.270461	0.000016
 721	7.1640e+01	7.1600	5.639454	0.000246	2.456210	0.416093	0.000025
 722	7.1740e+01	7.1656	5.658192	0.000188	1.883094	0.319005	0.000019
 723	7.1839e+01	7.1777	5.677744	0.000196	1.964968	0.332875	0.000020
 724	7.1939e+01	7.1898	5.693631	0.000160	1.596536	0.270461	0.000016
 725	7.2038e+01	7.1990	5.716849	0.000233	2.333399	0.395289	0.000023
 726	7.2138e+01	7.2081	5.734772	0.000180	1.801221	0.305135	0.000018
 727	7.2237e+01	7.2219	5.755547	0.000209	2.087778	0.353679	0.000021
 728	7.2337e+01	7.2286	5.773062	0.000176	1.760284	0.298200	0.000018
 729	7.2436e+01	7.2368	5.793837	0.000209	2.087778	0.353679	0.000021
 730	7.2535e+01	7.2490	5.810945	0.000172	1.719347	0.291265	0.000017
 731	7.2635e+01	7.2607	5.827646	0.000168	1.678410	0.284330	0.000017
 732	7.2734e+01	7.2710	5.850457	0.000229	2.292463	0.388354	0.000023
 733	7.2834e+01	7.2780	5.866344	0.000160	1.596536	0.270461	0.000016
 734	7.2933e+01	7.2887	5.888340	0.000221	2.210589	0.374484	0.000022
 735	7.3033e+01	7.3013	5.905856	0.000176	1.760284	0.298200	0.000018
 736	7.3132e+01	7.3098	5.927038	0.000213	2.128715	0.360614	0.000021
 737	7.3232e+01	7.3202	5.944554	0.000176	1.760284	0.298200	0.000018
 738	7.3332e+01	7.3288	5.966957	0.000225	2.251526	0.381419	0.000023
 739	7.3431e+01	7.3394	5.984066	0.000172	1.719347	0.291265	0.000017
 740	7.3531e+01	7.3479	6.001581	0.000176	1.760284	0.298200	0.000018
 741	7.3630e+01	7.3562	6.021949	0.000205	2.046842	0.346744	0.000020
 742	7.3730e+01	7.3660	6.041501	0.000196	1.964968	0.332875	0.000020
 743	7.3829e+01	7.3804	6.057387	0.000160	1.596536	0.270461	0.000016
 744	7.3928e+01	7.3879	6.076533	0.000192	1.924031	0.325940	0.000019
 745	7.4028e+01	7.3976	6.094456	0.000180	1.801221	0.305135	0.000018
 746	7.4127e+01	7.4092	6.114823	0.000205	2.046842	0.346744	0.000020
 747	7.4227e+01	7.4194	6.136412	0.000217	2.169652	0.367549	0.000022
 748	7.4326e+01	7.4287	6.155150	0.000188	1.883094	0.319005	0.000019
 749	7.4426e+01	7.4382	6.171443	0.000164	1.637473	0.277395	0.000016
 750	7.4525e+01	7.4480	6.192625	0.000213	2.128715	0.360614	0.000021
 751	7.4625e+01	7.4569	6.212585	0.000201	2.005905	0.339809	0.000020
 752	7.4725e+01	7.4676	6.230915	0.000184	1.842157	0.312070	0.000018
 753	7.4824e+01	7.4766	6.249653	0.000188	1.883094	0.319005	0.000019
 754	7.4924e+01	7.4868	6.270428	0.000209	2.087778	0.353679	0.000021
 755	7.5023e+01	7.4977	6.285499	0.000151	1.514663	0.256591	0.000015
 756	7.5123e+01	7.5078	6.302608	0.000172	1.719347	0.291265	0.000017
 757	7.5222e+01	7.5179	6.321345	0.000188	1.883094	0.319005	0.000019
 758	7.5322e+01	7.5272	6.335602	0.000143	1.432789	0.242721	0.000014
 759	7.5421e+01	7.5380	6.350267	0.000147	1.473726	0.249656	0.000015
 760	7.5520e+01	7.5485	6.369004	0.000188	1.883094	0.319005	0.000019
 761	7.5620e+01	7.5578	6.385298	0.000164	1.637473	0.277395	0.000016
 762	7.5719e+01	7.5686	6.399962	0.000147	1.473726	0.249656	0.000015
 763	7.5819e+01	7.5807	6.419515	0.000196	1.964968	0.332875	0.000020
 764	7.5918e+01	7.5854	6.435401	0.000160	1.596536	0.270461	0.000016
 765	7.6018e+01	7.5990	6.447622	0.000123	1.228105	0.208047	0.000012
 766	7.6118e+01	7.6058	6.466767	0.000192	1.924031	0.325940	0.000019
 767	7.6217e+01	7.6162	6.484282	0.000176	1.760284	0.298200	0.000018
 768	7.6317e+01	7.6263	6.499761	0.000156	1.555600	0.263526	0.000016
 769	7.6416e+01	7.6349	6.514833	0.000151	1.514663	0.256591	0.000015
 770	7.6516e+01	7.6470	6.529090	0.000143	1.432789	0.242721	0.000014
 771	7.6615e+01	7.6563	6.544976	0.000160	1.596536	0.270461	0.000016
 772	7.6715e+01	7.6620	6.563307	0.000184	1.842157	0.312070	0.000018
 773	7.6814e+01	7.6758	6.580823	0.000176	1.760284	0.298200	0.000018
 774	7.6913e+01	7.6875	6.594672	0.000139	1.391852	0.235786	0.000014
 775	7.7013e+01	7.6949	6.610966	0.000164	1.637473	0.277395	0.000016
 776	7.7112e+01	7.7059	6.627260	0.000164	1.637473	0.277395	0.000016
 777	7.7212e+01	7.7164	6.648441	0.000213	2.128715	0.360614	0.000021
 778	7.7311e+01	7.7258	6.667587	0.000192	1.924031	0.325940	0.000019
 779	7.7411e+01	7.7374	6.687954	0.000205	2.046842	0.346744	0.000020
 780	7.7510e+01	7.7463	6.704247	0.000164	1.637473	0.277395	0.000016
 781	7.7610e+01	7.7567	6.725429	0.000213	2.128715	0.360614	0.000021
 782	7.7710e+01	7.7673	6.746204	0.000209	2.087778	0.353679	0.000021
 783	7.7809e+01	7.7745	6.761275	0.000151	1.514663	0.256591	0.000015
 784	7.7909e+01	7.7854	6.782457	0.000213	2.128715	0.360614	0.000021
 785	7.8008e+01	7.7957	6.801602	0.000192	1.924031	0.325940	0.000019
 786	7.8108e+01	7.8064	6.826043	0.000246	2.456210	0.416093	0.000025
 787	7.8207e+01	7.8149	6.843966	0.000180	1.801221	0.305135	0.000018
 788	7.8306e+01	7.8260	6.861074	0.000172	1.719347	0.291265	0.000017
 789	7.8406e+01	7.8369	6.880219	0.000192	1.924031	0.325940	0.000019
 790	7.8505e+01	7.8453	6.900179	0.000201	2.005905	0.339809	0.000020
 791	7.8605e+01	7.8571	6.919324	0.000192	1.924031	0.325940	0.000019
 792	7.8704e+01	7.8665	6.939691	0.000205	2.046842	0.346744	0.000020
 793	7.8804e+01	7.8749	6.960466	0.000209	2.087778	0.353679	0.000021
 794	7.8903e+01	7.8840	6.981240	0.000209	2.087778	0.353679	0.000021
 795	7.9003e+01	7.8955	6.997534	0.000164	1.637473	0.277395	0.000016
 796	7.9103e+01	7.9057	7.018716	0.000213	2.128715	0.360614	0.000021
 797	7.9202e+01	7.9155	7.041120	0.000225	2.251526	0.381419	0.000023
 798	7.9302e+01	7.9249	7.060265	0.000192	1.924031	0.325940	0.000019
 799	7.9401e+01	7.9366	7.080632	0.000205	2.046842	0.346744	0.000020
 800	7.9501e+01	7.9446	7.100999	0.000205	2.046842	0.346744	0.000020
 801	7.9600e+01	7.9556	7.119329	0.000184	1.842157	0.312070	0.000018
 802	7.9700e+01	7.9647	7.142548	0.000233	2.333399	0.395289	0.000023
 803	7.9799e+01	7.9747	7.162508	0.000201	2.005905	0.339809	0.000020
 804	7.9898e+01	7.9810	7.182060	0.000196	1.964968	0.332875	0.000020
 805	7.9998e+01	7.9941	7.201613	0.000196	1.964968	0.332875	0.000020
 806	8.0097e+01	8.0048	7.223202	0.000217	2.169652	0.367549	0.000022
 807	8.0197e+01	8.0161	7.239903	0.000168	1.678410	0.284330	0.000017
 808	8.0296e+01	8.0262	7.265565	0.000258	2.579020	0.436898	0.000026
 809	8.0396e+01	8.0360	7.289599	0.000242	2.415273	0.409158	0.000024
 810	8.0496e+01	8.0478	7.307929	0.000184	1.842157	0.312070	0.000018
 811	8.0595e+01	8.0537	7.327074	0.000192	1.924031	0.325940	0.000019
 812	8.0695e+01	8.0669	7.350293	0.000233	2.333399	0.395289	0.000023
 813	8.0794e+01	8.0735	7.371474	0.000213	2.128715	0.360614	0.000021
 814	8.0894e+01	8.0820	7.391434	0.000201	2.005905	0.339809	0.000020
 815	8.0993e+01	8.0943	7.409357	0.000180	1.801221	0.305135	0.000018
 816	8.1093e+01	8.1046	7.432983	0.000237	2.374336	0.402223	0.000024
 817	8.1192e+01	8.1125	7.457831	0.000250	2.497147	0.423028	0.000025
 818	8.1291e+01	8.1241	7.479013	0.000213	2.128715	0.360614	0.000021
 819	8.1391e+01	8.1339	7.499787	0.000209	2.087778	0.353679	0.000021
 820	8.1490e+01	8.1425	7.518118	0.000184	1.842157	0.312070	0.000018
 821	8.1590e+01	8.1543	7.537263	0.000192	1.924031	0.325940	0.000019
 822	8.1689e+01	8.1634	7.559259	0.000221	2.210589	0.374484	0.000022
 823	8.1789e+01	8.1766	7.579627	0.000205	2.046842	0.346744	0.000020
 824	8.1888e+01	8.1838	7.600808	0.000213	2.128715	0.360614	0.000021
 825	8.1988e+01	8.1949	7.621175	0.000205	2.046842	0.346744	0.000020
 826	8.2088e+01	8.2059	7.641950	0.000209	2.087778	0.353679	0.000021
 827	8.2187e+01	8.2137	7.665576	0.000237	2.374336	0.402223	0.000024
 828	8.2287e+01	8.2236	7.686758	0.000213	2.128715	0.360614	0.000021
 829	8.2386e+01	8.2343	7.707532	0.000209	2.087778	0.353679	0.000021
 830	8.2486e+01	8.2453	7.730343	0.000229	2.292463	0.388354	0.000023
 831	8.2585e+01	8.2523	7.745008	0.000147	1.473726	0.249656	0.000015
 832	8.2684e+01	8.2617	7.769448	0.000246	2.456210	0.416093	0.000025
 833	8.2784e+01	8.2715	7.789408	0.000201	2.005905	0.339809	0.000020
 834	8.2883e+01	8.2807	7.812626	0.000233	2.333399	0.395289	0.000023
 835	8.2983e+01	8.2925	7.829735	0.000172	1.719347	0.291265	0.000017
 836	8.3082e+01	8.3041	7.851324	0.000217	2.169652	0.367549	0.000022
 837	8.3182e+01	8.3135	7.872098	0.000209	2.087778	0.353679	0.000021
 838	8.3281e+01	8.3252	7.894502	0.000225	2.251526	0.381419	0.000023
 839	8.3381e+01	8.3337	7.916499	0.000221	2.210589	0.374484	0.000022
 840	8.3481e+01	8.3437	7.940125	0.000237	2.374336	0.402223	0.000024
 841	8.3580e+01	8.3553	7.961714	0.000217	2.169652	0.367549	0.000022
 842	8.3680e+01	8.3643	7.986154	0.000246	2.456210	0.416093	0.000025
 843	8.3779e+01	8.3743	8.011002	0.000250	2.497147	0.423028	0.000025
 844	8.3879e+01	8.3832	8.034221	0.000233	2.333399	0.395289	0.000023
 845	8.3978e+01	8.3936	8.058661	0.000246	2.456210	0.416093	0.000025
 846	8.4078e+01	8.4033	8.082287	0.000237	2.374336	0.402223	0.000024
 847	8.4177e+01	8.4119	8.107542	0.000254	2.538084	0.429963	0.000025
 848	8.4276e+01	8.4221	8.127095	0.000196	1.964968	0.332875	0.000020
 849	8.4376e+01	8.4320	8.151943	0.000250	2.497147	0.423028	0.000025
 850	8.4475e+01	8.4430	8.171495	0.000196	1.964968	0.332875	0.000020
 851	8.4575e+01	8.4515	8.193899	0.000225	2.251526	0.381419	0.000023
 852	8.4674e+01	8.4624	8.218747	0.000250	2.497147	0.423028	0.000025
 853	8.4774e+01	8.4722	8.242780	0.000242	2.415273	0.409158	0.000024
 854	8.4874e+01	8.4821	8.266813	0.000242	2.415273	0.409158	0.000024
 855	8.4973e+01	8.4927	8.296957	0.000303	3.029326	0.513182	0.000030
 856	8.5073e+01	8.5029	8.317731	0.000209	2.087778	0.353679	0.000021
 857	8.5172e+01	8.5113	8.341357	0.000237	2.374336	0.402223	0.000024
 858	8.5272e+01	8.5214	8.362946	0.000217	2.169652	0.367549	0.000022
 859	8.5371e+01	8.5310	8.387387	0.000246	2.456210	0.416093	0.000025
 860	8.5471e+01	8.5400	8.408161	0.000209	2.087778	0.353679	0.000021
 861	8.5570e+01	8.5553	8.429750	0.000217	2.169652	0.367549	0.000022
 862	8.5669e+01	8.5650	8.448896	0.000192	1.924031	0.325940	0.000019
 863	8.5769e+01	8.5712	8.467226	0.000184	1.842157	0.312070	0.000018
 864	8.5868e+01	8.5815	8.492074	0.000250	2.497147	0.423028	0.000025
 865	8.5968e+01	8.5905	8.512441	0.000205	2.046842	0.346744	0.000020
 866	8.6067e+01	8.6002	8.533623	0.000213	2.128715	0.360614	0.000021
 867	8.6167e+01	8.6097	8.553583	0.000201	2.005905	0.339809	0.000020
 868	8.6266e+01	8.6195	8.572320	0.000188	1.883094	0.319005	0.000019
 869	8.6366e+01	8.6298	8.591873	0.000196	1.964968	0.332875	0.000020
 870	8.6466e+01	8.6417	8.614277	0.000225	2.251526	0.381419	0.000023
 871	8.6565e+01	8.6500	8.631792	0.000176	1.760284	0.298200	0.000018
 872	8.6665e+01	8.6588	8.650123	0.000184	1.842157	0.312070	0.000018
 873	8.6764e+01	8.6743	8.671305	0.000213	2.128715	0.360614	0.000021
 874	8.6864e+01	8.6804	8.692894	0.000217	2.169652	0.367549	0.000022
 875	8.6963e+01	8.6898	8.711224	0.000184	1.842157	0.312070	0.000018
 876	8.7063e+01	8.7016	8.727110	0.000160	1.596536	0.270461	0.000016
 877	8.7162e+01	8.7093	8.747070	0.000201	2.005905	0.339809	0.000020
 878	8.7261e+01	8.7256	8.769474	0.000225	2.251526	0.381419	0.000023
 879	8.7361e+01	8.7354	8.789027	0.000196	1.964968	0.332875	0.000020
 880	8.7460e+01	8.7397	8.806135	0.000172	1.719347	0.291265	0.000017
 881	8.7560e+01	8.7509	8.825280	0.000192	1.924031	0.325940	0.000019
 882	8.7659e+01	8.7587	8.844832	0.000196	1.964968	0.332875	0.000020
 883	8.7759e+01	8.7706	8.865607	0.000209	2.087778	0.353679	0.000021
 884	8.7859e+01	8.7802	8.883937	0.000184	1.842157	0.312070	0.000018
 885	8.7958e+01	8.7915	8.899416	0.000156	1.555600	0.263526	0.000016
 886	8.8058e+01	8.8024	8.923450	0.000242	2.415273	0.409158	0.000024
 887	8.8157e+01	8.8117	8.943409	0.000201	2.005905	0.339809	0.000020
 888	8.8257e+01	8.8216	8.962962	0.000196	1.964968	0.332875	0.000020
 889	8.8356e+01	8.8287	8.977626	0.000147	1.473726	0.249656	0.000015
 890	8.8456e+01	8.8393	8.999623	0.000221	2.210589	0.374484	0.000022
 891	8.8555e+01	8.8511	9.017138	0.000176	1.760284	0.298200	0.000018
 892	8.8654e+01	8.8593	9.039542	0.000225	2.251526	0.381419	0.000023
 893	8.8754e+01	8.8688	9.054207	0.000147	1.473726	0.249656	0.000015
 894	8.8853e+01	8.8818	9.071722	0.000176	1.760284	0.298200	0.000018
 895	8.8953e+01	8.8899	9.091275	0.000196	1.964968	0.332875	0.000020
 896	8.9052e+01	8.9014	9.108383	0.000172	1.719347	0.291265	0.000017
 897	8.9152e+01	8.9087	9.127936	0.000196	1.964968	0.332875	0.000020
 898	8.9251e+01	8.9196	9.145044	0.000172	1.719347	0.291265	0.000017
 899	8.9351e+01	8.9272	9.161338	0.000164	1.637473	0.277395	0.000016
 900	8.9451e+01	8.9388	9.180890	0.000196	1.964968	0.332875	0.000020
 901	8.9550e+01	8.9478	9.197591	0.000168	1.678410	0.284330	0.000017
 902	8.9650e+01	8.9590	9.217958	0.000205	2.046842	0.346744	0.000020
 903	8.9749e+01	8.9713	9.237103	0.000192	1.924031	0.325940	0.000019
 904	8.9849e+01	8.9799	9.253397	0.000164	1.637473	0.277395	0.000016
 905	8.9948e+01	8.9905	9.276616	0.000233	2.333399	0.395289	0.000023
 906	9.0047e+01	8.9990	9.293724	0.000172	1.719347	0.291265	0.000017
 907	9.0147e+01	9.0083	9.312462	0.000188	1.883094	0.319005	0.000019
 908	9.0246e+01	9.0179	9.331199	0.000188	1.883094	0.319005	0.000019
 909	9.0346e+01	9.0283	9.349123	0.000180	1.801221	0.305135	0.000018
 910	9.0445e+01	9.0383	9.368675	0.000196	1.964968	0.332875	0.000020
 911	9.0545e+01	9.0485	9.382117	0.000135	1.350915	0.228851	0.000014
 912	9.0644e+01	9.0586	9.401670	0.000196	1.964968	0.332875	0.000020
 913	9.0744e+01	9.0686	9.421630	0.000201	2.005905	0.339809	0.000020
 914	9.0844e+01	9.0798	9.437516	0.000160	1.596536	0.270461	0.000016
 915	9.0943e+01	9.0907	9.456661	0.000192	1.924031	0.325940	0.000019
 916	9.1043e+01	9.0984	9.475399	0.000188	1.883094	0.319005	0.000019
 917	9.1142e+01	9.1089	9.494137	0.000188	1.883094	0.319005	0.000019
 918	9.1242e+01	9.1223	9.515726	0.000217	2.169652	0.367549	0.000022
 919	9.1341e+01	9.1297	9.532427	0.000168	1.678410	0.284330	0.000017
 920	9.1441e+01	9.1368	9.550350	0.000180	1.801221	0.305135	0.000018
 921	9.1540e+01	9.1505	9.569088	0.000188	1.883094	0.319005	0.000019
 922	9.1639e+01	9.1582	9.585381	0.000164	1.637473	0.277395	0.000016
 923	9.1739e+01	9.1679	9.604119	0.000188	1.883094	0.319005	0.000019
 924	9.1838e+01	9.1779	9.622042	0.000180	1.801221	0.305135	0.000018
 925	9.1938e+01	9.1862	9.635892	0.000139	1.391852	0.235786	0.000014
 926	9.2037e+01	9.1988	9.652593	0.000168	1.678410	0.284330	0.000017
 927	9.2137e+01	9.2084	9.666035	0.000135	1.350915	0.228851	0.000014
 928	9.2237e+01	9.2153	9.682329	0.000164	1.637473	0.277395	0.000016
 929	9.2336e+01	9.2270	9.696586	0.000143	1.432789	0.242721	0.000014
 930	9.2436e+01	9.2399	9.712879	0.000164	1.637473	0.277395	0.000016
 931	9.2535e+01	9.2505	9.728766	0.000160	1.596536	0.270461	0.000016
 932	9.2635e+01	9.2603	9.746282	0.000176	1.760284	0.298200	0.000018
 933	9.2734e+01	9.2695	9.761353	0.000151	1.514663	0.256591	0.000015
 934	9.2834e+01	9.2758	9.780906	0.000196	1.964968	0.332875	0.000020
 935	9.2933e+01	9.2884	9.795570	0.000147	1.473726	0.249656	0.000015
 936	9.3032e+01	9.2973	9.810234	0.000147	1.473726	0.249656	0.000015
 937	9.3132e+01	9.3060	9.826121	0.000160	1.596536	0.270461	0.000016
 938	9.3231e+01	9.3192	9.839563	0.000135	1.350915	0.228851	0.000014
 939	9.3331e+01	9.3259	9.854635	0.000151	1.514663	0.256591	0.000015
 940	9.3430e+01	9.3384	9.869706	0.000151	1.514663	0.256591	0.000015
 941	9.3530e+01	9.3496	9.888851	0.000192	1.924031	0.325940	0.000019
 942	9.3629e+01	9.3575	9.902701	0.000139	1.391852	0.235786	0.000014
 943	9.3729e+01	9.3671	9.920217	0.000176	1.760284	0.298200	0.000018
 944	9.3829e+01	9.3763	9.937733	0.000176	1.760284	0.298200	0.000018
 945	9.3928e+01	9.3879	9.953212	0.000156	1.555600	0.263526	0.000016
 946	9.4028e+01	9.3961	9.974393	0.000213	2.128715	0.360614	0.000021
 947	9.4127e+01	9.4093	9.993131	0.000188	1.883094	0.319005	0.000019
 948	9.4227e+01	9.4181	10.010240	0.000172	1.719347	0.291265	0.000017
 949	9.4326e+01	9.4263	10.030607	0.000205	2.046842	0.346744	0.000020
 950	9.4425e+01	9.4353	10.051381	0.000209	2.087778	0.353679	0.000021
 951	9.4525e+01	9.4489	10.069304	0.000180	1.801221	0.305135	0.000018
 952	9.4624e+01	9.4574	10.090079	0.000209	2.087778	0.353679	0.000021
 953	9.4724e+01	9.4667	10.106780	0.000168	1.678410	0.284330	0.000017
 954	9.4823e+01	9.4757	10.126332	0.000196	1.964968	0.332875	0.000020
 955	9.4923e+01	9.4862	10.146292	0.000201	2.005905	0.339809	0.000020
 956	9.5022e+01	9.4943	10.167066	0.000209	2.087778	0.353679	0.000021
 957	9.5122e+01	9.5072	10.185804	0.000188	1.883094	0.319005	0.000019
 958	9.5222e+01	9.5166	10.201283	0.000156	1.555600	0.263526	0.000016
 959	9.5321e+01	9.5264	10.224909	0.000237	2.374336	0.402223	0.000024
 960	9.5421e+01	9.5371	10.243647	0.000188	1.883094	0.319005	0.000019
 961	9.5520e+01	9.5448	10.261570	0.000180	1.801221	0.305135	0.000018
 962	9.5620e+01	9.5579	10.285196	0.000237	2.374336	0.402223	0.000024
 963	9.5719e+01	9.5685	10.302304	0.000172	1.719347	0.291265	0.000017
 964	9.5819e+01	9.5744	10.322671	0.000205	2.046842	0.346744	0.000020
 965	9.5918e+01	9.5874	10.339372	0.000168	1.678410	0.284330	0.000017
 966	9.6017e+01	9.5963	10.364628	0.000254	2.538084	0.429963	0.000025
 967	9.6117e+01	9.6057	10.383773	0.000192	1.924031	0.325940	0.000019
 968	9.6216e+01	9.6191	10.400881	0.000172	1.719347	0.291265	0.000017
 969	9.6316e+01	9.6259	10.424507	0.000237	2.374336	0.402223	0.000024
 970	9.6415e+01	9.6363	10.442023	0.000176	1.760284	0.298200	0.000018
 971	9.6515e+01	9.6490	10.465649	0.000237	2.374336	0.402223	0.000024
 972	9.6615e+01	9.6544	10.486830	0.000213	2.128715	0.360614	0.000021
 973	9.6714e+01	9.6696	10.503124	0.000164	1.637473	0.277395	0.000016
 974	9.6814e+01	9.6747	10.527157	0.000242	2.415273	0.409158	0.000024
 975	9.6913e+01	9.6877	10.544266	0.000172	1.719347	0.291265	0.000017
 976	9.7013e+01	9.6973	10.567484	0.000233	2.333399	0.395289	0.000023
 977	9.7112e+01	9.7070	10.588666	0.000213	2.128715	0.360614	0.000021
 978	9.7212e+01	9.7144	10.609440	0.000209	2.087778	0.353679	0.000021
 979	9.7311e+01	9.7254	10.630215	0.000209	2.087778	0.353679	0.000021
 980	9.7410e+01	9.7367	10.653433	0.000233	2.333399	0.395289	0.000023
 981	9.7510e+01	9.7461	10.672171	0.000188	1.883094	0.319005	0.000019
 982	9.7609e+01	9.7559	10.697426	0.000254	2.538084	0.429963	0.000025
 983	9.7709e+01	9.7663	10.712905	0.000156	1.555600	0.263526	0.000016
 984	9.7808e+01	9.7749	10.735717	0.000229	2.292463	0.388354	0.000023
 985	9.7908e+01	9.7852	10.756898	0.000213	2.128715	0.360614	0.000021
 986	9.8007e+01	9.7920	10.778488	0.000217	2.169652	0.367549	0.000022
 987	9.8107e+01	9.8051	10.800077	0.000217	2.169652	0.367549	0.000022
 988	9.8207e+01	9.8138	10.821259	0.000213	2.128715	0.360614	0.000021
 989	9.8306e+01	9.8223	10.842848	0.000217	2.169652	0.367549	0.000022
 990	9.8406e+01	9.8322	10.861178	0.000184	1.842157	0.312070	0.000018
 991	9.8505e+01	9.8441	10.882360	0.000213	2.128715	0.360614	0.000021
 992	9.8605e+01	9.8535	10.905171	0.000229	2.292463	0.388354	0.000023
 993	9.8704e+01	9.8669	10.926353	0.000213	2.128715	0.360614	0.000021
 994	9.8803e+01	9.8755	10.949979	0.000237	2.374336	0.402223	0.000024
 995	9.8903e+01	9.8868	10.971568	0.000217	2.169652	0.367549	0.000022
 996	9.9002e+01	9.8950	10.992750	0.000213	2.128715	0.360614	0.000021
 997	9.9102e+01	9.9048	11.014339	0.000217	2.169652	0.367549	0.000022
 998	9.9201e+01	9.9170	11.029818	0.000156	1.555600	0.263526	0.000016
 999	9.9301e+01	9.9255	11.051814	0.000221	2.210589	0.374484	0.000022
1000	9.9400e+01	9.9358	11.073811	0.000221	2.210589	0.374484	0.000022
1001	9.9500e+01	9.9438	11.092141	0.000184	1.842157	0.312070	0.000018
1002	9.9600e+01	9.9525	11.119026	0.000270	2.701831	0.457703	0.000027
1003	9.9699e+01	9.9638	11.135320	0.000164	1.637473	0.277395	0.000016
1004	9.9799e+01	9.9734	11.154872	0.000196	1.964968	0.332875	0.000020
1005	9.9898e+01	9.9869	11.181349	0.000266	2.660894	0.450768	0.000027
1006	9.9998e+01	9.9958	11.203346	0.000221	2.210589	0.374484	0.000022
1007	1.0010e+02	9.9855	11.193977	0.000094	0.941547	0.159502	-0.000009
1008	1.0020e+02	9.9728	11.180535	0.000135	1.350915	0.228851	-0.000014
1009	1.0030e+02	9.9661	11.169129	0.000115	1.146231	0.194177	-0.000011
1010	1.0040e+02	9.9554	11.163019	0.000061	0.614052	0.104023	-0.000006
1011	1.0050e+02	9.9447	11.152428	0.000106	1.064358	0.180307	-0.000011
1012	1.0059e+02	9.9341	11.145096	0.000074	0.736863	0.124828	-0.000007
1013	1.0069e+02	9.9220	11.133690	0.000115	1.146231	0.194177	-0.000011
1014	1.0079e+02	9.9115	11.123099	0.000106	1.064358	0.180307	-0.000011
1015	1.0089e+02	9.9035	11.110472	0.000127	1.269042	0.214982	-0.000013
1016	1.0099e+02	9.8979	11.098659	0.000119	1.187168	0.201112	-0.000012
1017	1.0109e+02	9.8822	11.088475	0.000102	1.023421	0.173372	-0.000010
1018	1.0119e+02	9.8761	11.080736	0.000078	0.777800	0.131763	-0.000008
1019	1.0129e+02	9.8657	11.066886	0.000139	1.391852	0.235786	-0.000014
1020	1.0139e+02	9.8544	11.056295	0.000106	1.064358	0.180307	-0.000011
1021	1.0149e+02	9.8464	11.048556	0.000078	0.777800	0.131763	-0.000008
1022	1.0159e+02	9.8350	11.036743	0.000119	1.187168	0.201112	-0.000012
1023	1.0169e+02	9.8234	11.028596	0.000082	0.818737	0.138698	-0.000008
1024	1.0179e+02	9.8145	11.016376	0.000123	1.228105	0.208047	-0.000012
1025	1.0189e+02	9.8031	11.005785	0.000106	1.064358	0.180307	-0.000011
1026	1.0199e+02	9.7949	10.994786	0.000111	1.105294	0.187242	-0.000011
1027	1.0209e+02	9.7878	10.984603	0.000102	1.023421	0.173372	-0.000010
1028	1.0219e+02	9.7754	10.968717	0.000160	1.596536	0.270461	-0.000016
1029	1.0229e+02	9.7644	10.954052	0.000147	1.473726	0.249656	-0.000015
1030	1.0239e+02	9.7559	10.945498	0.000086	0.859673	0.145633	-0.000009
1031	1.0248e+02	9.7467	10.927168	0.000184	1.842157	0.312070	-0.000018
1032	1.0258e+02	9.7367	10.916169	0.000111	1.105294	0.187242	-0.000011
1033	1.0268e+02	9.7242	10.904764	0.000115	1.146231	0.194177	-0.000011
1034	1.0278e+02	9.7156	10.887248	0.000176	1.760284	0.298200	-0.000018
1035	1.0288e+02	9.7073	10.870547	0.000168	1.678410	0.284330	-0.000017
1036	1.0298e+02	9.6973	10.858734	0.000119	1.187168	0.201112	-0.000012
1037	1.0308e+02	9.6878	10.844477	0.000143	1.432789	0.242721	-0.000014
1038	1.0318e+02	9.6766	10.828591	0.000160	1.596536	0.270461	-0.000016
1039	1.0328e+02	9.6650	10.811890	0.000168	1.678410	0.284330	-0.000017
1040	1.0338e+02	9.6537	10.796818	0.000151	1.514663	0.256591	-0.000015
1041	1.0348e+02	9.6506	10.785412	0.000115	1.146231	0.194177	-0.000011
1042	1.0358e+02	9.6368	10.765045	0.000205	2.046842	0.346744	-0.000020
1043	1.0368e+02	9.6252	10.751196	0.000139	1.391852	0.235786	-0.000014
1044	1.0378e+02	9.6167	10.736531	0.000147	1.473726	0.249656	-0.000015
1045	1.0388e+02	9.6091	10.718201	0.000184	1.842157	0.312070	-0.000018
1046	1.0398e+02	9.5956	10.705573	0.000127	1.269042	0.214982	-0.000013
1047	1.0408e+02	9.5859	10.689687	0.000160	1.596536	0.270461	-0.000016
1048	1.0418e+02	9.5776	10.670949	0.000188	1.883094	0.319005	-0.000019
1049	1.0428e+02	9.5662	10.655470	0.000156	1.555600	0.263526	-0.000016
1050	1.0438e+02	9.5557	10.639991	0.000156	1.555600	0.263526	-0.000016
1051	1.0447e+02	9.5459	10.623697	0.000164	1.637473	0.277395	-0.000016
1052	1.0457e+02	9.5373	10.608626	0.000151	1.514663	0.256591	-0.000015
1053	1.0467e+02	9.5270	10.593147	0.000156	1.555600	0.263526	-0.000016
1054	1.0477e+02	9.5144	10.576853	0.000164	1.637473	0.277395	-0.000016
1055	1.0487e+02	9.5068	10.560152	0.000168	1.678410	0.284330	-0.000017
1056	1.0497e+02	9.4961	10.545895	0.000143	1.432789	0.242721	-0.000014
1057	1.0507e+02	9.4846	10.529601	0.000164	1.637473	0.277395	-0.000016
1058	1.0517e+02	9.4775	10.513715	0.000160	1.596536	0.270461	-0.000016
1059	1.0527e+02	9.4656	10.495792	0.000180	1.801221	0.305135	-0.000018
1060	1.0537e+02	9.4566	10.481128	0.000147	1.473726	0.249656	-0.000015
1061	1.0547e+02	9.4459	10.463612	0.000176	1.760284	0.298200	-0.000018
1062	1.0557e+02	9.4406	10.448133	0.000156	1.555600	0.263526	-0.000016
1063	1.0567e+02	9.4287	10.424507	0.000237	2.374336	0.402223	-0.000024
1064	1.0577e+02	9.4168	10.410250	0.000143	1.432789	0.242721	-0.000014
1065	1.0587e+02	9.4056	10.390290	0.000201	2.005905	0.339809	-0.000020
1066	1.0597e+02	9.3947	10.370738	0.000196	1.964968	0.332875	-0.000020
1067	1.0607e+02	9.3879	10.354851	0.000160	1.596536	0.270461	-0.000016
1068	1.0617e+02	9.3763	10.339372	0.000156	1.555600	0.263526	-0.000016
1069	1.0627e+02	9.3652	10.321857	0.000176	1.760284	0.298200	-0.000018
1070	1.0637e+02	9.3568	10.301897	0.000201	2.005905	0.339809	-0.000020
1071	1.0647e+02	9.3500	10.288047	0.000139	1.391852	0.235786	-0.000014
1072	1.0656e+02	9.3389	10.271753	0.000164	1.637473	0.277395	-0.000016
1073	1.0666e+02	9.3267	10.254645	0.000172	1.719347	0.291265	-0.000017
1074	1.0676e+02	9.3185	10.238759	0.000160	1.596536	0.270461	-0.000016
1075	1.0686e+02	9.3084	10.221650	0.000172	1.719347	0.291265	-0.000017
1076	1.0696e+02	9.2963	10.199654	0.000221	2.210589	0.374484	-0.000022
1077	1.0706e+02	9.2892	10.182138	0.000176	1.760284	0.298200	-0.000018
1078	1.0716e+02	9.2782	10.161771	0.000205	2.046842	0.346744	-0.000020
1079	1.0726e+02	9.2677	10.146699	0.000151	1.514663	0.256591	-0.000015
1080	1.0736e+02	9.2578	10.127962	0.000188	1.883094	0.319005	-0.000019
1081	1.0746e+02	9.2463	10.110446	0.000176	1.760284	0.298200	-0.000018
1082	1.0756e+02	9.2389	10.091708	0.000188	1.883094	0.319005	-0.000019
1083	1.0766e+02	9.2285	10.077858	0.000139	1.391852	0.235786	-0.000014
1084	1.0776e+02	9.2200	10.059528	0.000184	1.842157	0.312070	-0.000018
1085	1.0786e+02	9.2080	10.041198	0.000184	1.842157	0.312070	-0.000018
1086	1.0796e+02	9.2010	10.021645	0.000196	1.964968	0.332875	-0.000020
1087	1.0806e+02	9.1884	10.011054	0.000106	1.064358	0.180307	-0.000011
1088	1.0816e+02	9.1752	9.993946	0.000172	1.719347	0.291265	-0.000017
1089	1.0826e+02	9.1699	9.972764	0.000213	2.128715	0.360614	-0.000021
1090	1.0836e+02	9.1603	9.956063	0.000168	1.678410	0.284330	-0.000017
1091	1.0845e+02	9.1488	9.932844	0.000233	2.333399	0.395289	-0.000023
1092	1.0855e+02	9.1361	9.917365	0.000156	1.555600	0.263526	-0.000016
1093	1.0865e+02	9.1297	9.895776	0.000217	2.169652	0.367549	-0.000022
1094	1.0875e+02	9.1179	9.875409	0.000205	2.046842	0.346744	-0.000020
1095	1.0885e+02	9.1089	9.853005	0.000225	2.251526	0.381419	-0.000023
1096	1.0895e+02	9.0993	9.830601	0.000225	2.251526	0.381419	-0.000023
1097	1.0905e+02	9.0874	9.811049	0.000196	1.964968	0.332875	-0.000020
1098	1.0915e+02	9.0781	9.794348	0.000168	1.678410	0.284330	-0.000017
1099	1.0925e+02	9.0686	9.771944	0.000225	2.251526	0.381419	-0.000023
1100	1.0935e+02	9.0582	9.751984	0.000201	2.005905	0.339809	-0.000020
1101	1.0945e+02	9.0506	9.734061	0.000180	1.801221	0.305135	-0.000018
1102	1.0955e+02	9.0397	9.711250	0.000229	2.292463	0.388354	-0.000023
1103	1.0965e+02	9.0322	9.690476	0.000209	2.087778	0.353679	-0.000021
1104	1.0975e+02	9.0179	9.671738	0.000188	1.883094	0.319005	-0.000019
1105	1.0985e+02	9.0105	9.648519	0.000233	2.333399	0.395289	-0.000023
1106	1.0995e+02	8.9968	9.624486	0.000242	2.415273	0.409158	-0.000024
1107	1.1005e+02	8.9893	9.604119	0.000205	2.046842	0.346744	-0.000020
1108	1.1015e+02	8.9801	9.582530	0.000217	2.169652	0.367549	-0.000022
1109	1.1025e+02	8.9701	9.564607	0.000180	1.801221	0.305135	-0.000018
1110	1.1035e+02	8.9607	9.543832	0.000209	2.087778	0.353679	-0.000021
1111	1.1044e+02	8.9462	9.525909	0.000180	1.801221	0.305135	-0.000018
1112	1.1054e+02	8.9408	9.509616	0.000164	1.637473	0.277395	-0.000016
1113	1.1064e+02	8.9293	9.486397	0.000233	2.333399	0.395289	-0.000023
1114	1.1074e+02	8.9204	9.470511	0.000160	1.596536	0.270461	-0.000016
1115	1.1084e+02	8.9111	9.451773	0.000188	1.883094	0.319005	-0.000019
1116	1.1094e+02	8.8989	9.434257	0.000176	1.760284	0.298200	-0.000018
1117	1.1104e+02	8.8876	9.415927	0.000184	1.842157	0.312070	-0.000018
1118	1.1114e+02	8.8783	9.400855	0.000151	1.514663	0.256591	-0.000015
1119	1.1124e+02	8.8712	9.383339	0.000176	1.760284	0.298200	-0.000018
1120	1.1134e+02	8.8587	9.364602	0.000188	1.883094	0.319005	-0.000019
1121	1.1144e+02	8.8487	9.346679	0.000180	1.801221	0.305135	-0.000018
1122	1.1154e+02	8.8405	9.331199	0.000156	1.555600	0.263526	-0.000016
1123	1.1164e+02	8.8290	9.306352	0.000250	2.497147	0.423028	-0.000025
1124	1.1174e+02	8.8209	9.294131	0.000123	1.228105	0.208047	-0.000012
1125	1.1184e+02	8.8116	9.279874	0.000143	1.432789	0.242721	-0.000014
1126	1.1194e+02	8.8027	9.263581	0.000164	1.637473	0.277395	-0.000016
1127	1.1204e+02	8.7914	9.243621	0.000201	2.005905	0.339809	-0.000020
1128	1.1214e+02	8.7800	9.226512	0.000172	1.719347	0.291265	-0.000017
1129	1.1224e+02	8.7720	9.211441	0.000151	1.514663	0.256591	-0.000015
1130	1.1234e+02	8.7624	9.195962	0.000156	1.555600	0.263526	-0.000016
1131	1.1244e+02	8.7503	9.175187	0.000209	2.087778	0.353679	-0.000021
1132	1.1253e+02	8.7437	9.159301	0.000160	1.596536	0.270461	-0.000016
1133	1.1263e+02	8.7317	9.143415	0.000160	1.596536	0.270461	-0.000016
1134	1.1273e+02	8.7198	9.123047	0.000205	2.046842	0.346744	-0.000020
1135	1.1283e+02	8.7128	9.106754	0.000164	1.637473	0.277395	-0.000016
1136	1.1293e+02	8.7018	9.094126	0.000127	1.269042	0.214982	-0.000013
1137	1.1303e+02	8.6922	9.078240	0.000160	1.596536	0.270461	-0.000016
1138	1.1313e+02	8.6818	9.057873	0.000205	2.046842	0.346744	-0.000020
1139	1.1323e+02	8.6709	9.043208	0.000147	1.473726	0.249656	-0.000015
1140	1.1333e+02	8.6597	9.028951	0.000143	1.432789	0.242721	-0.000014
1141	1.1343e+02	8.6516	9.006140	0.000229	2.292463	0.388354	-0.000023
1142	1.1353e+02	8.6427	8.989846	0.000164	1.637473	0.277395	-0.000016
1143	1.1363e+02	8.6310	8.976404	0.000135	1.350915	0.228851	-0.000014
1144	1.1373e+02	8.6203	8.957259	0.000192	1.924031	0.325940	-0.000019
1145	1.1383e+02	8.6093	8.940558	0.000168	1.678410	0.284330	-0.000017
1146	1.1393e+02	8.6041	8.925894	0.000147	1.473726	0.249656	-0.000015
1147	1.1403e+02	8.5914	8.910822	0.000151	1.514663	0.256591	-0.000015
1148	1.1413e+02	8.5812	8.896158	0.000147	1.473726	0.249656	-0.000015
1149	1.1423e+02	8.5699	8.880271	0.000160	1.596536	0.270461	-0.000016
1150	1.1433e+02	8.5614	8.861534	0.000188	1.883094	0.319005	-0.000019
1151	1.1442e+02	8.5498	8.846055	0.000156	1.555600	0.263526	-0.000016
1152	1.1452e+02	8.5400	8.830983	0.000151	1.514663	0.256591	-0.000015
1153	1.1462e+02	8.5321	8.815504	0.000156	1.555600	0.263526	-0.000016
1154	1.1472e+02	8.5229	8.798803	0.000168	1.678410	0.284330	-0.000017
1155	1.1482e+02	8.5125	8.780472	0.000184	1.842157	0.312070	-0.000018
1156	1.1492e+02	8.5019	8.765808	0.000147	1.473726	0.249656	-0.000015
1157	1.1502e+02	8.4921	8.747885	0.000180	1.801221	0.305135	-0.000018
1158	1.1512e+02	8.4836	8.731184	0.000168	1.678410	0.284330	-0.000017
1159	1.1522e+02	8.4721	8.714076	0.000172	1.719347	0.291265	-0.000017
1160	1.1532e+02	8.4644	8.702263	0.000119	1.187168	0.201112	-0.000012
1161	1.1542e+02	8.4546	8.681895	0.000205	2.046842	0.346744	-0.000020
1162	1.1552e+02	8.4438	8.667231	0.000147	1.473726	0.249656	-0.000015
1163	1.1562e+02	8.4351	8.652974	0.000143	1.432789	0.242721	-0.000014
1164	1.1572e+02	8.4246	8.629756	0.000233	2.333399	0.395289	-0.000023
1165	1.1582e+02	8.4138	8.614684	0.000151	1.514663	0.256591	-0.000015
1166	1.1592e+02	8.4055	8.601242	0.000135	1.350915	0.228851	-0.000014
1167	1.1602e+02	8.3916	8.582911	0.000184	1.842157	0.312070	-0.000018
1168	1.1612e+02	8.3838	8.566210	0.000168	1.678410	0.284330	-0.000017
1169	1.1622e+02	8.3726	8.550324	0.000160	1.596536	0.270461	-0.000016
1170	1.1632e+02	8.3625	8.531179	0.000192	1.924031	0.325940	-0.000019
1171	1.1642e+02	8.3539	8.514885	0.000164	1.637473	0.277395	-0.000016
1172	1.1651e+02	8.3411	8.499813	0.000151	1.514663	0.256591	-0.000015
1173	1.1661e+02	8.3334	8.484334	0.000156	1.555600	0.263526	-0.000016
1174	1.1671e+02	8.3257	8.468448	0.000160	1.596536	0.270461	-0.000016
1175	1.1681e+02	8.3132	8.454598	0.000139	1.391852	0.235786	-0.000014
1176	1.1691e+02	8.3048	8.436268	0.000184	1.842157	0.312070	-0.000018
1177	1.1701e+02	8.2946	8.423640	0.000127	1.269042	0.214982	-0.000013
1178	1.1711e+02	8.2825	8.410605	0.000131	1.309979	0.221916	-0.000013
1179	1.1721e+02	8.2721	8.397570	0.000131	1.309979	0.221916	-0.000013
1180	1.1731e+02	8.2624	8.383721	0.000139	1.391852	0.235786	-0.000014
1181	1.1741e+02	8.2555	8.369464	0.000143	1.432789	0.242721	-0.000014
1182	1.1751e+02	8.2430	8.355614	0.000139	1.391852	0.235786	-0.000014
1183	1.1761e+02	8.2344	8.342986	0.000127	1.269042	0.214982	-0.000013
1184	1.1771e+02	8.2220	8.325878	0.000172	1.719347	0.291265	-0.000017
1185	1.1781e+02	8.2133	8.308770	0.000172	1.719347	0.291265	-0.000017
1186	1.1791e+02	8.2028	8.295735	0.000131	1.309979	0.221916	-0.000013
1187	1.1801e+02	8.1956	8.283922	0.000119	1.187168	0.201112	-0.000012
1188	1.1811e+02	8.1851	8.270887	0.000131	1.309979	0.221916	-0.000013
1189	1.1821e+02	8.1740	8.257852	0.000131	1.309979	0.221916	-0.000013
1190	1.1831e+02	8.1641	8.244817	0.000131	1.309979	0.221916	-0.000013
1191	1.1841e+02	8.1510	8.230153	0.000147	1.473726	0.249656	-0.000015
1192	1.1850e+02	8.1421	8.217525	0.000127	1.269042	0.214982	-0.000013
1193	1.1860e+02	8.1348	8.201639	0.000160	1.596536	0.270461	-0.000016
1194	1.1870e+02	8.1232	8.186160	0.000156	1.555600	0.263526	-0.000016
1195	1.1880e+02	8.1126	8.171088	0.000151	1.514663	0.256591	-0.000015
1196	1.1890e+02	8.1048	8.157238	0.000139	1.391852	0.235786	-0.000014
1197	1.1900e+02	8.0949	8.134020	0.000233	2.333399	0.395289	-0.000023
1198	1.1910e+02	8.0825	8.123429	0.000106	1.064358	0.180307	-0.000011
1199	1.1920e+02	8.0738	8.099803	0.000237	2.374336	0.402223	-0.000024
1200	1.1930e+02	8.0659	8.089619	0.000102	1.023421	0.173372	-0.000010
1201	1.1940e+02	8.0566	8.070067	0.000196	1.964968	0.332875	-0.000020
1202	1.1950e+02	8.0453	8.050922	0.000192	1.924031	0.325940	-0.000019
1203	1.1960e+02	8.0337	8.035850	0.000151	1.514663	0.256591	-0.000015
1204	1.1970e+02	8.0277	8.017112	0.000188	1.883094	0.319005	-0.000019
1205	1.1980e+02	8.0146	7.999189	0.000180	1.801221	0.305135	-0.000018
1206	1.1990e+02	8.0054	7.982896	0.000164	1.637473	0.277395	-0.000016
1207	1.2000e+02	7.9930	7.962121	0.000209	2.087778	0.353679	-0.000021
1208	1.2010e+02	7.9875	7.946235	0.000160	1.596536	0.270461	-0.000016
1209	1.2020e+02	7.9749	7.927090	0.000192	1.924031	0.325940	-0.000019
1210	1.2030e+02	7.9650	7.910389	0.000168	1.678410	0.284330	-0.000017
1211	1.2039e+02	7.9529	7.890836	0.000196	1.964968	0.332875	-0.000020
1212	1.2049e+02	7.9449	7.870876	0.000201	2.005905	0.339809	-0.000020
1213	1.2059e+02	7.9346	7.854990	0.000160	1.596536	0.270461	-0.000016
1214	1.2069e+02	7.9248	7.831772	0.000233	2.333399	0.395289	-0.000023
1215	1.2079e+02	7.9189	7.817515	0.000143	1.432789	0.242721	-0.000014
1216	1.2089e+02	7.9040	7.800406	0.000172	1.719347	0.291265	-0.000017
1217	1.2099e+02	7.8947	7.779632	0.000209	2.087778	0.353679	-0.000021
1218	1.2109e+02	7.8892	7.761301	0.000184	1.842157	0.312070	-0.000018
1219	1.2119e+02	7.8775	7.739712	0.000217	2.169652	0.367549	-0.000022
1220	1.2129e+02	7.8680	7.722196	0.000176	1.760284	0.298200	-0.000018
1221	1.2139e+02	7.8588	7.705088	0.000172	1.719347	0.291265	-0.000017
1222	1.2149e+02	7.8440	7.689202	0.000160	1.596536	0.270461	-0.000016
1223	1.2159e+02	7.8385	7.666390	0.000229	2.292463	0.388354	-0.000023
1224	1.2169e+02	7.8275	7.648060	0.000184	1.842157	0.312070	-0.000018
1225	1.2179e+02	7.8185	7.630544	0.000176	1.760284	0.298200	-0.000018
1226	1.2189e+02	7.8076	7.612621	0.000180	1.801221	0.305135	-0.000018
1227	1.2199e+02	7.7967	7.592254	0.000205	2.046842	0.346744	-0.000020
1228	1.2209e+02	7.7857	7.572702	0.000196	1.964968	0.332875	-0.000020
1229	1.2219e+02	7.7767	7.553557	0.000192	1.924031	0.325940	-0.000019
1230	1.2229e+02	7.7646	7.534819	0.000188	1.883094	0.319005	-0.000019
1231	1.2239e+02	7.7554	7.515266	0.000196	1.964968	0.332875	-0.000020
1232	1.2248e+02	7.7460	7.490826	0.000246	2.456210	0.416093	-0.000025
1233	1.2258e+02	7.7397	7.474125	0.000168	1.678410	0.284330	-0.000017
1234	1.2268e+02	7.7277	7.451314	0.000229	2.292463	0.388354	-0.000023
1235	1.2278e+02	7.7137	7.434205	0.000172	1.719347	0.291265	-0.000017
1236	1.2288e+02	7.7047	7.410172	0.000242	2.415273	0.409158	-0.000024
1237	1.2298e+02	7.7009	7.392656	0.000176	1.760284	0.298200	-0.000018
1238	1.2308e+02	7.6883	7.374326	0.000184	1.842157	0.312070	-0.000018
1239	1.2318e+02	7.6740	7.353959	0.000205	2.046842	0.346744	-0.000020
1240	1.2328e+02	7.6680	7.335628	0.000184	1.842157	0.312070	-0.000018
1241	1.2338e+02	7.6529	7.316483	0.000192	1.924031	0.325940	-0.000019
1242	1.2348e+02	7.6476	7.295301	0.000213	2.128715	0.360614	-0.000021
1243	1.2358e+02	7.6372	7.277378	0.000180	1.801221	0.305135	-0.000018
1244	1.2368e+02	7.6265	7.255382	0.000221	2.210589	0.374484	-0.000022
1245	1.2378e+02	7.6163	7.238273	0.000172	1.719347	0.291265	-0.000017
1246	1.2388e+02	7.6068	7.217499	0.000209	2.087778	0.353679	-0.000021
1247	1.2398e+02	7.5957	7.198354	0.000192	1.924031	0.325940	-0.000019
1248	1.2408e+02	7.5874	7.175950	0.000225	2.251526	0.381419	-0.000023
1249	1.2418e+02	7.5744	7.155583	0.000205	2.046842	0.346744	-0.000020
1250	1.2428e+02	7.5656	7.135623	0.000201	2.005905	0.339809	-0.000020
1251	1.2438e+02	7.5571	7.119329	0.000164	1.637473	0.277395	-0.000016
1252	1.2447e+02	7.5474	7.097333	0.000221	2.210589	0.374484	-0.000022
1253	1.2457e+02	7.5359	7.077373	0.000201	2.005905	0.339809	-0.000020
1254	1.2467e+02	7.5283	7.060265	0.000172	1.719347	0.291265	-0.000017
1255	1.2477e+02	7.5185	7.040712	0.000196	1.964968	0.332875	-0.000020
1256	1.2487e+02	7.5100	7.020753	0.000201	2.005905	0.339809	-0.000020
1257	1.2497e+02	7.4989	6.997127	0.000237	2.374336	0.402223	-0.000024
1258	1.2507e+02	7.4882	6.977574	0.000196	1.964968	0.332875	-0.000020
1259	1.2517e+02	7.4773	6.957614	0.000201	2.005905	0.339809	-0.000020
1260	1.2527e+02	7.4666	6.936025	0.000217	2.169652	0.367549	-0.000022
1261	1.2537e+02	7.4585	6.910770	0.000254	2.538084	0.429963	-0.000025
1262	1.2547e+02	7.4490	6.889996	0.000209	2.087778	0.353679	-0.000021
1263	1.2557e+02	7.4389	6.865148	0.000250	2.497147	0.423028	-0.000025
1264	1.2567e+02	7.4285	6.842744	0.000225	2.251526	0.381419	-0.000023
1265	1.2577e+02	7.4171	6.823191	0.000196	1.964968	0.332875	-0.000020
1266	1.2587e+02	7.4074	6.797529	0.000258	2.579020	0.436898	-0.000026
1267	1.2597e+02	7.3981	6.775940	0.000217	2.169652	0.367549	-0.000022
1268	1.2607e+02	7.3882	6.751906	0.000242	2.415273	0.409158	-0.000024
1269	1.2617e+02	7.3811	6.733169	0.000188	1.883094	0.319005	-0.000019
1270	1.2627e+02	7.3666	6.710765	0.000225	2.251526	0.381419	-0.000023
1271	1.2636e+02	7.3591	6.686732	0.000242	2.415273	0.409158	-0.000024
1272	1.2646e+02	7.3489	6.664735	0.000221	2.210589	0.374484	-0.000022
1273	1.2656e+02	7.3392	6.640702	0.000242	2.415273	0.409158	-0.000024
1274	1.2666e+02	7.3306	6.616669	0.000242	2.415273	0.409158	-0.000024
1275	1.2676e+02	7.3199	6.593858	0.000229	2.292463	0.388354	-0.000023
1276	1.2686e+02	7.3096	6.573898	0.000201	2.005905	0.339809	-0.000020
1277	1.2696e+02	7.3009	6.551087	0.000229	2.292463	0.388354	-0.000023
1278	1.2706e+02	7.2900	6.525017	0.000262	2.619957	0.443833	-0.000026
1279	1.2716e+02	7.2817	6.509538	0.000156	1.555600	0.263526	-0.000016
1280	1.2726e+02	7.2674	6.483875	0.000258	2.579020	0.436898	-0.000026
1281	1.2736e+02	7.2597	6.465545	0.000184	1.842157	0.312070	-0.000018
1282	1.2746e+02	7.2491	6.446400	0.000192	1.924031	0.325940	-0.000019
1283	1.2756e+02	7.2399	6.426847	0.000196	1.964968	0.332875	-0.000020
1284	1.2766e+02	7.2285	6.406480	0.000205	2.046842	0.346744	-0.000020
1285	1.2776e+02	7.2207	6.386113	0.000205	2.046842	0.346744	-0.000020
1286	1.2786e+02	7.2076	6.364524	0.000217	2.169652	0.367549	-0.000022
1287	1.2796e+02	7.1981	6.347008	0.000176	1.760284	0.298200	-0.000018
1288	1.2806e+02	7.1893	6.327048	0.000201	2.005905	0.339809	-0.000020
1289	1.2816e+02	7.1789	6.309125	0.000180	1.801221	0.305135	-0.000018
1290	1.2826e+02	7.1682	6.288351	0.000209	2.087778	0.353679	-0.000021
1291	1.2835e+02	7.1587	6.270835	0.000176	1.760284	0.298200	-0.000018
1292	1.2845e+02	7.1473	6.250875	0.000201	2.005905	0.339809	-0.000020
1293	1.2855e+02	7.1423	6.230508	0.000205	2.046842	0.346744	-0.000020
1294	1.2865e+02	7.1291	6.212178	0.000184	1.842157	0.312070	-0.000018
1295	1.2875e+02	7.1209	6.192625	0.000196	1.964968	0.332875	-0.000020
1296	1.2885e+02	7.1071	6.174702	0.000180	1.801221	0.305135	-0.000018
1297	1.2895e+02	7.1030	6.155964	0.000188	1.883094	0.319005	-0.000019
1298	1.2905e+02	7.0908	6.136005	0.000201	2.005905	0.339809	-0.000020
1299	1.2915e+02	7.0810	6.118489	0.000176	1.760284	0.298200	-0.000018
1300	1.2925e+02	7.0692	6.099751	0.000188	1.883094	0.319005	-0.000019
1301	1.2935e+02	7.0611	6.077347	0.000225	2.251526	0.381419	-0.000023
1302	1.2945e+02	7.0492	6.061053	0.000164	1.637473	0.277395	-0.000016
1303	1.2955e+02	7.0404	6.041908	0.000192	1.924031	0.325940	-0.000019
1304	1.2965e+02	7.0301	6.025207	0.000168	1.678410	0.284330	-0.000017
1305	1.2975e+02	7.0196	6.002804	0.000225	2.251526	0.381419	-0.000023
1306	1.2985e+02	7.0090	5.986102	0.000168	1.678410	0.284330	-0.000017
1307	1.2995e+02	6.9981	5.968587	0.000176	1.760284	0.298200	-0.000018
1308	1.3005e+02	6.9893	5.946998	0.000217	2.169652	0.367549	-0.000022
1309	1.3015e+02	6.9807	5.927852	0.000192	1.924031	0.325940	-0.000019
1310	1.3025e+02	6.9691	5.910744	0.000172	1.719347	0.291265	-0.000017
1311	1.3034e+02	6.9601	5.891192	0.000196	1.964968	0.332875	-0.000020
1312	1.3044e+02	6.9500	5.874083	0.000172	1.719347	0.291265	-0.000017
1313	1.3054e+02	6.9384	5.855346	0.000188	1.883094	0.319005	-0.000019
1314	1.3064e+02	6.9283	5.839866	0.000156	1.555600	0.263526	-0.000016
1315	1.3074e+02	6.9216	5.821943	0.000180	1.801221	0.305135	-0.000018
1316	1.3084e+02	6.9132	5.802798	0.000192	1.924031	0.325940	-0.000019
1317	1.3094e+02	6.9020	5.786505	0.000164	1.637473	0.277395	-0.000016
1318	1.3104e+02	6.8893	5.768989	0.000176	1.760284	0.298200	-0.000018
1319	1.3114e+02	6.8800	5.746992	0.000221	2.210589	0.374484	-0.000022
1320	1.3124e+02	6.8694	5.731921	0.000151	1.514663	0.256591	-0.000015
1321	1.3134e+02	6.8636	5.713998	0.000180	1.801221	0.305135	-0.000018
1322	1.3144e+02	6.8533	5.693223	0.000209	2.087778	0.353679	-0.000021
1323	1.3154e+02	6.8426	5.679781	0.000135	1.350915	0.228851	-0.000014
1324	1.3164e+02	6.8323	5.654933	0.000250	2.497147	0.423028	-0.000025
1325	1.3174e+02	6.8225	5.637825	0.000172	1.719347	0.291265	-0.000017
1326	1.3184e+02	6.8090	5.619902	0.000180	1.801221	0.305135	-0.000018
1327	1.3194e+02	6.8000	5.606867	0.000131	1.309979	0.221916	-0.000013
1328	1.3204e+02	6.7913	5.585685	0.000213	2.128715	0.360614	-0.000021
1329	1.3214e+02	6.7809	5.566947	0.000188	1.883094	0.319005	-0.000019
1330	1.3224e+02	6.7718	5.547395	0.000196	1.964968	0.332875	-0.000020
1331	1.3234e+02	6.7627	5.531101	0.000164	1.637473	0.277395	-0.000016
1332	1.3243e+02	6.7509	5.510734	0.000205	2.046842	0.346744	-0.000020
1333	1.3253e+02	6.7419	5.492811	0.000180	1.801221	0.305135	-0.000018
1334	1.3263e+02	6.7310	5.475295	0.000176	1.760284	0.298200	-0.000018
1335	1.3273e+02	6.7242	5.461445	0.000139	1.391852	0.235786	-0.000014
1336	1.3283e+02	6.7081	5.437005	0.000246	2.456210	0.416093	-0.000025
1337	1.3293e+02	6.6991	5.421933	0.000151	1.514663	0.256591	-0.000015
1338	1.3303e+02	6.6909	5.400751	0.000213	2.128715	0.360614	-0.000021
1339	1.3313e+02	6.6831	5.381199	0.000196	1.964968	0.332875	-0.000020
1340	1.3323e+02	6.6732	5.366534	0.000147	1.473726	0.249656	-0.000015
1341	1.3333e+02	6.6627	5.349019	0.000176	1.760284	0.298200	-0.000018
1342	1.3343e+02	6.6515	5.328244	0.000209	2.087778	0.353679	-0.000021
1343	1.3353e+02	6.6418	5.312765	0.000156	1.555600	0.263526	-0.000016
1344	1.3363e+02	6.6313	5.294027	0.000188	1.883094	0.319005	-0.000019
1345	1.3373e+02	6.6235	5.283437	0.000106	1.064358	0.180307	-0.000011
1346	1.3383e+02	6.6116	5.267550	0.000160	1.596536	0.270461	-0.000016
1347	1.3393e+02	6.6051	5.250442	0.000172	1.719347	0.291265	-0.000017
1348	1.3403e+02	6.5911	5.239036	0.000115	1.146231	0.194177	-0.000011
1349	1.3413e+02	6.5810	5.219891	0.000192	1.924031	0.325940	-0.000019
1350	1.3423e+02	6.5756	5.205227	0.000147	1.473726	0.249656	-0.000015
1351	1.3432e+02	6.5614	5.185267	0.000201	2.005905	0.339809	-0.000020
1352	1.3442e+02	6.5536	5.173047	0.000123	1.228105	0.208047	-0.000012
1353	1.3452e+02	6.5388	5.153087	0.000201	2.005905	0.339809	-0.000020
1354	1.3462e+02	6.5330	5.137608	0.000156	1.555600	0.263526	-0.000016
1355	1.3472e+02	6.5203	5.122944	0.000147	1.473726	0.249656	-0.000015
1356	1.3482e+02	6.5130	5.108279	0.000147	1.473726	0.249656	-0.000015
1357	1.3492e+02	6.5006	5.092393	0.000160	1.596536	0.270461	-0.000016
1358	1.3502e+02	6.4925	5.076914	0.000156	1.555600	0.263526	-0.000016
1359	1.3512e+02	6.4802	5.064694	0.000123	1.228105	0.208047	-0.000012
1360	1.3522e+02	6.4729	5.049215	0.000156	1.555600	0.263526	-0.000016
1361	1.3532e+02	6.4626	5.028440	0.000209	2.087778	0.353679	-0.000021
1362	1.3542e+02	6.4529	5.010924	0.000176	1.760284	0.298200	-0.000018
1363	1.3552e+02	6.4433	4.994631	0.000164	1.637473	0.277395	-0.000016
1364	1.3562e+02	6.4318	4.979152	0.000156	1.555600	0.263526	-0.000016
1365	1.3572e+02	6.4226	4.956748	0.000225	2.251526	0.381419	-0.000023
1366	1.3582e+02	6.4129	4.937603	0.000192	1.924031	0.325940	-0.000019
1367	1.3592e+02	6.4034	4.919680	0.000180	1.801221	0.305135	-0.000018
1368	1.3602e+02	6.3949	4.899720	0.000201	2.005905	0.339809	-0.000020
1369	1.3612e+02	6.3831	4.880982	0.000188	1.883094	0.319005	-0.000019
1370	1.3622e+02	6.3747	4.863874	0.000172	1.719347	0.291265	-0.000017
1371	1.3631e+02	6.3619	4.843507	0.000205	2.046842	0.346744	-0.000020
1372	1.3641e+02	6.3540	4.822325	0.000213	2.128715	0.360614	-0.000021
1373	1.3651e+02	6.3428	4.804809	0.000176	1.760284	0.298200	-0.000018
1374	1.3661e+02	6.3340	4.784442	0.000205	2.046842	0.346744	-0.000020
1375	1.3671e+02	6.3247	4.764075	0.000205	2.046842	0.346744	-0.000020
1376	1.3681e+02	6.3135	4.744522	0.000196	1.964968	0.332875	-0.000020
1377	1.3691e+02	6.3039	4.723341	0.000213	2.128715	0.360614	-0.000021
1378	1.3701e+02	6.2966	4.707454	0.000160	1.596536	0.270461	-0.000016
1379	1.3711e+02	6.2872	4.685458	0.000221	2.210589	0.374484	-0.000022
1380	1.3721e+02	6.2728	4.665905	0.000196	1.964968	0.332875	-0.000020
1381	1.3731e+02	6.2653	4.645131	0.000209	2.087778	0.353679	-0.000021
1382	1.3741e+02	6.2516	4.625171	0.000201	2.005905	0.339809	-0.000020
1383	1.3751e+02	6.2440	4.606026	0.000192	1.924031	0.325940	-0.000019
1384	1.3761e+02	6.2356	4.584029	0.000221	2.210589	0.374484	-0.000022
1385	1.3771e+02	6.2249	4.562440	0.000217	2.169652	0.367549	-0.000022
1386	1.3781e+02	6.2153	4.545332	0.000172	1.719347	0.291265	-0.000017
1387	1.3791e+02	6.2051	4.521299	0.000242	2.415273	0.409158	-0.000024
1388	1.3801e+02	6.1932	4.502968	0.000184	1.842157	0.312070	-0.000018
1389	1.3811e+02	6.1842	4.483008	0.000201	2.005905	0.339809	-0.000020
1390	1.3821e+02	6.1738	4.460605	0.000225	2.251526	0.381419	-0.000023
1391	1.3831e+02	6.1664	4.441460	0.000192	1.924031	0.325940	-0.000019
1392	1.3840e+02	6.1544	4.423944	0.000176	1.760284	0.298200	-0.000018
1393	1.3850e+02	6.1434	4.400725	0.000233	2.333399	0.395289	-0.000023
1394	1.3860e+02	6.1343	4.378321	0.000225	2.251526	0.381419	-0.000023
1395	1.3870e+02	6.1240	4.360398	0.000180	1.801221	0.305135	-0.000018
1396	1.3880e+02	6.1155	4.339217	0.000213	2.128715	0.360614	-0.000021
1397	1.3890e+02	6.1086	4.313961	0.000254	2.538084	0.429963	-0.000025
1398	1.3900e+02	6.0940	4.295224	0.000188	1.883094	0.319005	-0.000019
1399	1.3910e+02	6.0851	4.268746	0.000266	2.660894	0.450768	-0.000027
1400	1.3920e+02	6.0738	4.249601	0.000192	1.924031	0.325940	-0.000019
1401	1.3930e+02	6.0661	4.225568	0.000242	2.415273	0.409158	-0.000024
1402	1.3940e+02	6.0547	4.207238	0.000184	1.842157	0.312070	-0.000018
1403	1.3950e+02	6.0445	4.188092	0.000192	1.924031	0.325940	-0.000019
1404	1.3960e+02	6.0317	4.164059	0.000242	2.415273	0.409158	-0.000024
1405	1.3970e+02	6.0256	4.146544	0.000176	1.760284	0.298200	-0.000018
1406	1.3980e+02	6.0149	4.123325	0.000233	2.333399	0.395289	-0.000023
1407	1.3990e+02	6.0059	4.099699	0.000237	2.374336	0.402223	-0.000024
1408	1.4000e+02	5.9953	4.079332	0.000205	2.046842	0.346744	-0.000020
1409	1.4010e+02	5.9895	4.060187	0.000192	1.924031	0.325940	-0.000019
1410	1.4020e+02	5.9737	4.036561	0.000237	2.374336	0.402223	-0.000024
1411	1.4029e+02	5.9643	4.015379	0.000213	2.128715	0.360614	-0.000021
1412	1.4039e+02	5.9539	3.994197	0.000213	2.128715	0.360614	-0.000021
1413	1.4049e+02	5.9478	3.972201	0.000221	2.210589	0.374484	-0.000022
1414	1.4059e+02	5.9335	3.946946	0.000254	2.538084	0.429963	-0.000025
1415	1.4069e+02	5.9255	3.926171	0.000209	2.087778	0.353679	-0.000021
1416	1.4079e+02	5.9161	3.904582	0.000217	2.169652	0.367549	-0.000022
1417	1.4089e+02	5.9054	3.887881	0.000168	1.678410	0.284330	-0.000017
1418	1.4099e+02	5.8944	3.864255	0.000237	2.374336	0.402223	-0.000024
1419	1.4109e+02	5.8862	3.842666	0.000217	2.169652	0.367549	-0.000022
1420	1.4119e+02	5.8741	3.822706	0.000201	2.005905	0.339809	-0.000020
1421	1.4129e+02	5.8643	3.797858	0.000250	2.497147	0.423028	-0.000025
1422	1.4139e+02	5.8572	3.777084	0.000209	2.087778	0.353679	-0.000021
1423	1.4149e+02	5.8456	3.757939	0.000192	1.924031	0.325940	-0.000019
1424	1.4159e+02	5.8332	3.735128	0.000229	2.292463	0.388354	-0.000023
1425	1.4169e+02	5.8265	3.715982	0.000192	1.924031	0.325940	-0.000019
1426	1.4179e+02	5.8165	3.686654	0.000295	2.947452	0.499312	-0.000029
1427	1.4189e+02	5.8070	3.666287	0.000205	2.046842	0.346744	-0.000020
1428	1.4199e+02	5.7967	3.641439	0.000250	2.497147	0.423028	-0.000025
1429	1.4209e+02	5.7843	3.615776	0.000258	2.579020	0.436898	-0.000026
1430	1.4219e+02	5.7766	3.593780	0.000221	2.210589	0.374484	-0.000022
1431	1.4228e+02	5.7662	3.567302	0.000266	2.660894	0.450768	-0.000027
1432	1.4238e+02	5.7589	3.543269	0.000242	2.415273	0.409158	-0.000024
1433	1.4248e+02	5.7475	3.521273	0.000221	2.210589	0.374484	-0.000022
1434	1.4258e+02	5.7374	3.493166	0.000282	2.824641	0.478507	-0.000028
1435	1.4268e+02	5.7278	3.469948	0.000233	2.333399	0.395289	-0.000023
1436	1.4278e+02	5.7184	3.447136	0.000229	2.292463	0.388354	-0.000023
1437	1.4288e+02	5.7075	3.421881	0.000254	2.538084	0.429963	-0.000025
1438	1.4298e+02	5.6951	3.400699	0.000213	2.128715	0.360614	-0.000021
1439	1.4308e+02	5.6863	3.371778	0.000291	2.906515	0.492377	-0.000029
1440	1.4318e+02	5.6782	3.349374	0.000225	2.251526	0.381419	-0.000023
1441	1.4328e+02	5.6664	3.322082	0.000274	2.742768	0.464637	-0.000027
1442	1.4338e+02	5.6559	3.298456	0.000237	2.374336	0.402223	-0.000024
1443	1.4348e+02	5.6472	3.275645	0.000229	2.292463	0.388354	-0.000023
1444	1.4358e+02	5.6376	3.250797	0.000250	2.497147	0.423028	-0.000025
1445	1.4368e+02	5.6275	3.227171	0.000237	2.374336	0.402223	-0.000024
1446	1.4378e+02	5.6201	3.202731	0.000246	2.456210	0.416093	-0.000025
1447	1.4388e+02	5.6128	3.183586	0.000192	1.924031	0.325940	-0.000019
1448	1.4398e+02	5.5976	3.157108	0.000266	2.660894	0.450768	-0.000027
1449	1.4408e+02	5.5887	3.134705	0.000225	2.251526	0.381419	-0.000023
1450	1.4418e+02	5.5785	3.113523	0.000213	2.128715	0.360614	-0.000021
1451	1.4428e+02	5.5689	3.093156	0.000205	2.046842	0.346744	-0.000020
1452	1.4437e+02	5.5584	3.072381	0.000209	2.087778	0.353679	-0.000021
1453	1.4447e+02	5.5481	3.050385	0.000221	2.210589	0.374484	-0.000022
1454	1.4457e+02	5.5364	3.027166	0.000233	2.333399	0.395289	-0.000023
1455	1.4467e+02	5.5300	3.008021	0.000192	1.924031	0.325940	-0.000019
1456	1.4477e+02	5.5187	2.984803	0.000233	2.333399	0.395289	-0.000023
1457	1.4487e+02	5.5064	2.965657	0.000192	1.924031	0.325940	-0.000019
1458	1.4497e+02	5.4988	2.947327	0.000184	1.842157	0.312070	-0.000018
1459	1.4507e+02	5.4906	2.924516	0.000229	2.292463	0.388354	-0.000023
1460	1.4517e+02	5.4787	2.904149	0.000205	2.046842	0.346744	-0.000020
1461	1.4527e+02	5.4688	2.881745	0.000225	2.251526	0.381419	-0.000023
1462	1.4537e+02	5.4563	2.864229	0.000176	1.760284	0.298200	-0.000018
1463	1.4547e+02	5.4478	2.841011	0.000233	2.333399	0.395289	-0.000023
1464	1.4557e+02	5.4388	2.819421	0.000217	2.169652	0.367549	-0.000022
1465	1.4567e+02	5.4263	2.799869	0.000196	1.964968	0.332875	-0.000020
1466	1.4577e+02	5.4195	2.777058	0.000229	2.292463	0.388354	-0.000023
1467	1.4587e+02	5.4089	2.757098	0.000201	2.005905	0.339809	-0.000020
1468	1.4597e+02	5.3985	2.739175	0.000180	1.801221	0.305135	-0.000018
1469	1.4607e+02	5.3883	2.715956	0.000233	2.333399	0.395289	-0.000023
1470	1.4617e+02	5.3764	2.695589	0.000205	2.046842	0.346744	-0.000020
1471	1.4626e+02	5.3689	2.676852	0.000188	1.883094	0.319005	-0.000019
1472	1.4636e+02	5.3590	2.654040	0.000229	2.292463	0.388354	-0.000023
1473	1.4646e+02	5.3488	2.633673	0.000205	2.046842	0.346744	-0.000020
1474	1.4656e+02	5.3407	2.614121	0.000196	1.964968	0.332875	-0.000020
1475	1.4666e+02	5.3284	2.594976	0.000192	1.924031	0.325940	-0.000019
1476	1.4676e+02	5.3199	2.574201	0.000209	2.087778	0.353679	-0.000021
1477	1.4686e+02	5.3105	2.551390	0.000229	2.292463	0.388354	-0.000023
1478	1.4696e+02	5.2989	2.534282	0.000172	1.719347	0.291265	-0.000017
1479	1.4706e+02	5.2914	2.513100	0.000213	2.128715	0.360614	-0.000021
1480	1.4716e+02	5.2789	2.492733	0.000205	2.046842	0.346744	-0.000020
1481	1.4726e+02	5.2705	2.475217	0.000176	1.760284	0.298200	-0.000018
1482	1.4736e+02	5.2589	2.454443	0.000209	2.087778	0.353679	-0.000021
1483	1.4746e+02	5.2490	2.435705	0.000188	1.883094	0.319005	-0.000019
1484	1.4756e+02	5.2391	2.416152	0.000196	1.964968	0.332875	-0.000020
1485	1.4766e+02	5.2288	2.394971	0.000213	2.128715	0.360614	-0.000021
1486	1.4776e+02	5.2168	2.375418	0.000196	1.964968	0.332875	-0.000020
1487	1.4786e+02	5.2112	2.357902	0.000176	1.760284	0.298200	-0.000018
1488	1.4796e+02	5.2004	2.337943	0.000201	2.005905	0.339809	-0.000020
1489	1.4806e+02	5.1876	2.317575	0.000205	2.046842	0.346744	-0.000020
1490	1.4816e+02	5.1827	2.297208	0.000205	2.046842	0.346744	-0.000020
1491	1.4825e+02	5.1671	2.273990	0.000233	2.333399	0.395289	-0.000023
1492	1.4835e+02	5.1589	2.254845	0.000192	1.924031	0.325940	-0.000019
1493	1.4845e+02	5.1501	2.233256	0.000217	2.169652	0.367549	-0.000022
1494	1.4855e+02	5.1394	2.216147	0.000172	1.719347	0.291265	-0.000017
1495	1.4865e+02	5.1302	2.195780	0.000205	2.046842	0.346744	-0.000020
1496	1.4875e+02	5.1201	2.177042	0.000188	1.883094	0.319005	-0.000019
1497	1.4885e+02	5.1109	2.159119	0.000180	1.801221	0.305135	-0.000018
1498	1.4895e+02	5.1015	2.136308	0.000229	2.292463	0.388354	-0.000023
1499	1.4905e+02	5.0916	2.113904	0.000225	2.251526	0.381419	-0.000023
1500	1.4915e+02	5.0786	2.093944	0.000201	2.005905	0.339809	-0.000020
1501	1.4925e+02	5.0715	2.076021	0.000180	1.801221	0.305135	-0.000018
1502	1.4935e+02	5.0593	2.055247	0.000209	2.087778	0.353679	-0.000021
1503	1.4945e+02	5.0535	2.034472	0.000209	2.087778	0.353679	-0.000021
1504	1.4955e+02	5.0418	2.016142	0.000184	1.842157	0.312070	-0.000018
1505	1.4965e+02	5.0289	1.992109	0.000242	2.415273	0.409158	-0.000024
1506	1.4975e+02	5.0245	1.975815	0.000164	1.637473	0.277395	-0.000016
1507	1.4985e+02	5.0085	1.954226	0.000217	2.169652	0.367549	-0.000022
1508	1.4995e+02	5.0006	1.933044	0.000213	2.128715	0.360614	-0.000021
1509	1.5005e+02	4.9892	1.918787	0.000143	1.432789	0.242721	-0.000014
1510	1.5015e+02	4.9812	1.893939	0.000250	2.497147	0.423028	-0.000025
1511	1.5025e+02	4.9693	1.876423	0.000176	1.760284	0.298200	-0.000018
1512	1.5034e+02	4.9612	1.857686	0.000188	1.883094	0.319005	-0.000019
1513	1.5044e+02	4.9500	1.840985	0.000168	1.678410	0.284330	-0.000017
1514	1.5054e+02	4.9387	1.826728	0.000143	1.432789	0.242721	-0.000014
1515	1.5064e+02	4.9297	1.808397	0.000184	1.842157	0.312070	-0.000018
1516	1.5074e+02	4.9220	1.793733	0.000147	1.473726	0.249656	-0.000015
1517	1.5084e+02	4.9118	1.772958	0.000209	2.087778	0.353679	-0.000021
1518	1.5094e+02	4.9033	1.756257	0.000168	1.678410	0.284330	-0.000017
1519	1.5104e+02	4.8906	1.737112	0.000192	1.924031	0.325940	-0.000019
1520	1.5114e+02	4.8800	1.720411	0.000168	1.678410	0.284330	-0.000017
1521	1.5124e+02	4.8687	1.700451	0.000201	2.005905	0.339809	-0.000020
1522	1.5134e+02	4.8635	1.685787	0.000147	1.473726	0.249656	-0.000015
1523	1.5144e+02	4.8492	1.667457	0.000184	1.842157	0.312070	-0.000018
1524	1.5154e+02	4.8423	1.650756	0.000168	1.678410	0.284330	-0.000017
1525	1.5164e+02	4.8315	1.632425	0.000184	1.842157	0.312070	-0.000018
1526	1.5174e+02	4.8196	1.616132	0.000164	1.637473	0.277395	-0.000016
1527	1.5184e+02	4.8119	1.599431	0.000168	1.678410	0.284330	-0.000017
1528	1.5194e+02	4.8037	1.578249	0.000213	2.128715	0.360614	-0.000021
1529	1.5204e+02	4.7900	1.561548	0.000168	1.678410	0.284330	-0.000017
1530	1.5214e+02	4.7828	1.541588	0.000201	2.005905	0.339809	-0.000020
1531	1.5224e+02	4.7709	1.520813	0.000209	2.087778	0.353679	-0.000021
1532	1.5233e+02	4.7620	1.502076	0.000188	1.883094	0.319005	-0.000019
1533	1.5243e+02	4.7493	1.480487	0.000217	2.169652	0.367549	-0.000022
1534	1.5253e+02	4.7410	1.460934	0.000196	1.964968	0.332875	-0.000020
1535	1.5263e+02	4.7298	1.438938	0.000221	2.210589	0.374484	-0.000022
1536	1.5273e+02	4.7253	1.419792	0.000192	1.924031	0.325940	-0.000019
1537	1.5283e+02	4.7123	1.397796	0.000221	2.210589	0.374484	-0.000022
1538	1.5293e+02	4.7014	1.376207	0.000217	2.169652	0.367549	-0.000022
1539	1.5303e+02	4.6893	1.356654	0.000196	1.964968	0.332875	-0.000020
1540	1.5313e+02	4.6821	1.332621	0.000242	2.415273	0.409158	-0.000024
1541	1.5323e+02	4.6709	1.311032	0.000217	2.169652	0.367549	-0.000022
1542	1.5333e+02	4.6615	1.289443	0.000217	2.169652	0.367549	-0.000022
1543	1.5343e+02	4.6542	1.271112	0.000184	1.842157	0.312070	-0.000018
1544	1.5353e+02	4.6429	1.247079	0.000242	2.415273	0.409158	-0.000024
1545	1.5363e+02	4.6328	1.227934	0.000192	1.924031	0.325940	-0.000019
1546	1.5373e+02	4.6222	1.202679	0.000254	2.538084	0.429963	-0.000025
1547	1.5383e+02	4.6134	1.183126	0.000196	1.964968	0.332875	-0.000020
1548	1.5393e+02	4.6026	1.161130	0.000221	2.210589	0.374484	-0.000022
1549	1.5403e+02	4.5925	1.141170	0.000201	2.005905	0.339809	-0.000020
1550	1.5413e+02	4.5837	1.119581	0.000217	2.169652	0.367549	-0.000022
1551	1.5422e+02	4.5739	1.098807	0.000209	2.087778	0.353679	-0.000021
1552	1.5432e+02	4.5631	1.073144	0.000258	2.579020	0.436898	-0.000026
1553	1.5442e+02	4.5535	1.053184	0.000201	2.005905	0.339809	-0.000020
1554	1.5452e+02	4.5438	1.027114	0.000262	2.619957	0.443833	-0.000026
1555	1.5462e+02	4.5342	1.006747	0.000205	2.046842	0.346744	-0.000020
1556	1.5472e+02	4.5238	0.982307	0.000246	2.456210	0.416093	-0.000025
1557	1.5482e+02	4.5142	0.961939	0.000205	2.046842	0.346744	-0.000020
1558	1.5492e+02	4.5019	0.937092	0.000250	2.497147	0.423028	-0.000025
1559	1.5502e+02	4.4945	0.915502	0.000217	2.169652	0.367549	-0.000022
1560	1.5512e+02	4.4843	0.892284	0.000233	2.333399	0.395289	-0.000023
1561	1.5522e+02	4.4746	0.873139	0.000192	1.924031	0.325940	-0.000019
1562	1.5532e+02	4.4646	0.851142	0.000221	2.210589	0.374484	-0.000022
1563	1.5542e+02	4.4550	0.827109	0.000242	2.415273	0.409158	-0.000024
1564	1.5552e+02	4.4439	0.804298	0.000229	2.292463	0.388354	-0.000023
1565	1.5562e+02	4.4329	0.779857	0.000246	2.456210	0.416093	-0.000025
1566	1.5572e+02	4.4222	0.754602	0.000254	2.538084	0.429963	-0.000025
1567	1.5582e+02	4.4147	0.731791	0.000229	2.292463	0.388354	-0.000023
1568	1.5592e+02	4.4051	0.711424	0.000205	2.046842	0.346744	-0.000020
1569	1.5602e+02	4.3910	0.684539	0.000270	2.701831	0.457703	-0.000027
1570	1.5612e+02	4.3829	0.662950	0.000217	2.169652	0.367549	-0.000022
1571	1.5622e+02	4.3728	0.641768	0.000213	2.128715	0.360614	-0.000021
1572	1.5631e+02	4.3655	0.616920	0.000250	2.497147	0.423028	-0.000025
1573	1.5641e+02	4.3559	0.590036	0.000270	2.701831	0.457703	-0.000027
1574	1.5651e+02	4.3448	0.569261	0.000209	2.087778	0.353679	-0.000021
1575	1.5661e+02	4.3347	0.547672	0.000217	2.169652	0.367549	-0.000022
1576	1.5671e+02	4.3224	0.524861	0.000229	2.292463	0.388354	-0.000023
1577	1.5681e+02	4.3139	0.500420	0.000246	2.456210	0.416093	-0.000025
1578	1.5691e+02	4.3031	0.480053	0.000205	2.046842	0.346744	-0.000020
1579	1.5701e+02	4.2959	0.454798	0.000254	2.538084	0.429963	-0.000025
1580	1.5711e+02	4.2841	0.432801	0.000221	2.210589	0.374484	-0.000022
1581	1.5721e+02	4.2738	0.406324	0.000266	2.660894	0.450768	-0.000027
1582	1.5731e+02	4.2662	0.383920	0.000225	2.251526	0.381419	-0.000023
1583	1.5741e+02	4.2575	0.358665	0.000254	2.538084	0.429963	-0.000025
1584	1.5751e+02	4.2443	0.337483	0.000213	2.128715	0.360614	-0.000021
1585	1.5761e+02	4.2316	0.315079	0.000225	2.251526	0.381419	-0.000023
1586	1.5771e+02	4.2265	0.286973	0.000282	2.824641	0.478507	-0.000028
1587	1.5781e+02	4.2147	0.263754	0.000233	2.333399	0.395289	-0.000023
1588	1.5791e+02	4.2043	0.244202	0.000196	1.964968	0.332875	-0.000020
1589	1.5801e+02	4.1926	0.220983	0.000233	2.333399	0.395289	-0.000023
1590	1.5811e+02	4.1842	0.196135	0.000250	2.497147	0.423028	-0.000025
1591	1.5821e+02	4.1724	0.176583	0.000196	1.964968	0.332875	-0.000020
1592	1.5830e+02	4.1646	0.148069	0.000287	2.865578	0.485442	-0.000029
1593	1.5840e+02	4.1561	0.126073	0.000221	2.210589	0.374484	-0.000022
1594	1.5850e+02	4.1441	0.099188	0.000270	2.701831	0.457703	-0.000027
1595	1.5860e+02	4.1363	0.073933	0.000254	2.538084	0.429963	-0.000025
1596	1.5870e+02	4.1244	0.049085	0.000250	2.497147	0.423028	-0.000025
1597	1.5880e+02	4.1167	0.019756	0.000295	2.947452	0.499312	-0.000029
1598	1.5890e+02	4.1048	-0.006721	0.000266	2.660894	0.450768	-0.000027
1599	1.5900e+02	4.0958	-0.027496	0.000209	2.087778	0.353679	-0.000021
1600	1.5910e+02	4.0875	-0.056417	0.000291	2.906515	0.492377	-0.000029
1601	1.5920e+02	4.0755	-0.085338	0.000291	2.906515	0.492377	-0.000029
1602	1.5930e+02	4.0667	-0.113038	0.000278	2.783705	0.471572	-0.000028
1603	1.5940e+02	4.0549	-0.137478	0.000246	2.456210	0.416093	-0.000025
1604	1.5950e+02	4.0462	-0.158253	0.000209	2.087778	0.353679	-0.000021
1605	1.5960e+02	4.0379	-0.185137	0.000270	2.701831	0.457703	-0.000027
1606	1.5970e+02	4.0261	-0.210800	0.000258	2.579020	0.436898	-0.000026
1607	1.5980e+02	4.0147	-0.238906	0.000282	2.824641	0.478507	-0.000028
1608	1.5990e+02	4.0051	-0.266198	0.000274	2.742768	0.464637	-0.000027
1609	1.6000e+02	3.9944	-0.293898	0.000278	2.783705	0.471572	-0.000028
1610	1.6010e+02	3.9864	-0.321190	0.000274	2.742768	0.464637	-0.000027
1611	1.6019e+02	3.9764	-0.348074	0.000270	2.701831	0.457703	-0.000027
1612	1.6029e+02	3.9637	-0.372515	0.000246	2.456210	0.416093	-0.000025
1613	1.6039e+02	3.9564	-0.398992	0.000266	2.660894	0.450768	-0.000027
1614	1.6049e+02	3.9455	-0.424247	0.000254	2.538084	0.429963	-0.000025
1615	1.6059e+02	3.9332	-0.448688	0.000246	2.456210	0.416093	-0.000025
1616	1.6069e+02	3.9259	-0.472721	0.000242	2.415273	0.409158	-0.000024
1617	1.6079e+02	3.9150	-0.494718	0.000221	2.210589	0.374484	-0.000022
1618	1.6089e+02	3.9077	-0.519973	0.000254	2.538084	0.429963	-0.000025
1619	1.6099e+02	3.8984	-0.540747	0.000209	2.087778	0.353679	-0.000021
1620	1.6109e+02	3.8879	-0.564780	0.000242	2.415273	0.409158	-0.000024
1621	1.6119e+02	3.8741	-0.591258	0.000266	2.660894	0.450768	-0.000027
1622	1.6129e+02	3.8686	-0.612032	0.000209	2.087778	0.353679	-0.000021
1623	1.6139e+02	3.8567	-0.632807	0.000209	2.087778	0.353679	-0.000021
1624	1.6149e+02	3.8443	-0.656840	0.000242	2.415273	0.409158	-0.000024
1625	1.6159e+02	3.8354	-0.681688	0.000250	2.497147	0.423028	-0.000025
1626	1.6169e+02	3.8284	-0.703684	0.000221	2.210589	0.374484	-0.000022
1627	1.6179e+02	3.8142	-0.726088	0.000225	2.251526	0.381419	-0.000023
1628	1.6189e+02	3.8068	-0.750121	0.000242	2.415273	0.409158	-0.000024
1629	1.6199e+02	3.7955	-0.770488	0.000205	2.046842	0.346744	-0.000020
1630	1.6209e+02	3.7902	-0.789634	0.000192	1.924031	0.325940	-0.000019
1631	1.6219e+02	3.7770	-0.817740	0.000282	2.824641	0.478507	-0.000028
1632	1.6228e+02	3.7658	-0.837700	0.000201	2.005905	0.339809	-0.000020
1633	1.6238e+02	3.7594	-0.859289	0.000217	2.169652	0.367549	-0.000022
1634	1.6248e+02	3.7438	-0.880471	0.000213	2.128715	0.360614	-0.000021
1635	1.6258e+02	3.7361	-0.907356	0.000270	2.701831	0.457703	-0.000027
1636	1.6268e+02	3.7305	-0.925686	0.000184	1.842157	0.312070	-0.000018
1637	1.6278e+02	3.7202	-0.949719	0.000242	2.415273	0.409158	-0.000024
1638	1.6288e+02	3.7071	-0.973345	0.000237	2.374336	0.402223	-0.000024
1639	1.6298e+02	3.6971	-0.996564	0.000233	2.333399	0.395289	-0.000023
1640	1.6308e+02	3.6880	-1.018153	0.000217	2.169652	0.367549	-0.000022
1641	1.6318e+02	3.6763	-1.040149	0.000221	2.210589	0.374484	-0.000022
1642	1.6328e+02	3.6711	-1.061738	0.000217	2.169652	0.367549	-0.000022
1643	1.6338e+02	3.6597	-1.086586	0.000250	2.497147	0.423028	-0.000025
1644	1.6348e+02	3.6462	-1.106953	0.000205	2.046842	0.346744	-0.000020
1645	1.6358e+02	3.6379	-1.131394	0.000246	2.456210	0.416093	-0.000025
1646	1.6368e+02	3.6290	-1.150539	0.000192	1.924031	0.325940	-0.000019
1647	1.6378e+02	3.6163	-1.174572	0.000242	2.415273	0.409158	-0.000024
1648	1.6388e+02	3.6087	-1.195754	0.000213	2.128715	0.360614	-0.000021
1649	1.6398e+02	3.5958	-1.214084	0.000184	1.842157	0.312070	-0.000018
1650	1.6408e+02	3.5885	-1.237710	0.000237	2.374336	0.402223	-0.000024
1651	1.6418e+02	3.5763	-1.258892	0.000213	2.128715	0.360614	-0.000021
1652	1.6427e+02	3.5677	-1.277630	0.000188	1.883094	0.319005	-0.000019
1653	1.6437e+02	3.5585	-1.299219	0.000217	2.169652	0.367549	-0.000022
1654	1.6447e+02	3.5474	-1.324882	0.000258	2.579020	0.436898	-0.000026
1655	1.6457e+02	3.5393	-1.345656	0.000209	2.087778	0.353679	-0.000021
1656	1.6467e+02	3.5297	-1.370504	0.000250	2.497147	0.423028	-0.000025
1657	1.6477e+02	3.5164	-1.385168	0.000147	1.473726	0.249656	-0.000015
1658	1.6487e+02	3.5065	-1.412053	0.000270	2.701831	0.457703	-0.000027
1659	1.6497e+02	3.4995	-1.437308	0.000254	2.538084	0.429963	-0.000025
1660	1.6507e+02	3.4887	-1.456453	0.000192	1.924031	0.325940	-0.000019
1661	1.6517e+02	3.4779	-1.475191	0.000188	1.883094	0.319005	-0.000019
1662	1.6527e+02	3.4675	-1.500854	0.000258	2.579020	0.436898	-0.000026
1663	1.6537e+02	3.4592	-1.518777	0.000180	1.801221	0.305135	-0.000018
1664	1.6547e+02	3.4498	-1.544032	0.000254	2.538084	0.429963	-0.000025
1665	1.6557e+02	3.4399	-1.566028	0.000221	2.210589	0.374484	-0.000022
1666	1.6567e+02	3.4326	-1.587210	0.000213	2.128715	0.360614	-0.000021
1667	1.6577e+02	3.4187	-1.607985	0.000209	2.087778	0.353679	-0.000021
1668	1.6587e+02	3.4095	-1.632018	0.000242	2.415273	0.409158	-0.000024
1669	1.6597e+02	3.3987	-1.651163	0.000192	1.924031	0.325940	-0.000019
1670	1.6607e+02	3.3877	-1.673567	0.000225	2.251526	0.381419	-0.000023
1671	1.6616e+02	3.3785	-1.697600	0.000242	2.415273	0.409158	-0.000024
1672	1.6626e+02	3.3714	-1.717153	0.000196	1.964968	0.332875	-0.000020
1673	1.6636e+02	3.3598	-1.740371	0.000233	2.333399	0.395289	-0.000023
1674	1.6646e+02	3.3477	-1.759516	0.000192	1.924031	0.325940	-0.000019
1675	1.6656e+02	3.3385	-1.783957	0.000246	2.456210	0.416093	-0.000025
1676	1.6666e+02	3.3258	-1.804731	0.000209	2.087778	0.353679	-0.000021
1677	1.6676e+02	3.3215	-1.827135	0.000225	2.251526	0.381419	-0.000023
1678	1.6686e+02	3.3096	-1.847502	0.000205	2.046842	0.346744	-0.000020
1679	1.6696e+02	3.2964	-1.867055	0.000196	1.964968	0.332875	-0.000020
1680	1.6706e+02	3.2906	-1.889866	0.000229	2.292463	0.388354	-0.000023
1681	1.6716e+02	3.2794	-1.901679	0.000119	1.187168	0.201112	-0.000012
1682	1.6726e+02	3.2664	-1.923675	0.000221	2.210589	0.374484	-0.000022
1683	1.6736e+02	3.2571	-1.942006	0.000184	1.842157	0.312070	-0.000018
1684	1.6746e+02	3.2510	-1.966446	0.000246	2.456210	0.416093	-0.000025
1685	1.6756e+02	3.2392	-1.982333	0.000160	1.596536	0.270461	-0.000016
1686	1.6766e+02	3.2285	-1.998626	0.000164	1.637473	0.277395	-0.000016
1687	1.6776e+02	3.2195	-2.025918	0.000274	2.742768	0.464637	-0.000027
1688	1.6786e+02	3.2135	-2.042212	0.000164	1.637473	0.277395	-0.000016
1689	1.6796e+02	3.1998	-2.063801	0.000217	2.169652	0.367549	-0.000022
1690	1.6806e+02	3.1910	-2.081317	0.000176	1.760284	0.298200	-0.000018
1691	1.6816e+02	3.1796	-2.100869	0.000196	1.964968	0.332875	-0.000020
1692	1.6825e+02	3.1710	-2.120014	0.000192	1.924031	0.325940	-0.000019
1693	1.6835e+02	3.1596	-2.139567	0.000196	1.964968	0.332875	-0.000020
1694	1.6845e+02	3.1476	-2.160341	0.000209	2.087778	0.353679	-0.000021
1695	1.6855e+02	3.1429	-2.178264	0.000180	1.801221	0.305135	-0.000018
1696	1.6865e+02	3.1300	-2.197817	0.000196	1.964968	0.332875	-0.000020
1697	1.6875e+02	3.1207	-2.219406	0.000217	2.169652	0.367549	-0.000022
1698	1.6885e+02	3.1088	-2.240588	0.000213	2.128715	0.360614	-0.000021
1699	1.6895e+02	3.1007	-2.261362	0.000209	2.087778	0.353679	-0.000021
1700	1.6905e+02	3.0865	-2.282137	0.000209	2.087778	0.353679	-0.000021
1701	1.6915e+02	3.0804	-2.306577	0.000246	2.456210	0.416093	-0.000025
1702	1.6925e+02	3.0693	-2.328574	0.000221	2.210589	0.374484	-0.000022
1703	1.6935e+02	3.0622	-2.351385	0.000229	2.292463	0.388354	-0.000023
1704	1.6945e+02	3.0521	-2.373789	0.000225	2.251526	0.381419	-0.000023
1705	1.6955e+02	3.0396	-2.397415	0.000237	2.374336	0.402223	-0.000024
1706	1.6965e+02	3.0307	-2.421040	0.000237	2.374336	0.402223	-0.000024
1707	1.6975e+02	3.0222	-2.444259	0.000233	2.333399	0.395289	-0.000023
1708	1.6985e+02	3.0108	-2.468700	0.000246	2.456210	0.416093	-0.000025
1709	1.6995e+02	3.0005	-2.490289	0.000217	2.169652	0.367549	-0.000022
1710	1.7005e+02	2.9890	-2.516359	0.000262	2.619957	0.443833	-0.000026
1711	1.7015e+02	2.9789	-2.539577	0.000233	2.333399	0.395289	-0.000023
1712	1.7024e+02	2.9702	-2.560759	0.000213	2.128715	0.360614	-0.000021
1713	1.7034e+02	2.9619	-2.586014	0.000254	2.538084	0.429963	-0.000025
1714	1.7044e+02	2.9531	-2.608418	0.000225	2.251526	0.381419	-0.000023
1715	1.7054e+02	2.9395	-2.630822	0.000225	2.251526	0.381419	-0.000023
1716	1.7064e+02	2.9339	-2.654855	0.000242	2.415273	0.409158	-0.000024
1717	1.7074e+02	2.9205	-2.684184	0.000295	2.947452	0.499312	-0.000029
1718	1.7084e+02	2.9109	-2.703736	0.000196	1.964968	0.332875	-0.000020
1719	1.7094e+02	2.8993	-2.728584	0.000250	2.497147	0.423028	-0.000025
1720	1.7104e+02	2.8899	-2.753839	0.000254	2.538084	0.429963	-0.000025
1721	1.7114e+02	2.8795	-2.778280	0.000246	2.456210	0.416093	-0.000025
1722	1.7124e+02	2.8723	-2.805164	0.000270	2.701831	0.457703	-0.000027
1723	1.7134e+02	2.8638	-2.825532	0.000205	2.046842	0.346744	-0.000020
1724	1.7144e+02	2.8509	-2.849972	0.000246	2.456210	0.416093	-0.000025
1725	1.7154e+02	2.8408	-2.878079	0.000282	2.824641	0.478507	-0.000028
1726	1.7164e+02	2.8307	-2.895187	0.000172	1.719347	0.291265	-0.000017
1727	1.7174e+02	2.8212	-2.924923	0.000299	2.988389	0.506247	-0.000030
1728	1.7184e+02	2.8129	-2.946512	0.000217	2.169652	0.367549	-0.000022
1729	1.7194e+02	2.8020	-2.968916	0.000225	2.251526	0.381419	-0.000023
1730	1.7204e+02	2.7914	-2.995393	0.000266	2.660894	0.450768	-0.000027
1731	1.7213e+02	2.7840	-3.019834	0.000246	2.456210	0.416093	-0.000025
1732	1.7223e+02	2.7723	-3.045089	0.000254	2.538084	0.429963	-0.000025
1733	1.7233e+02	2.7614	-3.076455	0.000315	3.152136	0.533986	-0.000032
1734	1.7243e+02	2.7510	-3.100895	0.000246	2.456210	0.416093	-0.000025
1735	1.7253e+02	2.7425	-3.124114	0.000233	2.333399	0.395289	-0.000023
1736	1.7263e+02	2.7336	-3.150591	0.000266	2.660894	0.450768	-0.000027
1737	1.7273e+02	2.7244	-3.177476	0.000270	2.701831	0.457703	-0.000027
1738	1.7283e+02	2.7143	-3.202323	0.000250	2.497147	0.423028	-0.000025
1739	1.7293e+02	2.7013	-3.222691	0.000205	2.046842	0.346744	-0.000020
1740	1.7303e+02	2.6915	-3.249983	0.000274	2.742768	0.464637	-0.000027
1741	1.7313e+02	2.6793	-3.274830	0.000250	2.497147	0.423028	-0.000025
1742	1.7323e+02	2.6743	-3.300086	0.000254	2.538084	0.429963	-0.000025
1743	1.7333e+02	2.6626	-3.324526	0.000246	2.456210	0.416093	-0.000025
1744	1.7343e+02	2.6511	-3.347337	0.000229	2.292463	0.388354	-0.000023
1745	1.7353e+02	2.6438	-3.374629	0.000274	2.742768	0.464637	-0.000027
1746	1.7363e+02	2.6305	-3.397441	0.000229	2.292463	0.388354	-0.000023
1747	1.7373e+02	2.6244	-3.427177	0.000299	2.988389	0.506247	-0.000030
1748	1.7383e+02	2.6115	-3.453654	0.000266	2.660894	0.450768	-0.000027
1749	1.7393e+02	2.6035	-3.476465	0.000229	2.292463	0.388354	-0.000023
1750	1.7403e+02	2.5921	-3.504979	0.000287	2.865578	0.485442	-0.000029
1751	1.7413e+02	2.5846	-3.531456	0.000266	2.660894	0.450768	-0.000027
1752	1.7422e+02	2.5739	-3.555489	0.000242	2.415273	0.409158	-0.000024
1753	1.7432e+02	2.5618	-3.579523	0.000242	2.415273	0.409158	-0.000024
1754	1.7442e+02	2.5562	-3.604778	0.000254	2.538084	0.429963	-0.000025
1755	1.7452e+02	2.5445	-3.632070	0.000274	2.742768	0.464637	-0.000027
1756	1.7462e+02	2.5322	-3.655288	0.000233	2.333399	0.395289	-0.000023
1757	1.7472e+02	2.5220	-3.678914	0.000237	2.374336	0.402223	-0.000024
1758	1.7482e+02	2.5124	-3.707021	0.000282	2.824641	0.478507	-0.000028
1759	1.7492e+02	2.5051	-3.731869	0.000250	2.497147	0.423028	-0.000025
1760	1.7502e+02	2.4928	-3.753458	0.000217	2.169652	0.367549	-0.000022
1761	1.7512e+02	2.4834	-3.779528	0.000262	2.619957	0.443833	-0.000026
1762	1.7522e+02	2.4749	-3.806005	0.000266	2.660894	0.450768	-0.000027
1763	1.7532e+02	2.4636	-3.836148	0.000303	3.029326	0.513182	-0.000030
1764	1.7542e+02	2.4537	-3.863033	0.000270	2.701831	0.457703	-0.000027
1765	1.7552e+02	2.4403	-3.894398	0.000315	3.152136	0.533986	-0.000032
1766	1.7562e+02	2.4326	-3.919246	0.000250	2.497147	0.423028	-0.000025
1767	1.7572e+02	2.4228	-3.950204	0.000311	3.111199	0.527051	-0.000031
1768	1.7582e+02	2.4145	-3.981162	0.000311	3.111199	0.527051	-0.000031
1769	1.7592e+02	2.4041	-4.007640	0.000266	2.660894	0.450768	-0.000027
1770	1.7602e+02	2.3967	-4.030451	0.000229	2.292463	0.388354	-0.000023
1771	1.7612e+02	2.3841	-4.063446	0.000332	3.315883	0.561726	-0.000033
1772	1.7621e+02	2.3727	-4.088294	0.000250	2.497147	0.423028	-0.000025
1773	1.7631e+02	2.3641	-4.118437	0.000303	3.029326	0.513182	-0.000030
1774	1.7641e+02	2.3549	-4.147766	0.000295	2.947452	0.499312	-0.000029
1775	1.7651e+02	2.3439	-4.178316	0.000307	3.070262	0.520117	-0.000031
1776	1.7661e+02	2.3328	-4.205201	0.000270	2.701831	0.457703	-0.000027
1777	1.7671e+02	2.3225	-4.236159	0.000311	3.111199	0.527051	-0.000031
1778	1.7681e+02	2.3139	-4.261821	0.000258	2.579020	0.436898	-0.000026
1779	1.7691e+02	2.3048	-4.287891	0.000262	2.619957	0.443833	-0.000026
1780	1.7701e+02	2.2946	-4.318442	0.000307	3.070262	0.520117	-0.000031
1781	1.7711e+02	2.2836	-4.343697	0.000254	2.538084	0.429963	-0.000025
1782	1.7721e+02	2.2744	-4.369767	0.000262	2.619957	0.443833	-0.000026
1783	1.7731e+02	2.2633	-4.397059	0.000274	2.742768	0.464637	-0.000027
1784	1.7741e+02	2.2545	-4.419870	0.000229	2.292463	0.388354	-0.000023
1785	1.7751e+02	2.2433	-4.450014	0.000303	3.029326	0.513182	-0.000030
1786	1.7761e+02	2.2337	-4.472825	0.000229	2.292463	0.388354	-0.000023
1787	1.7771e+02	2.2262	-4.496858	0.000242	2.415273	0.409158	-0.000024
1788	1.7781e+02	2.2147	-4.524150	0.000274	2.742768	0.464637	-0.000027
1789	1.7791e+02	2.2047	-4.551035	0.000270	2.701831	0.457703	-0.000027
1790	1.7801e+02	2.1946	-4.574253	0.000233	2.333399	0.395289	-0.000023
1791	1.7810e+02	2.1858	-4.596250	0.000221	2.210589	0.374484	-0.000022
1792	1.7820e+02	2.1764	-4.623134	0.000270	2.701831	0.457703	-0.000027
1793	1.7830e+02	2.1671	-4.647575	0.000246	2.456210	0.416093	-0.000025
1794	1.7840e+02	2.1524	-4.672830	0.000254	2.538084	0.429963	-0.000025
1795	1.7850e+02	2.1458	-4.697678	0.000250	2.497147	0.423028	-0.000025
1796	1.7860e+02	2.1327	-4.722526	0.000250	2.497147	0.423028	-0.000025
1797	1.7870e+02	2.1220	-4.749003	0.000266	2.660894	0.450768	-0.000027
1798	1.7880e+02	2.1129	-4.771814	0.000229	2.292463	0.388354	-0.000023
1799	1.7890e+02	2.1070	-4.795440	0.000237	2.374336	0.402223	-0.000024
1800	1.7900e+02	2.0959	-4.820288	0.000250	2.497147	0.423028	-0.000025
1801	1.7910e+02	2.0856	-4.846765	0.000266	2.660894	0.450768	-0.000027
1802	1.7920e+02	2.0744	-4.870799	0.000242	2.415273	0.409158	-0.000024
1803	1.7930e+02	2.0668	-4.897276	0.000266	2.660894	0.450768	-0.000027
1804	1.7940e+02	2.0599	-4.917236	0.000201	2.005905	0.339809	-0.000020
1805	1.7950e+02	2.0483	-4.944120	0.000270	2.701831	0.457703	-0.000027
1806	1.7960e+02	2.0339	-4.969375	0.000254	2.538084	0.429963	-0.000025
1807	1.7970e+02	2.0273	-4.993409	0.000242	2.415273	0.409158	-0.000024
1808	1.7980e+02	2.0155	-5.019071	0.000258	2.579020	0.436898	-0.000026
1809	1.7990e+02	2.0061	-5.042290	0.000233	2.333399	0.395289	-0.000023
1810	1.8000e+02	1.9963	-5.064286	0.000221	2.210589	0.374484	-0.000022
1811	1.8009e+02	1.9852	-5.089134	0.000250	2.497147	0.423028	-0.000025
1812	1.8019e+02	1.9765	-5.113167	0.000242	2.415273	0.409158	-0.000024
1813	1.8029e+02	1.9682	-5.138830	0.000258	2.579020	0.436898	-0.000026
1814	1.8039e+02	1.9558	-5.161641	0.000229	2.292463	0.388354	-0.000023
1815	1.8049e+02	1.9462	-5.186896	0.000254	2.538084	0.429963	-0.000025
1816	1.8059e+02	1.9354	-5.206856	0.000201	2.005905	0.339809	-0.000020
1817	1.8069e+02	1.9258	-5.231704	0.000250	2.497147	0.423028	-0.000025
1818	1.8079e+02	1.9153	-5.255737	0.000242	2.415273	0.409158	-0.000024
1819	1.8089e+02	1.9045	-5.281400	0.000258	2.579020	0.436898	-0.000026
1820	1.8099e+02	1.8941	-5.305840	0.000246	2.456210	0.416093	-0.000025
1821	1.8109e+02	1.8882	-5.327430	0.000217	2.169652	0.367549	-0.000022
1822	1.8119e+02	1.8761	-5.350241	0.000229	2.292463	0.388354	-0.000023
1823	1.8129e+02	1.8661	-5.375089	0.000250	2.497147	0.423028	-0.000025
1824	1.8139e+02	1.8551	-5.397085	0.000221	2.210589	0.374484	-0.000022
1825	1.8149e+02	1.8478	-5.425599	0.000287	2.865578	0.485442	-0.000029
1826	1.8159e+02	1.8378	-5.448003	0.000225	2.251526	0.381419	-0.000023
1827	1.8169e+02	1.8264	-5.471221	0.000233	2.333399	0.395289	-0.000023
1828	1.8179e+02	1.8165	-5.496884	0.000258	2.579020	0.436898	-0.000026
1829	1.8189e+02	1.8073	-5.520510	0.000237	2.374336	0.402223	-0.000024
1830	1.8199e+02	1.7958	-5.542914	0.000225	2.251526	0.381419	-0.000023
1831	1.8209e+02	1.7862	-5.567762	0.000250	2.497147	0.423028	-0.000025
1832	1.8218e+02	1.7766	-5.589758	0.000221	2.210589	0.374484	-0.000022
1833	1.8228e+02	1.7673	-5.612569	0.000229	2.292463	0.388354	-0.000023
1834	1.8238e+02	1.7561	-5.635788	0.000233	2.333399	0.395289	-0.000023
1835	1.8248e+02	1.7467	-5.660228	0.000246	2.456210	0.416093	-0.000025
1836	1.8258e+02	1.7386	-5.682632	0.000225	2.251526	0.381419	-0.000023
1837	1.8268e+02	1.7276	-5.707073	0.000246	2.456210	0.416093	-0.000025
1838	1.8278e+02	1.7142	-5.733143	0.000262	2.619957	0.443833	-0.000026
1839	1.8288e+02	1.7049	-5.761249	0.000282	2.824641	0.478507	-0.000028
1840	1.8298e+02	1.6944	-5.781617	0.000205	2.046842	0.346744	-0.000020
1841	1.8308e+02	1.6878	-5.804835	0.000233	2.333399	0.395289	-0.000023
1842	1.8318e+02	1.6782	-5.829683	0.000250	2.497147	0.423028	-0.000025
1843	1.8328e+02	1.6687	-5.855346	0.000258	2.579020	0.436898	-0.000026
1844	1.8338e+02	1.6546	-5.876120	0.000209	2.087778	0.353679	-0.000021
1845	1.8348e+02	1.6480	-5.902190	0.000262	2.619957	0.443833	-0.000026
1846	1.8358e+02	1.6367	-5.922964	0.000209	2.087778	0.353679	-0.000021
1847	1.8368e+02	1.6286	-5.944554	0.000217	2.169652	0.367549	-0.000022
1848	1.8378e+02	1.6177	-5.964921	0.000205	2.046842	0.346744	-0.000020
1849	1.8388e+02	1.6071	-5.982436	0.000176	1.760284	0.298200	-0.000018
1850	1.8398e+02	1.5963	-6.008099	0.000258	2.579020	0.436898	-0.000026
1851	1.8407e+02	1.5913	-6.027244	0.000192	1.924031	0.325940	-0.000019
1852	1.8417e+02	1.5766	-6.046797	0.000196	1.964968	0.332875	-0.000020
1853	1.8427e+02	1.5652	-6.071237	0.000246	2.456210	0.416093	-0.000025
1854	1.8437e+02	1.5592	-6.093641	0.000225	2.251526	0.381419	-0.000023
1855	1.8447e+02	1.5483	-6.113601	0.000201	2.005905	0.339809	-0.000020
1856	1.8457e+02	1.5393	-6.139263	0.000258	2.579020	0.436898	-0.000026
1857	1.8467e+02	1.5264	-6.162482	0.000233	2.333399	0.395289	-0.000023
1858	1.8477e+02	1.5162	-6.179590	0.000172	1.719347	0.291265	-0.000017
1859	1.8487e+02	1.5089	-6.197921	0.000184	1.842157	0.312070	-0.000018
1860	1.8497e+02	1.4991	-6.220732	0.000229	2.292463	0.388354	-0.000023
1861	1.8507e+02	1.4866	-6.243136	0.000225	2.251526	0.381419	-0.000023
1862	1.8517e+02	1.4777	-6.261873	0.000188	1.883094	0.319005	-0.000019
1863	1.8527e+02	1.4678	-6.287536	0.000258	2.579020	0.436898	-0.000026
1864	1.8537e+02	1.4565	-6.309125	0.000217	2.169652	0.367549	-0.000022
1865	1.8547e+02	1.4492	-6.331122	0.000221	2.210589	0.374484	-0.000022
1866	1.8557e+02	1.4388	-6.354747	0.000237	2.374336	0.402223	-0.000024
1867	1.8567e+02	1.4276	-6.377559	0.000229	2.292463	0.388354	-0.000023
1868	1.8577e+02	1.4188	-6.400777	0.000233	2.333399	0.395289	-0.000023
1869	1.8587e+02	1.4057	-6.431328	0.000307	3.070262	0.520117	-0.000031
1870	1.8597e+02	1.3985	-6.449251	0.000180	1.801221	0.305135	-0.000018
1871	1.8606e+02	1.3896	-6.479802	0.000307	3.070262	0.520117	-0.000031
1872	1.8616e+02	1.3789	-6.504650	0.000250	2.497147	0.423028	-0.000025
1873	1.8626e+02	1.3708	-6.530719	0.000262	2.619957	0.443833	-0.000026
1874	1.8636e+02	1.3571	-6.552716	0.000221	2.210589	0.374484	-0.000022
1875	1.8646e+02	1.3492	-6.580008	0.000274	2.742768	0.464637	-0.000027
1876	1.8656e+02	1.3374	-6.603226	0.000233	2.333399	0.395289	-0.000023
1877	1.8666e+02	1.3281	-6.629704	0.000266	2.660894	0.450768	-0.000027
1878	1.8676e+02	1.3207	-6.655366	0.000258	2.579020	0.436898	-0.000026
1879	1.8686e+02	1.3103	-6.680622	0.000254	2.538084	0.429963	-0.000025
1880	1.8696e+02	1.2996	-6.707913	0.000274	2.742768	0.464637	-0.000027
1881	1.8706e+02	1.2893	-6.731132	0.000233	2.333399	0.395289	-0.000023
1882	1.8716e+02	1.2791	-6.758017	0.000270	2.701831	0.457703	-0.000027
1883	1.8726e+02	1.2685	-6.785309	0.000274	2.742768	0.464637	-0.000027
1884	1.8736e+02	1.2631	-6.810564	0.000254	2.538084	0.429963	-0.000025
1885	1.8746e+02	1.2499	-6.832153	0.000217	2.169652	0.367549	-0.000022
1886	1.8756e+02	1.2382	-6.861482	0.000295	2.947452	0.499312	-0.000029
1887	1.8766e+02	1.2308	-6.887959	0.000266	2.660894	0.450768	-0.000027
1888	1.8776e+02	1.2192	-6.915658	0.000278	2.783705	0.471572	-0.000028
1889	1.8786e+02	1.2093	-6.936025	0.000205	2.046842	0.346744	-0.000020
1890	1.8796e+02	1.2008	-6.964132	0.000282	2.824641	0.478507	-0.000028
1891	1.8806e+02	1.1900	-6.988572	0.000246	2.456210	0.416093	-0.000025
1892	1.8815e+02	1.1797	-7.018308	0.000299	2.988389	0.506247	-0.000030
1893	1.8825e+02	1.1725	-7.041120	0.000229	2.292463	0.388354	-0.000023
1894	1.8835e+02	1.1613	-7.069226	0.000282	2.824641	0.478507	-0.000028
1895	1.8845e+02	1.1497	-7.097333	0.000282	2.824641	0.478507	-0.000028
1896	1.8855e+02	1.1441	-7.121366	0.000242	2.415273	0.409158	-0.000024
1897	1.8865e+02	1.1311	-7.142955	0.000217	2.169652	0.367549	-0.000022
1898	1.8875e+02	1.1228	-7.171877	0.000291	2.906515	0.492377	-0.000029
1899	1.8885e+02	1.1100	-7.199983	0.000282	2.824641	0.478507	-0.000028
1900	1.8895e+02	1.0990	-7.227683	0.000278	2.783705	0.471572	-0.000028
1901	1.8905e+02	1.0927	-7.260270	0.000327	3.274947	0.554791	-0.000033
1902	1.8915e+02	1.0812	-7.285933	0.000258	2.579020	0.436898	-0.000026
1903	1.8925e+02	1.0692	-7.311595	0.000258	2.579020	0.436898	-0.000026
1904	1.8935e+02	1.0615	-7.340924	0.000295	2.947452	0.499312	-0.000029
1905	1.8945e+02	1.0509	-7.366994	0.000262	2.619957	0.443833	-0.000026
1906	1.8955e+02	1.0433	-7.391027	0.000242	2.415273	0.409158	-0.000024
1907	1.8965e+02	1.0339	-7.420763	0.000299	2.988389	0.506247	-0.000030
1908	1.8975e+02	1.0181	-7.445611	0.000250	2.497147	0.423028	-0.000025
1909	1.8985e+02	1.0090	-7.477384	0.000319	3.193073	0.540921	-0.000032
1910	1.8995e+02	0.9999	-7.501009	0.000237	2.374336	0.402223	-0.000024
1911	1.9004e+02	0.9914	-7.531560	0.000307	3.070262	0.520117	-0.000031
1912	1.9014e+02	0.9802	-7.554371	0.000229	2.292463	0.388354	-0.000023
1913	1.9024e+02	0.9695	-7.588181	0.000340	3.397757	0.575596	-0.000034
1914	1.9034e+02	0.9604	-7.608955	0.000209	2.087778	0.353679	-0.000021
1915	1.9044e+02	0.9497	-7.637062	0.000282	2.824641	0.478507	-0.000028
1916	1.9054e+02	0.9405	-7.670057	0.000332	3.315883	0.561726	-0.000033
1917	1.9064e+02	0.9326	-7.694497	0.000246	2.456210	0.416093	-0.000025
1918	1.9074e+02	0.9200	-7.721789	0.000274	2.742768	0.464637	-0.000027
1919	1.9084e+02	0.9155	-7.749896	0.000282	2.824641	0.478507	-0.000028
1920	1.9094e+02	0.9003	-7.775151	0.000254	2.538084	0.429963	-0.000025
1921	1.9104e+02	0.8943	-7.802443	0.000274	2.742768	0.464637	-0.000027
1922	1.9114e+02	0.8802	-7.831364	0.000291	2.906515	0.492377	-0.000029
1923	1.9124e+02	0.8709	-7.854583	0.000233	2.333399	0.395289	-0.000023
1924	1.9134e+02	0.8627	-7.887170	0.000327	3.274947	0.554791	-0.000033
1925	1.9144e+02	0.8502	-7.909981	0.000229	2.292463	0.388354	-0.000023
1926	1.9154e+02	0.8395	-7.936866	0.000270	2.701831	0.457703	-0.000027
1927	1.9164e+02	0.8324	-7.966602	0.000299	2.988389	0.506247	-0.000030
1928	1.9174e+02	0.8220	-7.994301	0.000278	2.783705	0.471572	-0.000028
1929	1.9184e+02	0.8122	-8.026481	0.000323	3.234010	0.547856	-0.000032
1930	1.9194e+02	0.8030	-8.052551	0.000262	2.619957	0.443833	-0.000026
1931	1.9203e+02	0.7933	-8.083102	0.000307	3.070262	0.520117	-0.000031
1932	1.9213e+02	0.7831	-8.113653	0.000307	3.070262	0.520117	-0.000031
1933	1.9223e+02	0.7719	-8.148684	0.000352	3.520568	0.596400	-0.000035
1934	1.9233e+02	0.7602	-8.175569	0.000270	2.701831	0.457703	-0.000027
1935	1.9243e+02	0.7511	-8.204083	0.000287	2.865578	0.485442	-0.000029
1936	1.9253e+02	0.7417	-8.237077	0.000332	3.315883	0.561726	-0.000033
1937	1.9263e+02	0.7310	-8.266406	0.000295	2.947452	0.499312	-0.000029
1938	1.9273e+02	0.7220	-8.292476	0.000262	2.619957	0.443833	-0.000026
1939	1.9283e+02	0.7151	-8.323841	0.000315	3.152136	0.533986	-0.000032
1940	1.9293e+02	0.6998	-8.355207	0.000315	3.152136	0.533986	-0.000032
1941	1.9303e+02	0.6913	-8.386165	0.000311	3.111199	0.527051	-0.000031
1942	1.9313e+02	0.6811	-8.418345	0.000323	3.234010	0.547856	-0.000032
1943	1.9323e+02	0.6734	-8.448081	0.000299	2.988389	0.506247	-0.000030
1944	1.9333e+02	0.6619	-8.479039	0.000311	3.111199	0.527051	-0.000031
1945	1.9343e+02	0.6522	-8.510812	0.000319	3.193073	0.540921	-0.000032
1946	1.9353e+02	0.6436	-8.533215	0.000225	2.251526	0.381419	-0.000023
1947	1.9363e+02	0.6325	-8.567432	0.000344	3.438694	0.582531	-0.000034
1948	1.9373e+02	0.6222	-8.597576	0.000303	3.029326	0.513182	-0.000030
1949	1.9383e+02	0.6123	-8.628126	0.000307	3.070262	0.520117	-0.000031
1950	1.9393e+02	0.6028	-8.657862	0.000299	2.988389	0.506247	-0.000030
1951	1.9403e+02	0.5929	-8.682710	0.000250	2.497147	0.423028	-0.000025
1952	1.9412e+02	0.5833	-8.709595	0.000270	2.701831	0.457703	-0.000027
1953	1.9422e+02	0.5715	-8.738516	0.000291	2.906515	0.492377	-0.000029
1954	1.9432e+02	0.5605	-8.764179	0.000258	2.579020	0.436898	-0.000026
1955	1.9442e+02	0.5540	-8.791878	0.000278	2.783705	0.471572	-0.000028
1956	1.9452e+02	0.5453	-8.819170	0.000274	2.742768	0.464637	-0.000027
1957	1.9462e+02	0.5290	-8.849313	0.000303	3.029326	0.513182	-0.000030
1958	1.9472e+02	0.5201	-8.874568	0.000254	2.538084	0.429963	-0.000025
1959	1.9482e+02	0.5139	-8.900231	0.000258	2.579020	0.436898	-0.000026
1960	1.9492e+02	0.5025	-8.929967	0.000299	2.988389	0.506247	-0.000030
1961	1.9502e+02	0.4925	-8.954815	0.000250	2.497147	0.423028	-0.000025
1962	1.9512e+02	0.4818	-8.982514	0.000278	2.783705	0.471572	-0.000028
1963	1.9522e+02	0.4736	-9.006140	0.000237	2.374336	0.402223	-0.000024
1964	1.9532e+02	0.4617	-9.034247	0.000282	2.824641	0.478507	-0.000028
1965	1.9542e+02	0.4554	-9.058687	0.000246	2.456210	0.416093	-0.000025
1966	1.9552e+02	0.4429	-9.088423	0.000299	2.988389	0.506247	-0.000030
1967	1.9562e+02	0.4349	-9.115715	0.000274	2.742768	0.464637	-0.000027
1968	1.9572e+02	0.4231	-9.141785	0.000262	2.619957	0.443833	-0.000026
1969	1.9582e+02	0.4166	-9.163782	0.000221	2.210589	0.374484	-0.000022
1970	1.9592e+02	0.4031	-9.193925	0.000303	3.029326	0.513182	-0.000030
1971	1.9601e+02	0.3925	-9.219995	0.000262	2.619957	0.443833	-0.000026
1972	1.9611e+02	0.3833	-9.247287	0.000274	2.742768	0.464637	-0.000027
1973	1.9621e+02	0.3745	-9.273764	0.000266	2.660894	0.450768	-0.000027
1974	1.9631e+02	0.3626	-9.296168	0.000225	2.251526	0.381419	-0.000023
1975	1.9641e+02	0.3546	-9.326311	0.000303	3.029326	0.513182	-0.000030
1976	1.9651e+02	0.3415	-9.349937	0.000237	2.374336	0.402223	-0.000024
1977	1.9661e+02	0.3338	-9.380081	0.000303	3.029326	0.513182	-0.000030
1978	1.9671e+02	0.3238	-9.407373	0.000274	2.742768	0.464637	-0.000027
1979	1.9681e+02	0.3136	-9.434257	0.000270	2.701831	0.457703	-0.000027
1980	1.9691e+02	0.3036	-9.458698	0.000246	2.456210	0.416093	-0.000025
1981	1.9701e+02	0.2945	-9.483546	0.000250	2.497147	0.423028	-0.000025
1982	1.9711e+02	0.2822	-9.512060	0.000287	2.865578	0.485442	-0.000029
1983	1.9721e+02	0.2767	-9.535278	0.000233	2.333399	0.395289	-0.000023
1984	1.9731e+02	0.2648	-9.560941	0.000258	2.579020	0.436898	-0.000026
1985	1.9741e+02	0.2544	-9.586196	0.000254	2.538084	0.429963	-0.000025
1986	1.9751e+02	0.2454	-9.614303	0.000282	2.824641	0.478507	-0.000028
1987	1.9761e+02	0.2345	-9.637928	0.000237	2.374336	0.402223	-0.000024
1988	1.9771e+02	0.2223	-9.663591	0.000258	2.579020	0.436898	-0.000026
1989	1.9781e+02	0.2151	-9.687624	0.000242	2.415273	0.409158	-0.000024
1990	1.9791e+02	0.2044	-9.716953	0.000295	2.947452	0.499312	-0.000029
1991	1.9800e+02	0.1941	-9.742208	0.000254	2.538084	0.429963	-0.000025
1992	1.9810e+02	0.1820	-9.765019	0.000229	2.292463	0.388354	-0.000023
1993	1.9820e+02	0.1766	-9.791904	0.000270	2.701831	0.457703	-0.000027
1994	1.9830e+02	0.1669	-9.821233	0.000295	2.947452	0.499312	-0.000029
1995	1.9840e+02	0.1553	-9.845266	0.000242	2.415273	0.409158	-0.000024
1996	1.9850e+02	0.1451	-9.868077	0.000229	2.292463	0.388354	-0.000023
1997	1.9860e+02	0.1360	-9.896591	0.000287	2.865578	0.485442	-0.000029
1998	1.9870e+02	0.1251	-9.921439	0.000250	2.497147	0.423028	-0.000025
1999	1.9880e+02	0.1150	-9.943435	0.000221	2.210589	0.374484	-0.000022
2000	1.9890e+02	0.1057	-9.973579	0.000303	3.029326	0.513182	-0.000030
2001	1.9900e+02	0.0960	-10.000056	0.000266	2.660894	0.450768	-0.000027
2002	1.9910e+02	0.0857	-10.026941	0.000270	2.701831	0.457703	-0.000027
2003	1.9920e+02	0.0749	-10.054640	0.000278	2.783705	0.471572	-0.000028
2004	1.9930e+02	0.0647	-10.077451	0.000229	2.292463	0.388354	-0.000023
2005	1.9940e+02	0.0551	-10.105150	0.000278	2.783705	0.471572	-0.000028
2006	1.9950e+02	0.0431	-10.131220	0.000262	2.619957	0.443833	-0.000026
2007	1.9960e+02	0.0360	-10.158512	0.000274	2.742768	0.464637	-0.000027
2008	1.9970e+02	0.0253	-10.181731	0.000233	2.333399	0.395289	-0.000023
2009	1.9980e+02	0.0160	-10.209837	0.000282	2.824641	0.478507	-0.000028
2010	1.9990e+02	0.0084	-10.234278	0.000246	2.456210	0.416093	-0.000025
2011	2.0000e+02	-0.0063	-10.260348	0.000246	2.456210	0.416093	-0.000026

PMax (uC/cm2):	2.24e+01
Pr (uC/cm2):	9.53e-01
-Pr (uC/cm2):	0.00e+00
PLoss (uC/cm2):	0.00e+00
C (Max-Eff) (nF):	2.24e-01
K (Eff):	3.80e+02
Vert. (+/-Pr) Shift (uC/cm2):	4.76e-01
Offset (uC/cm2):	1.12e+01

A (Loop Area - uC/cm2·Volts):	-9.08e-03



Hysteresis Version: 5.48.1 - Radiant Technologies, Inc., 1999 - 9/12/24

