»»»»»»»»»»»»»»»»»»»»»»»»»»»»»»»»»»»» Hysteresis ««««««««««««««««««««««««««««««««««««
»»»  Executed Version:	5.48.1
»»»  Vision Version:	5.48.4 (R)
»»»  Vision Compiled:	9/18/24
»»»  Driver Version:	5.47.0
»»»  Windows Version:	Windows 8 or 8.1
»»»  Processor Information:	x86 (AMD or Intel) - 32 Processors
»»»  Tester Name:	PMF21124-494 (100V)
»»»  Tester S/N:	PMF21124-494
»»»  Internal Amp Type:	100V RevK 270k
»»»  Internal Amp S/N:	iAB2-596/K     
»»»  Execution Count:	1
»»»»»»»»»»»»»»»»»»»»»»»»»»»»»»»»»»»»»»»»»»««««««««««««««««««««««««««««««««««««««««««

Stored:	6/26/2025 - 19:5:33
Configured:	06/26/25 10:24:47 AM
Executed:	06/26/25 07:04:55 PM

»»»»»»»»»»»»»»»»»»»»»»»»»»»»»»»»»»» Sample Info ««««««««««««««««««««««««««««««««««««
Sample Name:	
Lot Name:	
Wafer Name:	
Die Row/Column:	0/0
Capacitor Number:	0
Sample Area (cm2):	1.00e-04
Sample Thickness (microns):	1.50e-01

Amplifier:	Internal

»»»»»»»»»»»»»»»»»»»»»»»»»»»»»»»»»»» Tester Info «««««««««««««««««««««««««««««««««««
Tester Name:	PMF21124-494 (100V)
Tester Serial Number:	PMF21124-494
Return Signal Amp. Level:	1.9 [Index: 2]

»»»»»»»»»»»»»»»»»»»»»»»»»»»»»»»» Hysteresis Info ««««««««««««««««««««««««««««««««««
Task Name:	Hyst-562
Volts:	10.00
Field:	666.67 (kV/cm)
DCBias:	0.00
DCField:	0.00 (kV/cm)
Hysteresis Period (ms):	2.00e+02
Preset:	Enabled
Preset Delay (ms):	1.00e+03
Profile:	Standard Monopolar

»»»»»»»»»»»»»»»»»»»»»»»»»»»»»»»»»»»»»» Data «««««««««««««««««««««««««««««««««««««««
Points:	2011

Valid Data

Point	Time (ms)	Drive Voltage	Measured Polarization (uC/cm2)	Capacitance (uF)	Normalized Capacitance (uF/cm2)	Dielectric Constant	Instantaneous Current (mA)
   1	0.0000e+00	-0.0048	-19.394801	0.000282	2.824415	0.478469	0.000028
   2	9.9500e-02	0.0066	-19.366694	0.000282	2.824415	0.478469	0.000028
   3	1.9900e-01	0.0150	-19.338180	0.000287	2.865349	0.485403	0.000029
   4	2.9850e-01	0.0243	-19.304778	0.000336	3.356551	0.568615	0.000034
   5	3.9800e-01	0.0343	-19.275042	0.000299	2.988149	0.506206	0.000030
   6	4.9750e-01	0.0436	-19.239196	0.000360	3.602153	0.610221	0.000036
   7	5.9700e-01	0.0531	-19.207423	0.000319	3.192817	0.540878	0.000032
   8	6.9650e-01	0.0644	-19.176873	0.000307	3.070017	0.520075	0.000031
   9	7.9600e-01	0.0729	-19.142249	0.000348	3.479352	0.589418	0.000035
  10	8.9550e-01	0.0853	-19.112920	0.000295	2.947216	0.499272	0.000029
  11	9.9500e-01	0.0970	-19.076259	0.000368	3.684020	0.624090	0.000037
  12	1.0945e+00	0.1043	-19.049374	0.000270	2.701615	0.457666	0.000027
  13	1.1940e+00	0.1158	-19.017194	0.000323	3.233751	0.547812	0.000032
  14	1.2935e+00	0.1257	-18.976867	0.000405	4.052422	0.686499	0.000041
  15	1.3930e+00	0.1346	-18.947539	0.000295	2.947216	0.499272	0.000029
  16	1.4925e+00	0.1450	-18.912915	0.000348	3.479352	0.589418	0.000035
  17	1.5920e+00	0.1567	-18.876254	0.000368	3.684020	0.624090	0.000037
  18	1.6915e+00	0.1629	-18.843666	0.000327	3.274684	0.554747	0.000033
  19	1.7910e+00	0.1755	-18.812301	0.000315	3.151884	0.533944	0.000032
  20	1.8905e+00	0.1821	-18.778084	0.000344	3.438419	0.582484	0.000034
  21	1.9900e+00	0.1951	-18.746312	0.000319	3.192817	0.540878	0.000032
  22	2.0895e+00	0.2044	-18.712909	0.000336	3.356551	0.568615	0.000034
  23	2.1890e+00	0.2151	-18.680729	0.000323	3.233751	0.547812	0.000032
  24	2.2885e+00	0.2246	-18.649364	0.000315	3.151884	0.533944	0.000032
  25	2.3880e+00	0.2351	-18.614740	0.000348	3.479352	0.589418	0.000035
  26	2.4875e+00	0.2450	-18.580930	0.000340	3.397485	0.575550	0.000034
  27	2.5870e+00	0.2532	-18.552009	0.000291	2.906282	0.492338	0.000029
  28	2.6865e+00	0.2632	-18.519014	0.000332	3.315618	0.561681	0.000033
  29	2.7860e+00	0.2770	-18.490500	0.000287	2.865349	0.485403	0.000029
  30	2.8855e+00	0.2821	-18.456691	0.000340	3.397485	0.575550	0.000034
  31	2.9850e+00	0.2936	-18.426140	0.000307	3.070017	0.520075	0.000031
  32	3.0845e+00	0.3025	-18.396812	0.000295	2.947216	0.499272	0.000029
  33	3.1840e+00	0.3152	-18.369520	0.000274	2.742548	0.464600	0.000027
  34	3.2835e+00	0.3222	-18.336932	0.000327	3.274684	0.554747	0.000033
  35	3.3830e+00	0.3320	-18.305160	0.000319	3.192817	0.540878	0.000032
  36	3.4825e+00	0.3400	-18.273794	0.000315	3.151884	0.533944	0.000032
  37	3.5820e+00	0.3542	-18.240799	0.000332	3.315618	0.561681	0.000033
  38	3.6815e+00	0.3629	-18.213508	0.000274	2.742548	0.464600	0.000027
  39	3.7810e+00	0.3722	-18.182957	0.000307	3.070017	0.520075	0.000031
  40	3.8805e+00	0.3844	-18.149555	0.000336	3.356551	0.568615	0.000034
  41	3.9800e+00	0.3941	-18.120633	0.000291	2.906282	0.492338	0.000029
  42	4.0795e+00	0.4029	-18.088861	0.000319	3.192817	0.540878	0.000032
  43	4.1790e+00	0.4124	-18.059125	0.000299	2.988149	0.506206	0.000030
  44	4.2785e+00	0.4241	-18.032647	0.000266	2.660681	0.450732	0.000027
  45	4.3780e+00	0.4307	-17.996801	0.000360	3.602153	0.610221	0.000036
  46	4.4775e+00	0.4407	-17.965843	0.000311	3.110950	0.527009	0.000031
  47	4.5770e+00	0.4519	-17.937737	0.000282	2.824415	0.478469	0.000028
  48	4.6765e+00	0.4634	-17.902705	0.000352	3.520286	0.596353	0.000035
  49	4.7760e+00	0.4732	-17.871747	0.000311	3.110950	0.527009	0.000031
  50	4.8755e+00	0.4836	-17.844048	0.000278	2.783482	0.471535	0.000028
  51	4.9750e+00	0.4936	-17.808202	0.000360	3.602153	0.610221	0.000036
  52	5.0745e+00	0.5019	-17.780910	0.000274	2.742548	0.464600	0.000027
  53	5.1740e+00	0.5131	-17.748730	0.000323	3.233751	0.547812	0.000032
  54	5.2735e+00	0.5238	-17.715735	0.000332	3.315618	0.561681	0.000033
  55	5.3730e+00	0.5326	-17.682740	0.000332	3.315618	0.561681	0.000033
  56	5.4725e+00	0.5460	-17.650560	0.000323	3.233751	0.547812	0.000032
  57	5.5720e+00	0.5530	-17.616751	0.000340	3.397485	0.575550	0.000034
  58	5.6715e+00	0.5617	-17.588237	0.000287	2.865349	0.485403	0.000029
  59	5.7710e+00	0.5750	-17.556057	0.000323	3.233751	0.547812	0.000032
  60	5.8705e+00	0.5822	-17.523062	0.000332	3.315618	0.561681	0.000033
  61	5.9700e+00	0.5951	-17.489660	0.000336	3.356551	0.568615	0.000034
  62	6.0695e+00	0.6010	-17.459109	0.000307	3.070017	0.520075	0.000031
  63	6.1690e+00	0.6143	-17.424892	0.000344	3.438419	0.582484	0.000034
  64	6.2685e+00	0.6234	-17.393934	0.000311	3.110950	0.527009	0.000031
  65	6.3680e+00	0.6328	-17.360125	0.000340	3.397485	0.575550	0.000034
  66	6.4675e+00	0.6432	-17.328759	0.000315	3.151884	0.533944	0.000032
  67	6.5670e+00	0.6518	-17.297394	0.000315	3.151884	0.533944	0.000032
  68	6.6665e+00	0.6602	-17.263585	0.000340	3.397485	0.575550	0.000034
  69	6.7660e+00	0.6727	-17.232219	0.000315	3.151884	0.533944	0.000032
  70	6.8655e+00	0.6794	-17.200854	0.000315	3.151884	0.533944	0.000032
  71	6.9650e+00	0.6938	-17.166637	0.000344	3.438419	0.582484	0.000034
  72	7.0645e+00	0.7023	-17.132013	0.000348	3.479352	0.589418	0.000035
  73	7.1640e+00	0.7132	-17.099833	0.000323	3.233751	0.547812	0.000032
  74	7.2635e+00	0.7230	-17.066838	0.000332	3.315618	0.561681	0.000033
  75	7.3630e+00	0.7308	-17.040768	0.000262	2.619747	0.443797	0.000026
  76	7.4625e+00	0.7421	-17.004922	0.000360	3.602153	0.610221	0.000036
  77	7.5620e+00	0.7538	-16.971927	0.000332	3.315618	0.561681	0.000033
  78	7.6615e+00	0.7638	-16.938933	0.000332	3.315618	0.561681	0.000033
  79	7.7610e+00	0.7727	-16.907160	0.000319	3.192817	0.540878	0.000032
  80	7.8605e+00	0.7796	-16.872943	0.000344	3.438419	0.582484	0.000034
  81	7.9600e+00	0.7905	-16.840763	0.000323	3.233751	0.547812	0.000032
  82	8.0595e+00	0.8005	-16.807768	0.000332	3.315618	0.561681	0.000033
  83	8.1590e+00	0.8116	-16.774366	0.000336	3.356551	0.568615	0.000034
  84	8.2585e+00	0.8225	-16.741779	0.000327	3.274684	0.554747	0.000033
  85	8.3580e+00	0.8327	-16.708377	0.000336	3.356551	0.568615	0.000034
  86	8.4575e+00	0.8425	-16.673345	0.000352	3.520286	0.596353	0.000035
  87	8.5570e+00	0.8520	-16.640351	0.000332	3.315618	0.561681	0.000033
  88	8.6565e+00	0.8605	-16.611429	0.000291	2.906282	0.492338	0.000029
  89	8.7560e+00	0.8720	-16.578842	0.000327	3.274684	0.554747	0.000033
  90	8.8555e+00	0.8826	-16.549921	0.000291	2.906282	0.492338	0.000029
  91	8.9550e+00	0.8913	-16.516111	0.000340	3.397485	0.575550	0.000034
  92	9.0545e+00	0.9001	-16.487190	0.000291	2.906282	0.492338	0.000029
  93	9.1540e+00	0.9094	-16.453788	0.000336	3.356551	0.568615	0.000034
  94	9.2535e+00	0.9210	-16.421608	0.000323	3.233751	0.547812	0.000032
  95	9.3530e+00	0.9293	-16.395130	0.000266	2.660681	0.450732	0.000027
  96	9.4525e+00	0.9441	-16.356433	0.000389	3.888688	0.658762	0.000039
  97	9.5520e+00	0.9521	-16.325475	0.000311	3.110950	0.527009	0.000031
  98	9.6515e+00	0.9608	-16.295331	0.000303	3.029083	0.513141	0.000030
  99	9.7510e+00	0.9695	-16.264373	0.000311	3.110950	0.527009	0.000031
 100	9.8505e+00	0.9818	-16.230971	0.000336	3.356551	0.568615	0.000034
 101	9.9500e+00	0.9877	-16.198791	0.000323	3.233751	0.547812	0.000032
 102	1.0050e+01	1.0019	-16.167019	0.000319	3.192817	0.540878	0.000032
 103	1.0149e+01	1.0128	-16.136060	0.000311	3.110950	0.527009	0.000031
 104	1.0248e+01	1.0188	-16.102251	0.000340	3.397485	0.575550	0.000034
 105	1.0348e+01	1.0312	-16.071293	0.000311	3.110950	0.527009	0.000031
 106	1.0447e+01	1.0432	-16.039113	0.000323	3.233751	0.547812	0.000032
 107	1.0547e+01	1.0500	-16.005711	0.000336	3.356551	0.568615	0.000034
 108	1.0646e+01	1.0609	-15.978419	0.000274	2.742548	0.464600	0.000027
 109	1.0746e+01	1.0696	-15.939314	0.000393	3.929621	0.665696	0.000039
 110	1.0845e+01	1.0779	-15.912429	0.000270	2.701615	0.457666	0.000027
 111	1.0945e+01	1.0925	-15.876991	0.000356	3.561219	0.603287	0.000036
 112	1.1044e+01	1.1007	-15.838293	0.000389	3.888688	0.658762	0.000039
 113	1.1144e+01	1.1092	-15.806113	0.000323	3.233751	0.547812	0.000032
 114	1.1243e+01	1.1226	-15.773526	0.000327	3.274684	0.554747	0.000033
 115	1.1343e+01	1.1295	-15.738494	0.000352	3.520286	0.596353	0.000035
 116	1.1443e+01	1.1395	-15.703870	0.000348	3.479352	0.589418	0.000035
 117	1.1542e+01	1.1491	-15.669246	0.000348	3.479352	0.589418	0.000035
 118	1.1642e+01	1.1582	-15.627290	0.000422	4.216156	0.714236	0.000042
 119	1.1741e+01	1.1702	-15.597146	0.000303	3.029083	0.513141	0.000030
 120	1.1841e+01	1.1812	-15.558041	0.000393	3.929621	0.665696	0.000039
 121	1.1940e+01	1.1901	-15.525047	0.000332	3.315618	0.561681	0.000033
 122	1.2040e+01	1.2001	-15.492867	0.000323	3.233751	0.547812	0.000032
 123	1.2139e+01	1.2092	-15.456206	0.000368	3.684020	0.624090	0.000037
 124	1.2239e+01	1.2180	-15.419545	0.000368	3.684020	0.624090	0.000037
 125	1.2338e+01	1.2270	-15.386958	0.000327	3.274684	0.554747	0.000033
 126	1.2438e+01	1.2414	-15.353555	0.000336	3.356551	0.568615	0.000034
 127	1.2537e+01	1.2499	-15.313229	0.000405	4.052422	0.686499	0.000041
 128	1.2636e+01	1.2594	-15.279826	0.000336	3.356551	0.568615	0.000034
 129	1.2736e+01	1.2685	-15.248054	0.000319	3.192817	0.540878	0.000032
 130	1.2835e+01	1.2798	-15.209764	0.000385	3.847754	0.651827	0.000038
 131	1.2935e+01	1.2911	-15.173103	0.000368	3.684020	0.624090	0.000037
 132	1.3034e+01	1.2976	-15.141737	0.000315	3.151884	0.533944	0.000032
 133	1.3134e+01	1.3085	-15.107928	0.000340	3.397485	0.575550	0.000034
 134	1.3233e+01	1.3173	-15.072896	0.000352	3.520286	0.596353	0.000035
 135	1.3333e+01	1.3282	-15.038272	0.000348	3.479352	0.589418	0.000035
 136	1.3432e+01	1.3371	-15.006500	0.000319	3.192817	0.540878	0.000032
 137	1.3532e+01	1.3510	-14.973098	0.000336	3.356551	0.568615	0.000034
 138	1.3632e+01	1.3577	-14.938066	0.000352	3.520286	0.596353	0.000035
 139	1.3731e+01	1.3670	-14.901813	0.000364	3.643086	0.617156	0.000036
 140	1.3831e+01	1.3808	-14.869225	0.000327	3.274684	0.554747	0.000033
 141	1.3930e+01	1.3873	-14.838674	0.000307	3.070017	0.520075	0.000031
 142	1.4030e+01	1.3998	-14.799162	0.000397	3.970555	0.672630	0.000040
 143	1.4129e+01	1.4117	-14.767797	0.000315	3.151884	0.533944	0.000032
 144	1.4229e+01	1.4174	-14.729507	0.000385	3.847754	0.651827	0.000038
 145	1.4328e+01	1.4272	-14.697734	0.000319	3.192817	0.540878	0.000032
 146	1.4428e+01	1.4394	-14.663110	0.000348	3.479352	0.589418	0.000035
 147	1.4527e+01	1.4483	-14.628486	0.000348	3.479352	0.589418	0.000035
 148	1.4627e+01	1.4603	-14.600379	0.000282	2.824415	0.478469	0.000028
 149	1.4726e+01	1.4697	-14.566162	0.000344	3.438419	0.582484	0.000034
 150	1.4825e+01	1.4765	-14.531946	0.000344	3.438419	0.582484	0.000034
 151	1.4925e+01	1.4871	-14.496507	0.000356	3.561219	0.603287	0.000036
 152	1.5024e+01	1.4986	-14.459031	0.000377	3.765887	0.637959	0.000038
 153	1.5124e+01	1.5082	-14.428073	0.000311	3.110950	0.527009	0.000031
 154	1.5223e+01	1.5179	-14.396300	0.000319	3.192817	0.540878	0.000032
 155	1.5323e+01	1.5272	-14.364120	0.000323	3.233751	0.547812	0.000032
 156	1.5422e+01	1.5366	-14.326238	0.000381	3.806821	0.644893	0.000038
 157	1.5522e+01	1.5470	-14.297724	0.000287	2.865349	0.485403	0.000029
 158	1.5621e+01	1.5586	-14.260248	0.000377	3.765887	0.637959	0.000038
 159	1.5721e+01	1.5680	-14.226846	0.000336	3.356551	0.568615	0.000034
 160	1.5820e+01	1.5799	-14.194259	0.000327	3.274684	0.554747	0.000033
 161	1.5920e+01	1.5887	-14.162486	0.000319	3.192817	0.540878	0.000032
 162	1.6020e+01	1.5971	-14.129084	0.000336	3.356551	0.568615	0.000034
 163	1.6119e+01	1.6087	-14.094460	0.000348	3.479352	0.589418	0.000035
 164	1.6218e+01	1.6151	-14.059836	0.000348	3.479352	0.589418	0.000035
 165	1.6318e+01	1.6266	-14.026433	0.000336	3.356551	0.568615	0.000034
 166	1.6418e+01	1.6380	-13.992624	0.000340	3.397485	0.575550	0.000034
 167	1.6517e+01	1.6467	-13.959629	0.000332	3.315618	0.561681	0.000033
 168	1.6616e+01	1.6582	-13.927857	0.000319	3.192817	0.540878	0.000032
 169	1.6716e+01	1.6650	-13.894047	0.000340	3.397485	0.575550	0.000034
 170	1.6816e+01	1.6779	-13.861867	0.000323	3.233751	0.547812	0.000032
 171	1.6915e+01	1.6862	-13.824392	0.000377	3.765887	0.637959	0.000038
 172	1.7015e+01	1.6987	-13.790175	0.000344	3.438419	0.582484	0.000034
 173	1.7114e+01	1.7081	-13.754736	0.000356	3.561219	0.603287	0.000036
 174	1.7213e+01	1.7186	-13.720927	0.000340	3.397485	0.575550	0.000034
 175	1.7313e+01	1.7289	-13.685488	0.000356	3.561219	0.603287	0.000036
 176	1.7413e+01	1.7370	-13.650456	0.000352	3.520286	0.596353	0.000035
 177	1.7512e+01	1.7482	-13.615832	0.000348	3.479352	0.589418	0.000035
 178	1.7611e+01	1.7562	-13.586503	0.000295	2.947216	0.499272	0.000029
 179	1.7711e+01	1.7667	-13.549028	0.000377	3.765887	0.637959	0.000038
 180	1.7811e+01	1.7775	-13.514811	0.000344	3.438419	0.582484	0.000034
 181	1.7910e+01	1.7888	-13.482631	0.000323	3.233751	0.547812	0.000032
 182	1.8009e+01	1.7967	-13.448414	0.000344	3.438419	0.582484	0.000034
 183	1.8109e+01	1.8063	-13.412568	0.000360	3.602153	0.610221	0.000036
 184	1.8209e+01	1.8172	-13.378351	0.000344	3.438419	0.582484	0.000034
 185	1.8308e+01	1.8267	-13.343320	0.000352	3.520286	0.596353	0.000035
 186	1.8407e+01	1.8359	-13.310733	0.000327	3.274684	0.554747	0.000033
 187	1.8507e+01	1.8468	-13.274479	0.000364	3.643086	0.617156	0.000036
 188	1.8607e+01	1.8568	-13.237818	0.000368	3.684020	0.624090	0.000037
 189	1.8706e+01	1.8663	-13.206046	0.000319	3.192817	0.540878	0.000032
 190	1.8805e+01	1.8774	-13.169792	0.000364	3.643086	0.617156	0.000036
 191	1.8905e+01	1.8872	-13.137612	0.000323	3.233751	0.547812	0.000032
 192	1.9005e+01	1.8964	-13.106654	0.000311	3.110950	0.527009	0.000031
 193	1.9104e+01	1.9066	-13.069586	0.000372	3.724953	0.631024	0.000037
 194	1.9203e+01	1.9172	-13.039442	0.000303	3.029083	0.513141	0.000030
 195	1.9303e+01	1.9260	-13.006855	0.000327	3.274684	0.554747	0.000033
 196	1.9402e+01	1.9358	-12.976304	0.000307	3.070017	0.520075	0.000031
 197	1.9502e+01	1.9469	-12.940866	0.000356	3.561219	0.603287	0.000036
 198	1.9602e+01	1.9552	-12.911944	0.000291	2.906282	0.492338	0.000029
 199	1.9701e+01	1.9688	-12.883838	0.000282	2.824415	0.478469	0.000028
 200	1.9800e+01	1.9753	-12.849213	0.000348	3.479352	0.589418	0.000035
 201	1.9900e+01	1.9855	-12.819070	0.000303	3.029083	0.513141	0.000030
 202	2.0000e+01	1.9956	-12.788519	0.000307	3.070017	0.520075	0.000031
 203	2.0099e+01	2.0042	-12.756339	0.000323	3.233751	0.547812	0.000032
 204	2.0198e+01	2.0136	-12.722530	0.000340	3.397485	0.575550	0.000034
 205	2.0298e+01	2.0244	-12.691572	0.000311	3.110950	0.527009	0.000031
 206	2.0398e+01	2.0364	-12.660614	0.000311	3.110950	0.527009	0.000031
 207	2.0497e+01	2.0442	-12.627619	0.000332	3.315618	0.561681	0.000033
 208	2.0596e+01	2.0521	-12.597883	0.000299	2.988149	0.506206	0.000030
 209	2.0696e+01	2.0646	-12.563666	0.000344	3.438419	0.582484	0.000034
 210	2.0796e+01	2.0742	-12.537189	0.000266	2.660681	0.450732	0.000027
 211	2.0895e+01	2.0846	-12.505009	0.000323	3.233751	0.547812	0.000032
 212	2.0994e+01	2.0947	-12.476902	0.000282	2.824415	0.478469	0.000028
 213	2.1094e+01	2.1064	-12.443908	0.000332	3.315618	0.561681	0.000033
 214	2.1194e+01	2.1128	-12.409691	0.000344	3.438419	0.582484	0.000034
 215	2.1293e+01	2.1246	-12.384436	0.000254	2.537880	0.429929	0.000025
 216	2.1392e+01	2.1349	-12.349811	0.000348	3.479352	0.589418	0.000035
 217	2.1492e+01	2.1439	-12.316002	0.000340	3.397485	0.575550	0.000034
 218	2.1591e+01	2.1566	-12.287081	0.000291	2.906282	0.492338	0.000029
 219	2.1691e+01	2.1638	-12.253679	0.000336	3.356551	0.568615	0.000034
 220	2.1791e+01	2.1743	-12.218240	0.000356	3.561219	0.603287	0.000036
 221	2.1890e+01	2.1847	-12.188096	0.000303	3.029083	0.513141	0.000030
 222	2.1989e+01	2.1967	-12.155509	0.000327	3.274684	0.554747	0.000033
 223	2.2089e+01	2.2051	-12.125773	0.000299	2.988149	0.506206	0.000030
 224	2.2189e+01	2.2117	-12.090742	0.000352	3.520286	0.596353	0.000035
 225	2.2288e+01	2.2237	-12.062228	0.000287	2.865349	0.485403	0.000029
 226	2.2387e+01	2.2359	-12.031270	0.000311	3.110950	0.527009	0.000031
 227	2.2487e+01	2.2455	-11.998275	0.000332	3.315618	0.561681	0.000033
 228	2.2587e+01	2.2553	-11.964873	0.000336	3.356551	0.568615	0.000034
 229	2.2686e+01	2.2629	-11.933915	0.000311	3.110950	0.527009	0.000031
 230	2.2785e+01	2.2744	-11.902142	0.000319	3.192817	0.540878	0.000032
 231	2.2885e+01	2.2874	-11.867111	0.000352	3.520286	0.596353	0.000035
 232	2.2985e+01	2.2933	-11.837782	0.000295	2.947216	0.499272	0.000029
 233	2.3084e+01	2.3064	-11.800306	0.000377	3.765887	0.637959	0.000038
 234	2.3183e+01	2.3139	-11.770163	0.000303	3.029083	0.513141	0.000030
 235	2.3283e+01	2.3232	-11.733910	0.000364	3.643086	0.617156	0.000036
 236	2.3383e+01	2.3330	-11.703359	0.000307	3.070017	0.520075	0.000031
 237	2.3482e+01	2.3444	-11.673215	0.000303	3.029083	0.513141	0.000030
 238	2.3581e+01	2.3523	-11.638999	0.000344	3.438419	0.582484	0.000034
 239	2.3681e+01	2.3615	-11.610892	0.000282	2.824415	0.478469	0.000028
 240	2.3780e+01	2.3727	-11.576675	0.000344	3.438419	0.582484	0.000034
 241	2.3880e+01	2.3862	-11.540829	0.000360	3.602153	0.610221	0.000036
 242	2.3980e+01	2.3946	-11.512723	0.000282	2.824415	0.478469	0.000028
 243	2.4079e+01	2.4038	-11.478506	0.000344	3.438419	0.582484	0.000034
 244	2.4178e+01	2.4158	-11.443474	0.000352	3.520286	0.596353	0.000035
 245	2.4278e+01	2.4225	-11.411702	0.000319	3.192817	0.540878	0.000032
 246	2.4378e+01	2.4338	-11.381151	0.000307	3.070017	0.520075	0.000031
 247	2.4477e+01	2.4449	-11.347341	0.000340	3.397485	0.575550	0.000034
 248	2.4576e+01	2.4539	-11.309459	0.000381	3.806821	0.644893	0.000038
 249	2.4676e+01	2.4628	-11.281759	0.000278	2.783482	0.471535	0.000028
 250	2.4776e+01	2.4744	-11.247543	0.000344	3.438419	0.582484	0.000034
 251	2.4875e+01	2.4833	-11.212511	0.000352	3.520286	0.596353	0.000035
 252	2.4974e+01	2.4942	-11.179924	0.000327	3.274684	0.554747	0.000033
 253	2.5074e+01	2.5042	-11.148558	0.000315	3.151884	0.533944	0.000032
 254	2.5174e+01	2.5169	-11.116786	0.000319	3.192817	0.540878	0.000032
 255	2.5273e+01	2.5240	-11.082161	0.000348	3.479352	0.589418	0.000035
 256	2.5372e+01	2.5338	-11.055277	0.000270	2.701615	0.457666	0.000027
 257	2.5472e+01	2.5419	-11.020245	0.000352	3.520286	0.596353	0.000035
 258	2.5572e+01	2.5523	-10.992953	0.000274	2.742548	0.464600	0.000027
 259	2.5671e+01	2.5642	-10.959144	0.000340	3.397485	0.575550	0.000034
 260	2.5770e+01	2.5715	-10.931852	0.000274	2.742548	0.464600	0.000027
 261	2.5870e+01	2.5821	-10.898857	0.000332	3.315618	0.561681	0.000033
 262	2.5970e+01	2.5938	-10.868307	0.000307	3.070017	0.520075	0.000031
 263	2.6069e+01	2.6007	-10.832460	0.000360	3.602153	0.610221	0.000036
 264	2.6169e+01	2.6131	-10.804761	0.000278	2.783482	0.471535	0.000028
 265	2.6268e+01	2.6221	-10.772174	0.000327	3.274684	0.554747	0.000033
 266	2.6367e+01	2.6317	-10.737957	0.000344	3.438419	0.582484	0.000034
 267	2.6467e+01	2.6429	-10.711480	0.000266	2.660681	0.450732	0.000027
 268	2.6567e+01	2.6495	-10.678485	0.000332	3.315618	0.561681	0.000033
 269	2.6666e+01	2.6608	-10.647120	0.000315	3.151884	0.533944	0.000032
 270	2.6765e+01	2.6698	-10.614532	0.000327	3.274684	0.554747	0.000033
 271	2.6865e+01	2.6804	-10.579908	0.000348	3.479352	0.589418	0.000035
 272	2.6965e+01	2.6907	-10.555060	0.000250	2.496947	0.422994	0.000025
 273	2.7064e+01	2.7042	-10.517992	0.000372	3.724953	0.631024	0.000037
 274	2.7163e+01	2.7105	-10.490700	0.000274	2.742548	0.464600	0.000027
 275	2.7263e+01	2.7222	-10.454039	0.000368	3.684020	0.624090	0.000037
 276	2.7363e+01	2.7331	-10.422674	0.000315	3.151884	0.533944	0.000032
 277	2.7462e+01	2.7417	-10.392123	0.000307	3.070017	0.520075	0.000031
 278	2.7561e+01	2.7522	-10.358721	0.000336	3.356551	0.568615	0.000034
 279	2.7661e+01	2.7625	-10.325726	0.000332	3.315618	0.561681	0.000033
 280	2.7761e+01	2.7706	-10.292324	0.000336	3.356551	0.568615	0.000034
 281	2.7860e+01	2.7821	-10.258922	0.000336	3.356551	0.568615	0.000034
 282	2.7959e+01	2.7940	-10.221854	0.000372	3.724953	0.631024	0.000037
 283	2.8059e+01	2.8036	-10.184786	0.000372	3.724953	0.631024	0.000037
 284	2.8159e+01	2.8141	-10.150976	0.000340	3.397485	0.575550	0.000034
 285	2.8258e+01	2.8224	-10.116352	0.000348	3.479352	0.589418	0.000035
 286	2.8358e+01	2.8311	-10.079691	0.000368	3.684020	0.624090	0.000037
 287	2.8457e+01	2.8397	-10.046697	0.000332	3.315618	0.561681	0.000033
 288	2.8556e+01	2.8513	-10.014109	0.000327	3.274684	0.554747	0.000033
 289	2.8656e+01	2.8603	-9.981522	0.000327	3.274684	0.554747	0.000033
 290	2.8756e+01	2.8692	-9.946083	0.000356	3.561219	0.603287	0.000036
 291	2.8855e+01	2.8819	-9.913088	0.000332	3.315618	0.561681	0.000033
 292	2.8954e+01	2.8915	-9.876835	0.000364	3.643086	0.617156	0.000036
 293	2.9054e+01	2.9047	-9.840581	0.000364	3.643086	0.617156	0.000036
 294	2.9154e+01	2.9107	-9.805550	0.000352	3.520286	0.596353	0.000035
 295	2.9253e+01	2.9213	-9.770111	0.000356	3.561219	0.603287	0.000036
 296	2.9352e+01	2.9324	-9.737524	0.000327	3.274684	0.554747	0.000033
 297	2.9452e+01	2.9442	-9.703714	0.000340	3.397485	0.575550	0.000034
 298	2.9552e+01	2.9520	-9.667053	0.000368	3.684020	0.624090	0.000037
 299	2.9651e+01	2.9617	-9.635688	0.000315	3.151884	0.533944	0.000032
 300	2.9750e+01	2.9695	-9.599842	0.000360	3.602153	0.610221	0.000036
 301	2.9850e+01	2.9814	-9.569699	0.000303	3.029083	0.513141	0.000030
 302	2.9950e+01	2.9880	-9.531001	0.000389	3.888688	0.658762	0.000039
 303	3.0049e+01	2.9996	-9.498414	0.000327	3.274684	0.554747	0.000033
 304	3.0148e+01	3.0114	-9.464197	0.000344	3.438419	0.582484	0.000034
 305	3.0248e+01	3.0184	-9.432831	0.000315	3.151884	0.533944	0.000032
 306	3.0348e+01	3.0316	-9.396985	0.000360	3.602153	0.610221	0.000036
 307	3.0447e+01	3.0398	-9.364398	0.000327	3.274684	0.554747	0.000033
 308	3.0547e+01	3.0479	-9.336699	0.000278	2.783482	0.471535	0.000028
 309	3.0646e+01	3.0647	-9.300445	0.000364	3.643086	0.617156	0.000036
 310	3.0745e+01	3.0707	-9.265006	0.000356	3.561219	0.603287	0.000036
 311	3.0845e+01	3.0816	-9.234456	0.000307	3.070017	0.520075	0.000031
 312	3.0945e+01	3.0901	-9.201054	0.000336	3.356551	0.568615	0.000034
 313	3.1044e+01	3.1013	-9.166429	0.000348	3.479352	0.589418	0.000035
 314	3.1143e+01	3.1100	-9.134249	0.000323	3.233751	0.547812	0.000032
 315	3.1243e+01	3.1216	-9.102884	0.000315	3.151884	0.533944	0.000032
 316	3.1343e+01	3.1322	-9.068260	0.000348	3.479352	0.589418	0.000035
 317	3.1442e+01	3.1400	-9.035265	0.000332	3.315618	0.561681	0.000033
 318	3.1541e+01	3.1501	-9.003492	0.000319	3.192817	0.540878	0.000032
 319	3.1641e+01	3.1612	-8.969683	0.000340	3.397485	0.575550	0.000034
 320	3.1741e+01	3.1692	-8.937096	0.000327	3.274684	0.554747	0.000033
 321	3.1840e+01	3.1805	-8.902879	0.000344	3.438419	0.582484	0.000034
 322	3.1939e+01	3.1901	-8.873550	0.000295	2.947216	0.499272	0.000029
 323	3.2039e+01	3.2000	-8.837297	0.000364	3.643086	0.617156	0.000036
 324	3.2139e+01	3.2104	-8.805117	0.000323	3.233751	0.547812	0.000032
 325	3.2238e+01	3.2173	-8.775381	0.000299	2.988149	0.506206	0.000030
 326	3.2337e+01	3.2293	-8.742793	0.000327	3.274684	0.554747	0.000033
 327	3.2437e+01	3.2426	-8.705318	0.000377	3.765887	0.637959	0.000038
 328	3.2536e+01	3.2495	-8.673545	0.000319	3.192817	0.540878	0.000032
 329	3.2636e+01	3.2574	-8.639736	0.000340	3.397485	0.575550	0.000034
 330	3.2736e+01	3.2685	-8.610407	0.000295	2.947216	0.499272	0.000029
 331	3.2835e+01	3.2766	-8.576597	0.000340	3.397485	0.575550	0.000034
 332	3.2934e+01	3.2899	-8.548083	0.000287	2.865349	0.485403	0.000029
 333	3.3034e+01	3.3000	-8.512237	0.000360	3.602153	0.610221	0.000036
 334	3.3133e+01	3.3109	-8.476798	0.000356	3.561219	0.603287	0.000036
 335	3.3233e+01	3.3173	-8.449914	0.000270	2.701615	0.457666	0.000027
 336	3.3333e+01	3.3297	-8.413660	0.000364	3.643086	0.617156	0.000036
 337	3.3432e+01	3.3388	-8.383110	0.000307	3.070017	0.520075	0.000031
 338	3.3532e+01	3.3504	-8.349708	0.000336	3.356551	0.568615	0.000034
 339	3.3631e+01	3.3581	-8.317935	0.000319	3.192817	0.540878	0.000032
 340	3.3730e+01	3.3683	-8.280052	0.000381	3.806821	0.644893	0.000038
 341	3.3830e+01	3.3785	-8.246650	0.000336	3.356551	0.568615	0.000034
 342	3.3929e+01	3.3904	-8.215692	0.000311	3.110950	0.527009	0.000031
 343	3.4029e+01	3.3953	-8.179438	0.000364	3.643086	0.617156	0.000036
 344	3.4129e+01	3.4104	-8.148888	0.000307	3.070017	0.520075	0.000031
 345	3.4228e+01	3.4185	-8.114264	0.000348	3.479352	0.589418	0.000035
 346	3.4328e+01	3.4290	-8.080454	0.000340	3.397485	0.575550	0.000034
 347	3.4427e+01	3.4389	-8.046237	0.000344	3.438419	0.582484	0.000034
 348	3.4526e+01	3.4489	-8.014872	0.000315	3.151884	0.533944	0.000032
 349	3.4626e+01	3.4570	-7.979841	0.000352	3.520286	0.596353	0.000035
 350	3.4725e+01	3.4673	-7.944809	0.000352	3.520286	0.596353	0.000035
 351	3.4825e+01	3.4766	-7.915480	0.000295	2.947216	0.499272	0.000029
 352	3.4925e+01	3.4866	-7.878005	0.000377	3.765887	0.637959	0.000038
 353	3.5024e+01	3.4960	-7.846232	0.000319	3.192817	0.540878	0.000032
 354	3.5123e+01	3.5114	-7.812830	0.000336	3.356551	0.568615	0.000034
 355	3.5223e+01	3.5194	-7.778613	0.000344	3.438419	0.582484	0.000034
 356	3.5322e+01	3.5303	-7.746026	0.000327	3.274684	0.554747	0.000033
 357	3.5422e+01	3.5381	-7.714661	0.000315	3.151884	0.533944	0.000032
 358	3.5522e+01	3.5467	-7.679629	0.000352	3.520286	0.596353	0.000035
 359	3.5621e+01	3.5577	-7.648671	0.000311	3.110950	0.527009	0.000031
 360	3.5721e+01	3.5705	-7.618528	0.000303	3.029083	0.513141	0.000030
 361	3.5820e+01	3.5792	-7.584311	0.000344	3.438419	0.582484	0.000034
 362	3.5919e+01	3.5900	-7.554168	0.000303	3.029083	0.513141	0.000030
 363	3.6019e+01	3.5983	-7.520358	0.000340	3.397485	0.575550	0.000034
 364	3.6118e+01	3.6073	-7.493474	0.000270	2.701615	0.457666	0.000027
 365	3.6218e+01	3.6190	-7.458035	0.000356	3.561219	0.603287	0.000036
 366	3.6318e+01	3.6272	-7.428706	0.000295	2.947216	0.499272	0.000029
 367	3.6417e+01	3.6364	-7.399377	0.000295	2.947216	0.499272	0.000029
 368	3.6517e+01	3.6462	-7.370049	0.000295	2.947216	0.499272	0.000029
 369	3.6616e+01	3.6573	-7.336647	0.000336	3.356551	0.568615	0.000034
 370	3.6715e+01	3.6677	-7.309355	0.000274	2.742548	0.464600	0.000027
 371	3.6815e+01	3.6783	-7.275138	0.000344	3.438419	0.582484	0.000034
 372	3.6914e+01	3.6873	-7.246217	0.000291	2.906282	0.492338	0.000029
 373	3.7014e+01	3.6977	-7.217295	0.000291	2.906282	0.492338	0.000029
 374	3.7114e+01	3.7057	-7.186745	0.000307	3.070017	0.520075	0.000031
 375	3.7213e+01	3.7180	-7.156194	0.000307	3.070017	0.520075	0.000031
 376	3.7313e+01	3.7309	-7.122385	0.000340	3.397485	0.575550	0.000034
 377	3.7412e+01	3.7379	-7.097129	0.000254	2.537880	0.429929	0.000025
 378	3.7511e+01	3.7472	-7.068615	0.000287	2.865349	0.485403	0.000029
 379	3.7611e+01	3.7586	-7.036843	0.000319	3.192817	0.540878	0.000032
 380	3.7711e+01	3.7686	-7.010365	0.000266	2.660681	0.450732	0.000027
 381	3.7810e+01	3.7748	-6.974519	0.000360	3.602153	0.610221	0.000036
 382	3.7910e+01	3.7858	-6.946005	0.000287	2.865349	0.485403	0.000029
 383	3.8009e+01	3.7950	-6.919935	0.000262	2.619747	0.443797	0.000026
 384	3.8108e+01	3.8079	-6.886941	0.000332	3.315618	0.561681	0.000033
 385	3.8208e+01	3.8174	-6.855575	0.000315	3.151884	0.533944	0.000032
 386	3.8307e+01	3.8264	-6.825432	0.000303	3.029083	0.513141	0.000030
 387	3.8407e+01	3.8358	-6.794474	0.000311	3.110950	0.527009	0.000031
 388	3.8507e+01	3.8479	-6.759850	0.000348	3.479352	0.589418	0.000035
 389	3.8606e+01	3.8551	-6.728077	0.000319	3.192817	0.540878	0.000032
 390	3.8706e+01	3.8673	-6.701600	0.000266	2.660681	0.450732	0.000027
 391	3.8805e+01	3.8744	-6.670642	0.000311	3.110950	0.527009	0.000031
 392	3.8904e+01	3.8837	-6.640091	0.000307	3.070017	0.520075	0.000031
 393	3.9004e+01	3.8955	-6.607096	0.000332	3.315618	0.561681	0.000033
 394	3.9103e+01	3.9063	-6.572472	0.000348	3.479352	0.589418	0.000035
 395	3.9203e+01	3.9151	-6.548032	0.000246	2.456013	0.416060	0.000025
 396	3.9303e+01	3.9268	-6.513407	0.000348	3.479352	0.589418	0.000035
 397	3.9402e+01	3.9346	-6.483671	0.000299	2.988149	0.506206	0.000030
 398	3.9502e+01	3.9486	-6.452713	0.000311	3.110950	0.527009	0.000031
 399	3.9601e+01	3.9555	-6.417682	0.000352	3.520286	0.596353	0.000035
 400	3.9700e+01	3.9674	-6.390390	0.000274	2.742548	0.464600	0.000027
 401	3.9800e+01	3.9761	-6.356173	0.000344	3.438419	0.582484	0.000034
 402	3.9900e+01	3.9868	-6.328881	0.000274	2.742548	0.464600	0.000027
 403	3.9999e+01	3.9956	-6.293850	0.000352	3.520286	0.596353	0.000035
 404	4.0099e+01	4.0044	-6.265743	0.000282	2.824415	0.478469	0.000028
 405	4.0198e+01	4.0147	-6.231526	0.000344	3.438419	0.582484	0.000034
 406	4.0297e+01	4.0272	-6.203420	0.000282	2.824415	0.478469	0.000028
 407	4.0397e+01	4.0356	-6.168796	0.000348	3.479352	0.589418	0.000035
 408	4.0496e+01	4.0454	-6.137023	0.000319	3.192817	0.540878	0.000032
 409	4.0596e+01	4.0576	-6.106472	0.000307	3.070017	0.520075	0.000031
 410	4.0696e+01	4.0639	-6.076329	0.000303	3.029083	0.513141	0.000030
 411	4.0795e+01	4.0717	-6.047000	0.000295	2.947216	0.499272	0.000029
 412	4.0895e+01	4.0849	-6.012783	0.000344	3.438419	0.582484	0.000034
 413	4.0994e+01	4.0953	-5.981825	0.000311	3.110950	0.527009	0.000031
 414	4.1093e+01	4.1062	-5.950460	0.000315	3.151884	0.533944	0.000032
 415	4.1193e+01	4.1142	-5.919095	0.000315	3.151884	0.533944	0.000032
 416	4.1292e+01	4.1277	-5.889359	0.000299	2.988149	0.506206	0.000030
 417	4.1392e+01	4.1370	-5.857586	0.000319	3.192817	0.540878	0.000032
 418	4.1492e+01	4.1457	-5.822147	0.000356	3.561219	0.603287	0.000036
 419	4.1591e+01	4.1575	-5.790782	0.000315	3.151884	0.533944	0.000032
 420	4.1691e+01	4.1665	-5.757380	0.000336	3.356551	0.568615	0.000034
 421	4.1790e+01	4.1735	-5.725200	0.000323	3.233751	0.547812	0.000032
 422	4.1889e+01	4.1836	-5.698722	0.000266	2.660681	0.450732	0.000027
 423	4.1989e+01	4.1930	-5.666542	0.000323	3.233751	0.547812	0.000032
 424	4.2089e+01	4.2041	-5.636806	0.000299	2.988149	0.506206	0.000030
 425	4.2188e+01	4.2124	-5.607070	0.000299	2.988149	0.506206	0.000030
 426	4.2288e+01	4.2245	-5.577334	0.000299	2.988149	0.506206	0.000030
 427	4.2387e+01	4.2336	-5.546784	0.000307	3.070017	0.520075	0.000031
 428	4.2486e+01	4.2421	-5.513789	0.000332	3.315618	0.561681	0.000033
 429	4.2586e+01	4.2539	-5.486497	0.000274	2.742548	0.464600	0.000027
 430	4.2685e+01	4.2625	-5.457168	0.000295	2.947216	0.499272	0.000029
 431	4.2785e+01	4.2745	-5.423359	0.000340	3.397485	0.575550	0.000034
 432	4.2885e+01	4.2829	-5.392401	0.000311	3.110950	0.527009	0.000031
 433	4.2984e+01	4.2945	-5.359813	0.000327	3.274684	0.554747	0.000033
 434	4.3084e+01	4.3066	-5.328041	0.000319	3.192817	0.540878	0.000032
 435	4.3183e+01	4.3122	-5.302785	0.000254	2.537880	0.429929	0.000025
 436	4.3282e+01	4.3252	-5.271420	0.000315	3.151884	0.533944	0.000032
 437	4.3382e+01	4.3305	-5.244943	0.000266	2.660681	0.450732	0.000027
 438	4.3481e+01	4.3426	-5.209911	0.000352	3.520286	0.596353	0.000035
 439	4.3581e+01	4.3561	-5.183027	0.000270	2.701615	0.457666	0.000027
 440	4.3681e+01	4.3618	-5.150847	0.000323	3.233751	0.547812	0.000032
 441	4.3780e+01	4.3742	-5.119889	0.000311	3.110950	0.527009	0.000031
 442	4.3880e+01	4.3822	-5.090560	0.000295	2.947216	0.499272	0.000029
 443	4.3979e+01	4.3961	-5.057565	0.000332	3.315618	0.561681	0.000033
 444	4.4078e+01	4.4041	-5.024978	0.000327	3.274684	0.554747	0.000033
 445	4.4178e+01	4.4112	-4.995242	0.000299	2.988149	0.506206	0.000030
 446	4.4278e+01	4.4224	-4.960618	0.000348	3.479352	0.589418	0.000035
 447	4.4377e+01	4.4334	-4.931289	0.000295	2.947216	0.499272	0.000029
 448	4.4477e+01	4.4477	-4.902368	0.000291	2.906282	0.492338	0.000029
 449	4.4576e+01	4.4540	-4.864077	0.000385	3.847754	0.651827	0.000038
 450	4.4675e+01	4.4628	-4.831897	0.000323	3.233751	0.547812	0.000032
 451	4.4775e+01	4.4740	-4.796866	0.000352	3.520286	0.596353	0.000035
 452	4.4874e+01	4.4842	-4.761834	0.000352	3.520286	0.596353	0.000035
 453	4.4974e+01	4.4949	-4.731284	0.000307	3.070017	0.520075	0.000031
 454	4.5074e+01	4.5016	-4.697474	0.000340	3.397485	0.575550	0.000034
 455	4.5173e+01	4.5118	-4.664480	0.000332	3.315618	0.561681	0.000033
 456	4.5273e+01	4.5245	-4.631892	0.000327	3.274684	0.554747	0.000033
 457	4.5372e+01	4.5338	-4.598490	0.000336	3.356551	0.568615	0.000034
 458	4.5471e+01	4.5452	-4.563051	0.000356	3.561219	0.603287	0.000036
 459	4.5571e+01	4.5561	-4.532908	0.000303	3.029083	0.513141	0.000030
 460	4.5670e+01	4.5610	-4.496247	0.000368	3.684020	0.624090	0.000037
 461	4.5770e+01	4.5713	-4.461623	0.000348	3.479352	0.589418	0.000035
 462	4.5870e+01	4.5845	-4.426184	0.000356	3.561219	0.603287	0.000036
 463	4.5969e+01	4.5931	-4.395226	0.000311	3.110950	0.527009	0.000031
 464	4.6069e+01	4.6035	-4.361417	0.000340	3.397485	0.575550	0.000034
 465	4.6168e+01	4.6127	-4.327607	0.000340	3.397485	0.575550	0.000034
 466	4.6267e+01	4.6218	-4.293390	0.000344	3.438419	0.582484	0.000034
 467	4.6367e+01	4.6326	-4.260803	0.000327	3.274684	0.554747	0.000033
 468	4.6467e+01	4.6429	-4.226179	0.000348	3.479352	0.589418	0.000035
 469	4.6566e+01	4.6526	-4.193999	0.000323	3.233751	0.547812	0.000032
 470	4.6666e+01	4.6616	-4.162634	0.000315	3.151884	0.533944	0.000032
 471	4.6765e+01	4.6727	-4.131268	0.000315	3.151884	0.533944	0.000032
 472	4.6864e+01	4.6815	-4.099088	0.000323	3.233751	0.547812	0.000032
 473	4.6964e+01	4.6932	-4.066093	0.000332	3.315618	0.561681	0.000033
 474	4.7063e+01	4.7109	-4.035135	0.000311	3.110950	0.527009	0.000031
 475	4.7163e+01	4.7101	-4.003363	-0.000319	-3.192817	-0.540878	0.000032
 476	4.7263e+01	4.7204	-3.971590	0.000319	3.192817	0.540878	0.000032
 477	4.7362e+01	4.7322	-3.937780	0.000340	3.397485	0.575550	0.000034
 478	4.7462e+01	4.7425	-3.903971	0.000340	3.397485	0.575550	0.000034
 479	4.7561e+01	4.7511	-3.873420	0.000307	3.070017	0.520075	0.000031
 480	4.7660e+01	4.7614	-3.840833	0.000327	3.274684	0.554747	0.000033
 481	4.7760e+01	4.7713	-3.806209	0.000348	3.479352	0.589418	0.000035
 482	4.7859e+01	4.7820	-3.778510	0.000278	2.783482	0.471535	0.000028
 483	4.7959e+01	4.7919	-3.744293	0.000344	3.438419	0.582484	0.000034
 484	4.8059e+01	4.8016	-3.711705	0.000327	3.274684	0.554747	0.000033
 485	4.8158e+01	4.8096	-3.678711	0.000332	3.315618	0.561681	0.000033
 486	4.8258e+01	4.8197	-3.647753	0.000311	3.110950	0.527009	0.000031
 487	4.8357e+01	4.8296	-3.615165	0.000327	3.274684	0.554747	0.000033
 488	4.8456e+01	4.8410	-3.585836	0.000295	2.947216	0.499272	0.000029
 489	4.8556e+01	4.8498	-3.551620	0.000344	3.438419	0.582484	0.000034
 490	4.8656e+01	4.8643	-3.520662	0.000311	3.110950	0.527009	0.000031
 491	4.8755e+01	4.8694	-3.486445	0.000344	3.438419	0.582484	0.000034
 492	4.8855e+01	4.8800	-3.455894	0.000307	3.070017	0.520075	0.000031
 493	4.8954e+01	4.8913	-3.424936	0.000311	3.110950	0.527009	0.000031
 494	4.9053e+01	4.9026	-3.393163	0.000319	3.192817	0.540878	0.000032
 495	4.9153e+01	4.9123	-3.359354	0.000340	3.397485	0.575550	0.000034
 496	4.9252e+01	4.9211	-3.328803	0.000307	3.070017	0.520075	0.000031
 497	4.9352e+01	4.9310	-3.299882	0.000291	2.906282	0.492338	0.000029
 498	4.9452e+01	4.9419	-3.266887	0.000332	3.315618	0.561681	0.000033
 499	4.9551e+01	4.9506	-3.233893	0.000332	3.315618	0.561681	0.000033
 500	4.9651e+01	4.9601	-3.205379	0.000287	2.865349	0.485403	0.000029
 501	4.9750e+01	4.9719	-3.170754	0.000348	3.479352	0.589418	0.000035
 502	4.9849e+01	4.9820	-3.141018	0.000299	2.988149	0.506206	0.000030
 503	4.9949e+01	4.9896	-3.108431	0.000327	3.274684	0.554747	0.000033
 504	5.0048e+01	5.0008	-3.077880	0.000307	3.070017	0.520075	0.000031
 505	5.0148e+01	5.0100	-3.046108	0.000319	3.192817	0.540878	0.000032
 506	5.0248e+01	5.0196	-3.012706	0.000336	3.356551	0.568615	0.000034
 507	5.0347e+01	5.0297	-2.979711	0.000332	3.315618	0.561681	0.000033
 508	5.0447e+01	5.0410	-2.947531	0.000323	3.233751	0.547812	0.000032
 509	5.0546e+01	5.0501	-2.914943	0.000327	3.274684	0.554747	0.000033
 510	5.0645e+01	5.0623	-2.883171	0.000319	3.192817	0.540878	0.000032
 511	5.0745e+01	5.0718	-2.850176	0.000332	3.315618	0.561681	0.000033
 512	5.0844e+01	5.0816	-2.818403	0.000319	3.192817	0.540878	0.000032
 513	5.0944e+01	5.0912	-2.785001	0.000336	3.356551	0.568615	0.000034
 514	5.1044e+01	5.1015	-2.748748	0.000364	3.643086	0.617156	0.000036
 515	5.1143e+01	5.1082	-2.718197	0.000307	3.070017	0.520075	0.000031
 516	5.1242e+01	5.1188	-2.687239	0.000311	3.110950	0.527009	0.000031
 517	5.1342e+01	5.1311	-2.653837	0.000336	3.356551	0.568615	0.000034
 518	5.1441e+01	5.1411	-2.623286	0.000307	3.070017	0.520075	0.000031
 519	5.1541e+01	5.1546	-2.589477	0.000340	3.397485	0.575550	0.000034
 520	5.1641e+01	5.1588	-2.554852	0.000348	3.479352	0.589418	0.000035
 521	5.1740e+01	5.1673	-2.523487	0.000315	3.151884	0.533944	0.000032
 522	5.1840e+01	5.1785	-2.492936	0.000307	3.070017	0.520075	0.000031
 523	5.1939e+01	5.1910	-2.459942	0.000332	3.315618	0.561681	0.000033
 524	5.2038e+01	5.2004	-2.424503	0.000356	3.561219	0.603287	0.000036
 525	5.2138e+01	5.2088	-2.393952	0.000307	3.070017	0.520075	0.000031
 526	5.2237e+01	5.2178	-2.363401	0.000307	3.070017	0.520075	0.000031
 527	5.2337e+01	5.2306	-2.331629	0.000319	3.192817	0.540878	0.000032
 528	5.2437e+01	5.2387	-2.302300	0.000295	2.947216	0.499272	0.000029
 529	5.2536e+01	5.2522	-2.266047	0.000364	3.643086	0.617156	0.000036
 530	5.2636e+01	5.2590	-2.237125	0.000291	2.906282	0.492338	0.000029
 531	5.2735e+01	5.2685	-2.207797	0.000295	2.947216	0.499272	0.000029
 532	5.2834e+01	5.2775	-2.181727	0.000262	2.619747	0.443797	0.000026
 533	5.2934e+01	5.2882	-2.148732	0.000332	3.315618	0.561681	0.000033
 534	5.3033e+01	5.3002	-2.119811	0.000291	2.906282	0.492338	0.000029
 535	5.3133e+01	5.3074	-2.091704	0.000282	2.824415	0.478469	0.000028
 536	5.3233e+01	5.3225	-2.061153	0.000307	3.070017	0.520075	0.000031
 537	5.3332e+01	5.3283	-2.029788	0.000315	3.151884	0.533944	0.000032
 538	5.3431e+01	5.3390	-2.000867	0.000291	2.906282	0.492338	0.000029
 539	5.3531e+01	5.3475	-1.973167	0.000278	2.783482	0.471535	0.000028
 540	5.3630e+01	5.3582	-1.943024	0.000303	3.029083	0.513141	0.000030
 541	5.3730e+01	5.3711	-1.911251	0.000319	3.192817	0.540878	0.000032
 542	5.3830e+01	5.3790	-1.881923	0.000295	2.947216	0.499272	0.000029
 543	5.3929e+01	5.3880	-1.850557	0.000315	3.151884	0.533944	0.000032
 544	5.4029e+01	5.3985	-1.825302	0.000254	2.537880	0.429929	0.000025
 545	5.4128e+01	5.4089	-1.793937	0.000315	3.151884	0.533944	0.000032
 546	5.4227e+01	5.4205	-1.761757	0.000323	3.233751	0.547812	0.000032
 547	5.4327e+01	5.4299	-1.736501	0.000254	2.537880	0.429929	0.000025
 548	5.4426e+01	5.4368	-1.705951	0.000307	3.070017	0.520075	0.000031
 549	5.4526e+01	5.4482	-1.677437	0.000287	2.865349	0.485403	0.000029
 550	5.4626e+01	5.4590	-1.645664	0.000319	3.192817	0.540878	0.000032
 551	5.4725e+01	5.4688	-1.616335	0.000295	2.947216	0.499272	0.000029
 552	5.4825e+01	5.4752	-1.588229	0.000282	2.824415	0.478469	0.000028
 553	5.4924e+01	5.4887	-1.554012	0.000344	3.438419	0.582484	0.000034
 554	5.5023e+01	5.4972	-1.524683	0.000295	2.947216	0.499272	0.000029
 555	5.5123e+01	5.5076	-1.495355	0.000295	2.947216	0.499272	0.000029
 556	5.5222e+01	5.5167	-1.464804	0.000307	3.070017	0.520075	0.000031
 557	5.5322e+01	5.5279	-1.430994	0.000340	3.397485	0.575550	0.000034
 558	5.5422e+01	5.5360	-1.403702	0.000274	2.742548	0.464600	0.000027
 559	5.5521e+01	5.5444	-1.373966	0.000299	2.988149	0.506206	0.000030
 560	5.5620e+01	5.5569	-1.341379	0.000327	3.274684	0.554747	0.000033
 561	5.5720e+01	5.5655	-1.312458	0.000291	2.906282	0.492338	0.000029
 562	5.5819e+01	5.5782	-1.279463	0.000332	3.315618	0.561681	0.000033
 563	5.5919e+01	5.5885	-1.250542	0.000291	2.906282	0.492338	0.000029
 564	5.6019e+01	5.5972	-1.220398	0.000303	3.029083	0.513141	0.000030
 565	5.6118e+01	5.6060	-1.191477	0.000291	2.906282	0.492338	0.000029
 566	5.6218e+01	5.6179	-1.159297	0.000323	3.233751	0.547812	0.000032
 567	5.6317e+01	5.6257	-1.129561	0.000299	2.988149	0.506206	0.000030
 568	5.6416e+01	5.6370	-1.098196	0.000315	3.151884	0.533944	0.000032
 569	5.6516e+01	5.6472	-1.068460	0.000299	2.988149	0.506206	0.000030
 570	5.6615e+01	5.6583	-1.035872	0.000327	3.274684	0.554747	0.000033
 571	5.6715e+01	5.6678	-1.005321	0.000307	3.070017	0.520075	0.000031
 572	5.6815e+01	5.6773	-0.974363	0.000311	3.110950	0.527009	0.000031
 573	5.6914e+01	5.6894	-0.946257	0.000282	2.824415	0.478469	0.000028
 574	5.7014e+01	5.6950	-0.914891	0.000315	3.151884	0.533944	0.000032
 575	5.7113e+01	5.7076	-0.880675	0.000344	3.438419	0.582484	0.000034
 576	5.7212e+01	5.7180	-0.852161	0.000287	2.865349	0.485403	0.000029
 577	5.7312e+01	5.7269	-0.822425	0.000299	2.988149	0.506206	0.000030
 578	5.7411e+01	5.7357	-0.790245	0.000323	3.233751	0.547812	0.000032
 579	5.7511e+01	5.7479	-0.758064	0.000323	3.233751	0.547812	0.000032
 580	5.7611e+01	5.7569	-0.727106	0.000311	3.110950	0.527009	0.000031
 581	5.7710e+01	5.7684	-0.700222	0.000270	2.701615	0.457666	0.000027
 582	5.7809e+01	5.7771	-0.666412	0.000340	3.397485	0.575550	0.000034
 583	5.7909e+01	5.7833	-0.635047	0.000315	3.151884	0.533944	0.000032
 584	5.8008e+01	5.7978	-0.601238	0.000340	3.397485	0.575550	0.000034
 585	5.8108e+01	5.8071	-0.573538	0.000278	2.783482	0.471535	0.000028
 586	5.8208e+01	5.8179	-0.541358	0.000323	3.233751	0.547812	0.000032
 587	5.8307e+01	5.8302	-0.507549	0.000340	3.397485	0.575550	0.000034
 588	5.8407e+01	5.8367	-0.473739	0.000340	3.397485	0.575550	0.000034
 589	5.8506e+01	5.8460	-0.448077	0.000258	2.578814	0.436863	0.000026
 590	5.8605e+01	5.8558	-0.417119	0.000311	3.110950	0.527009	0.000031
 591	5.8705e+01	5.8645	-0.386161	0.000311	3.110950	0.527009	0.000031
 592	5.8804e+01	5.8752	-0.353166	0.000332	3.315618	0.561681	0.000033
 593	5.8904e+01	5.8852	-0.325059	0.000282	2.824415	0.478469	0.000028
 594	5.9004e+01	5.8985	-0.296138	0.000291	2.906282	0.492338	0.000029
 595	5.9103e+01	5.9056	-0.268031	0.000282	2.824415	0.478469	0.000028
 596	5.9203e+01	5.9161	-0.235444	0.000327	3.274684	0.554747	0.000033
 597	5.9302e+01	5.9249	-0.207745	0.000278	2.783482	0.471535	0.000028
 598	5.9401e+01	5.9360	-0.175972	0.000319	3.192817	0.540878	0.000032
 599	5.9501e+01	5.9454	-0.144607	0.000315	3.151884	0.533944	0.000032
 600	5.9600e+01	5.9571	-0.113649	0.000311	3.110950	0.527009	0.000031
 601	5.9700e+01	5.9646	-0.082283	0.000315	3.151884	0.533944	0.000032
 602	5.9800e+01	5.9745	-0.054991	0.000274	2.742548	0.464600	0.000027
 603	5.9899e+01	5.9857	-0.021182	0.000340	3.397485	0.575550	0.000034
 604	5.9998e+01	5.9933	0.006110	0.000274	2.742548	0.464600	0.000027
 605	6.0098e+01	6.0055	0.037883	0.000319	3.192817	0.540878	0.000032
 606	6.0197e+01	6.0149	0.064767	0.000270	2.701615	0.457666	0.000027
 607	6.0297e+01	6.0268	0.100206	0.000356	3.561219	0.603287	0.000036
 608	6.0397e+01	6.0363	0.127091	0.000270	2.701615	0.457666	0.000027
 609	6.0496e+01	6.0442	0.156012	0.000291	2.906282	0.492338	0.000029
 610	6.0596e+01	6.0543	0.186563	0.000307	3.070017	0.520075	0.000031
 611	6.0695e+01	6.0664	0.222002	0.000356	3.561219	0.603287	0.000036
 612	6.0794e+01	6.0737	0.253774	0.000319	3.192817	0.540878	0.000032
 613	6.0894e+01	6.0845	0.283510	0.000299	2.988149	0.506206	0.000030
 614	6.0993e+01	6.0974	0.315690	0.000323	3.233751	0.547812	0.000032
 615	6.1093e+01	6.1036	0.347871	0.000323	3.233751	0.547812	0.000032
 616	6.1193e+01	6.1147	0.384124	0.000364	3.643086	0.617156	0.000036
 617	6.1292e+01	6.1245	0.415489	0.000315	3.151884	0.533944	0.000032
 618	6.1392e+01	6.1362	0.449299	0.000340	3.397485	0.575550	0.000034
 619	6.1491e+01	6.1416	0.484738	0.000356	3.561219	0.603287	0.000036
 620	6.1590e+01	6.1538	0.517732	0.000332	3.315618	0.561681	0.000033
 621	6.1690e+01	6.1649	0.549912	0.000323	3.233751	0.547812	0.000032
 622	6.1789e+01	6.1750	0.587388	0.000377	3.765887	0.637959	0.000038
 623	6.1889e+01	6.1843	0.616717	0.000295	2.947216	0.499272	0.000029
 624	6.1989e+01	6.1955	0.655414	0.000389	3.888688	0.658762	0.000039
 625	6.2088e+01	6.2029	0.686372	0.000311	3.110950	0.527009	0.000031
 626	6.2188e+01	6.2183	0.714479	0.000282	2.824415	0.478469	0.000028
 627	6.2287e+01	6.2286	0.755620	0.000413	4.134289	0.700368	0.000041
 628	6.2386e+01	6.2334	0.787800	0.000323	3.233751	0.547812	0.000032
 629	6.2486e+01	6.2463	0.821610	0.000340	3.397485	0.575550	0.000034
 630	6.2586e+01	6.2549	0.856641	0.000352	3.520286	0.596353	0.000035
 631	6.2685e+01	6.2656	0.890858	0.000344	3.438419	0.582484	0.000034
 632	6.2785e+01	6.2742	0.924668	0.000340	3.397485	0.575550	0.000034
 633	6.2884e+01	6.2829	0.954404	0.000299	2.988149	0.506206	0.000030
 634	6.2983e+01	6.2933	0.988620	0.000344	3.438419	0.582484	0.000034
 635	6.3083e+01	6.3055	1.023244	0.000348	3.479352	0.589418	0.000035
 636	6.3182e+01	6.3125	1.051351	0.000282	2.824415	0.478469	0.000028
 637	6.3282e+01	6.3246	1.086790	0.000356	3.561219	0.603287	0.000036
 638	6.3382e+01	6.3348	1.118970	0.000323	3.233751	0.547812	0.000032
 639	6.3481e+01	6.3420	1.151150	0.000323	3.233751	0.547812	0.000032
 640	6.3581e+01	6.3540	1.181293	0.000303	3.029083	0.513141	0.000030
 641	6.3680e+01	6.3624	1.217954	0.000368	3.684020	0.624090	0.000037
 642	6.3779e+01	6.3744	1.248098	0.000303	3.029083	0.513141	0.000030
 643	6.3879e+01	6.3859	1.281500	0.000336	3.356551	0.568615	0.000034
 644	6.3978e+01	6.3911	1.314494	0.000332	3.315618	0.561681	0.000033
 645	6.4078e+01	6.4021	1.345860	0.000315	3.151884	0.533944	0.000032
 646	6.4177e+01	6.4123	1.382113	0.000364	3.643086	0.617156	0.000036
 647	6.4277e+01	6.4246	1.411849	0.000299	2.988149	0.506206	0.000030
 648	6.4376e+01	6.4336	1.446473	0.000348	3.479352	0.589418	0.000035
 649	6.4476e+01	6.4443	1.476617	0.000303	3.029083	0.513141	0.000030
 650	6.4576e+01	6.4532	1.510834	0.000344	3.438419	0.582484	0.000034
 651	6.4675e+01	6.4651	1.545458	0.000348	3.479352	0.589418	0.000035
 652	6.4775e+01	6.4724	1.576008	0.000307	3.070017	0.520075	0.000031
 653	6.4874e+01	6.4816	1.609818	0.000340	3.397485	0.575550	0.000034
 654	6.4974e+01	6.4905	1.639554	0.000299	2.988149	0.506206	0.000030
 655	6.5073e+01	6.5011	1.674993	0.000356	3.561219	0.603287	0.000036
 656	6.5172e+01	6.5116	1.705543	0.000307	3.070017	0.520075	0.000031
 657	6.5272e+01	6.5235	1.740575	0.000352	3.520286	0.596353	0.000035
 658	6.5371e+01	6.5334	1.776421	0.000360	3.602153	0.610221	0.000036
 659	6.5471e+01	6.5411	1.807379	0.000311	3.110950	0.527009	0.000031
 660	6.5570e+01	6.5508	1.838337	0.000311	3.110950	0.527009	0.000031
 661	6.5670e+01	6.5635	1.873776	0.000356	3.561219	0.603287	0.000036
 662	6.5769e+01	6.5709	1.909215	0.000356	3.561219	0.603287	0.000036
 663	6.5869e+01	6.5813	1.940580	0.000315	3.151884	0.533944	0.000032
 664	6.5969e+01	6.5944	1.972760	0.000323	3.233751	0.547812	0.000032
 665	6.6068e+01	6.6001	2.006569	0.000340	3.397485	0.575550	0.000034
 666	6.6168e+01	6.6103	2.037527	0.000311	3.110950	0.527009	0.000031
 667	6.6267e+01	6.6244	2.072152	0.000348	3.479352	0.589418	0.000035
 668	6.6367e+01	6.6296	2.105554	0.000336	3.356551	0.568615	0.000034
 669	6.6466e+01	6.6425	2.132438	0.000270	2.701615	0.457666	0.000027
 670	6.6566e+01	6.6514	2.169914	0.000377	3.765887	0.637959	0.000038
 671	6.6665e+01	6.6611	2.205353	0.000356	3.561219	0.603287	0.000036
 672	6.6764e+01	6.6732	2.233867	0.000287	2.865349	0.485403	0.000029
 673	6.6864e+01	6.6811	2.269713	0.000360	3.602153	0.610221	0.000036
 674	6.6963e+01	6.6920	2.303522	0.000340	3.397485	0.575550	0.000034
 675	6.7063e+01	6.7017	2.339776	0.000364	3.643086	0.617156	0.000036
 676	6.7162e+01	6.7114	2.375622	0.000360	3.602153	0.610221	0.000036
 677	6.7262e+01	6.7229	2.408209	0.000327	3.274684	0.554747	0.000033
 678	6.7362e+01	6.7307	2.444870	0.000368	3.684020	0.624090	0.000037
 679	6.7461e+01	6.7410	2.477865	0.000332	3.315618	0.561681	0.000033
 680	6.7561e+01	6.7519	2.513711	0.000360	3.602153	0.610221	0.000036
 681	6.7660e+01	6.7641	2.546298	0.000327	3.274684	0.554747	0.000033
 682	6.7760e+01	6.7705	2.582144	0.000360	3.602153	0.610221	0.000036
 683	6.7859e+01	6.7855	2.613917	0.000319	3.192817	0.540878	0.000032
 684	6.7959e+01	6.7946	2.648541	0.000348	3.479352	0.589418	0.000035
 685	6.8058e+01	6.7998	2.682758	0.000344	3.438419	0.582484	0.000034
 686	6.8157e+01	6.8100	2.719826	0.000372	3.724953	0.631024	0.000037
 687	6.8257e+01	6.8198	2.753636	0.000340	3.397485	0.575550	0.000034
 688	6.8356e+01	6.8301	2.787038	0.000336	3.356551	0.568615	0.000034
 689	6.8456e+01	6.8413	2.821662	0.000348	3.479352	0.589418	0.000035
 690	6.8555e+01	6.8536	2.856286	0.000348	3.479352	0.589418	0.000035
 691	6.8655e+01	6.8608	2.890503	0.000344	3.438419	0.582484	0.000034
 692	6.8754e+01	6.8703	2.925534	0.000352	3.520286	0.596353	0.000035
 693	6.8854e+01	6.8815	2.961788	0.000364	3.643086	0.617156	0.000036
 694	6.8954e+01	6.8884	2.992338	0.000307	3.070017	0.520075	0.000031
 695	6.9053e+01	6.9004	3.025740	0.000336	3.356551	0.568615	0.000034
 696	6.9153e+01	6.9123	3.060365	0.000348	3.479352	0.589418	0.000035
 697	6.9252e+01	6.9215	3.090915	0.000307	3.070017	0.520075	0.000031
 698	6.9352e+01	6.9321	3.125539	0.000348	3.479352	0.589418	0.000035
 699	6.9451e+01	6.9396	3.155683	0.000303	3.029083	0.513141	0.000030
 700	6.9550e+01	6.9518	3.189492	0.000340	3.397485	0.575550	0.000034
 701	6.9650e+01	6.9622	3.220858	0.000315	3.151884	0.533944	0.000032
 702	6.9749e+01	6.9727	3.253852	0.000332	3.315618	0.561681	0.000033
 703	6.9849e+01	6.9807	3.285218	0.000315	3.151884	0.533944	0.000032
 704	6.9948e+01	6.9910	3.317805	0.000327	3.274684	0.554747	0.000033
 705	7.0048e+01	6.9993	3.349170	0.000315	3.151884	0.533944	0.000032
 706	7.0147e+01	7.0105	3.379721	0.000307	3.070017	0.520075	0.000031
 707	7.0247e+01	7.0193	3.413531	0.000340	3.397485	0.575550	0.000034
 708	7.0347e+01	7.0303	3.443674	0.000303	3.029083	0.513141	0.000030
 709	7.0446e+01	7.0387	3.476669	0.000332	3.315618	0.561681	0.000033
 710	7.0546e+01	7.0487	3.507219	0.000307	3.070017	0.520075	0.000031
 711	7.0645e+01	7.0599	3.536955	0.000299	2.988149	0.506206	0.000030
 712	7.0745e+01	7.0702	3.571172	0.000344	3.438419	0.582484	0.000034
 713	7.0844e+01	7.0805	3.602130	0.000311	3.110950	0.527009	0.000031
 714	7.0944e+01	7.0905	3.632681	0.000307	3.070017	0.520075	0.000031
 715	7.1043e+01	7.0982	3.666083	0.000336	3.356551	0.568615	0.000034
 716	7.1142e+01	7.1102	3.699078	0.000332	3.315618	0.561681	0.000033
 717	7.1242e+01	7.1193	3.729221	0.000303	3.029083	0.513141	0.000030
 718	7.1341e+01	7.1311	3.765067	0.000360	3.602153	0.610221	0.000036
 719	7.1441e+01	7.1417	3.797655	0.000327	3.274684	0.554747	0.000033
 720	7.1540e+01	7.1505	3.826983	0.000295	2.947216	0.499272	0.000029
 721	7.1640e+01	7.1578	3.860793	0.000340	3.397485	0.575550	0.000034
 722	7.1740e+01	7.1687	3.895417	0.000348	3.479352	0.589418	0.000035
 723	7.1839e+01	7.1802	3.931670	0.000364	3.643086	0.617156	0.000036
 724	7.1939e+01	7.1880	3.963036	0.000315	3.151884	0.533944	0.000032
 725	7.2038e+01	7.1989	4.000104	0.000372	3.724953	0.631024	0.000037
 726	7.2138e+01	7.2112	4.030655	0.000307	3.070017	0.520075	0.000031
 727	7.2237e+01	7.2221	4.067723	0.000372	3.724953	0.631024	0.000037
 728	7.2337e+01	7.2298	4.097866	0.000303	3.029083	0.513141	0.000030
 729	7.2436e+01	7.2381	4.131675	0.000340	3.397485	0.575550	0.000034
 730	7.2535e+01	7.2510	4.168336	0.000368	3.684020	0.624090	0.000037
 731	7.2635e+01	7.2601	4.200109	0.000319	3.192817	0.540878	0.000032
 732	7.2734e+01	7.2688	4.230252	0.000303	3.029083	0.513141	0.000030
 733	7.2834e+01	7.2805	4.270172	0.000401	4.011488	0.679565	0.000040
 734	7.2933e+01	7.2897	4.301945	0.000319	3.192817	0.540878	0.000032
 735	7.3033e+01	7.2977	4.334939	0.000332	3.315618	0.561681	0.000033
 736	7.3132e+01	7.3086	4.372822	0.000381	3.806821	0.644893	0.000038
 737	7.3232e+01	7.3186	4.408261	0.000356	3.561219	0.603287	0.000036
 738	7.3332e+01	7.3296	4.444107	0.000360	3.602153	0.610221	0.000036
 739	7.3431e+01	7.3389	4.479546	0.000356	3.561219	0.603287	0.000036
 740	7.3531e+01	7.3477	4.514985	0.000356	3.561219	0.603287	0.000036
 741	7.3630e+01	7.3578	4.546350	0.000315	3.151884	0.533944	0.000032
 742	7.3730e+01	7.3682	4.581382	0.000352	3.520286	0.596353	0.000035
 743	7.3829e+01	7.3781	4.620079	0.000389	3.888688	0.658762	0.000039
 744	7.3928e+01	7.3878	4.652259	0.000323	3.233751	0.547812	0.000032
 745	7.4028e+01	7.3968	4.683217	0.000311	3.110950	0.527009	0.000031
 746	7.4127e+01	7.4055	4.724359	0.000413	4.134289	0.700368	0.000041
 747	7.4227e+01	7.4171	4.760205	0.000360	3.602153	0.610221	0.000036
 748	7.4326e+01	7.4269	4.794014	0.000340	3.397485	0.575550	0.000034
 749	7.4426e+01	7.4342	4.830675	0.000368	3.684020	0.624090	0.000037
 750	7.4525e+01	7.4481	4.866114	0.000356	3.561219	0.603287	0.000036
 751	7.4625e+01	7.4578	4.898702	0.000327	3.274684	0.554747	0.000033
 752	7.4725e+01	7.4670	4.934548	0.000360	3.602153	0.610221	0.000036
 753	7.4824e+01	7.4776	4.969172	0.000348	3.479352	0.589418	0.000035
 754	7.4924e+01	7.4887	5.007055	0.000381	3.806821	0.644893	0.000038
 755	7.5023e+01	7.4971	5.039235	0.000323	3.233751	0.547812	0.000032
 756	7.5123e+01	7.5100	5.079562	0.000405	4.052422	0.686499	0.000041
 757	7.5222e+01	7.5162	5.115408	0.000360	3.602153	0.610221	0.000036
 758	7.5322e+01	7.5288	5.148810	0.000336	3.356551	0.568615	0.000034
 759	7.5421e+01	7.5394	5.182212	0.000336	3.356551	0.568615	0.000034
 760	7.5520e+01	7.5464	5.216429	0.000344	3.438419	0.582484	0.000034
 761	7.5620e+01	7.5575	5.252682	0.000364	3.643086	0.617156	0.000036
 762	7.5719e+01	7.5668	5.290565	0.000381	3.806821	0.644893	0.000038
 763	7.5819e+01	7.5745	5.321523	0.000311	3.110950	0.527009	0.000031
 764	7.5918e+01	7.5858	5.356962	0.000356	3.561219	0.603287	0.000036
 765	7.6018e+01	7.5962	5.397696	0.000409	4.093355	0.693433	0.000041
 766	7.6118e+01	7.6098	5.430284	0.000327	3.274684	0.554747	0.000033
 767	7.6217e+01	7.6175	5.465722	0.000356	3.561219	0.603287	0.000036
 768	7.6317e+01	7.6277	5.497088	0.000315	3.151884	0.533944	0.000032
 769	7.6416e+01	7.6367	5.530082	0.000332	3.315618	0.561681	0.000033
 770	7.6516e+01	7.6453	5.565114	0.000352	3.520286	0.596353	0.000035
 771	7.6615e+01	7.6543	5.601367	0.000364	3.643086	0.617156	0.000036
 772	7.6715e+01	7.6707	5.636399	0.000352	3.520286	0.596353	0.000035
 773	7.6814e+01	7.6776	5.675096	0.000389	3.888688	0.658762	0.000039
 774	7.6913e+01	7.6855	5.710943	0.000360	3.602153	0.610221	0.000036
 775	7.7013e+01	7.7002	5.745567	0.000348	3.479352	0.589418	0.000035
 776	7.7112e+01	7.7046	5.783450	0.000381	3.806821	0.644893	0.000038
 777	7.7212e+01	7.7175	5.821332	0.000381	3.806821	0.644893	0.000038
 778	7.7311e+01	7.7278	5.859623	0.000385	3.847754	0.651827	0.000038
 779	7.7411e+01	7.7357	5.898727	0.000393	3.929621	0.665696	0.000039
 780	7.7510e+01	7.7456	5.932130	0.000336	3.356551	0.568615	0.000034
 781	7.7610e+01	7.7551	5.977345	0.000454	4.543625	0.769711	0.000045
 782	7.7710e+01	7.7652	6.014005	0.000368	3.684020	0.624090	0.000037
 783	7.7809e+01	7.7762	6.051074	0.000372	3.724953	0.631024	0.000037
 784	7.7909e+01	7.7853	6.097511	0.000467	4.666425	0.790514	0.000047
 785	7.8008e+01	7.7946	6.135801	0.000385	3.847754	0.651827	0.000038
 786	7.8108e+01	7.8059	6.178572	0.000430	4.298023	0.728105	0.000043
 787	7.8207e+01	7.8146	6.216047	0.000377	3.765887	0.637959	0.000038
 788	7.8306e+01	7.8262	6.254745	0.000389	3.888688	0.658762	0.000039
 789	7.8406e+01	7.8354	6.292628	0.000381	3.806821	0.644893	0.000038
 790	7.8505e+01	7.8457	6.335399	0.000430	4.298023	0.728105	0.000043
 791	7.8605e+01	7.8549	6.368393	0.000332	3.315618	0.561681	0.000033
 792	7.8704e+01	7.8667	6.410350	0.000422	4.216156	0.714236	0.000042
 793	7.8804e+01	7.8776	6.452306	0.000422	4.216156	0.714236	0.000042
 794	7.8903e+01	7.8846	6.486523	0.000344	3.438419	0.582484	0.000034
 795	7.9003e+01	7.8995	6.527664	0.000413	4.134289	0.700368	0.000041
 796	7.9103e+01	7.9060	6.567991	0.000405	4.052422	0.686499	0.000041
 797	7.9202e+01	7.9147	6.605059	0.000372	3.724953	0.631024	0.000037
 798	7.9302e+01	7.9266	6.647830	0.000430	4.298023	0.728105	0.000043
 799	7.9401e+01	7.9326	6.688972	0.000413	4.134289	0.700368	0.000041
 800	7.9501e+01	7.9447	6.728077	0.000393	3.929621	0.665696	0.000039
 801	7.9600e+01	7.9556	6.772070	0.000442	4.420824	0.748908	0.000044
 802	7.9700e+01	7.9659	6.815248	0.000434	4.338957	0.735039	0.000043
 803	7.9799e+01	7.9747	6.851502	0.000364	3.643086	0.617156	0.000036
 804	7.9898e+01	7.9859	6.889385	0.000381	3.806821	0.644893	0.000038
 805	7.9998e+01	7.9946	6.928489	0.000393	3.929621	0.665696	0.000039
 806	8.0097e+01	8.0045	6.969631	0.000413	4.134289	0.700368	0.000041
 807	8.0197e+01	8.0149	7.007107	0.000377	3.765887	0.637959	0.000038
 808	8.0296e+01	8.0253	7.045397	0.000385	3.847754	0.651827	0.000038
 809	8.0396e+01	8.0348	7.084094	0.000389	3.888688	0.658762	0.000039
 810	8.0496e+01	8.0460	7.128087	0.000442	4.420824	0.748908	0.000044
 811	8.0595e+01	8.0524	7.166785	0.000389	3.888688	0.658762	0.000039
 812	8.0695e+01	8.0655	7.203853	0.000372	3.724953	0.631024	0.000037
 813	8.0794e+01	8.0733	7.242551	0.000389	3.888688	0.658762	0.000039
 814	8.0894e+01	8.0835	7.284100	0.000418	4.175223	0.707302	0.000042
 815	8.0993e+01	8.0946	7.321982	0.000381	3.806821	0.644893	0.000038
 816	8.1093e+01	8.1061	7.363531	0.000418	4.175223	0.707302	0.000042
 817	8.1192e+01	8.1123	7.400599	0.000372	3.724953	0.631024	0.000037
 818	8.1291e+01	8.1227	7.441741	0.000413	4.134289	0.700368	0.000041
 819	8.1391e+01	8.1351	7.484105	0.000426	4.257090	0.721171	0.000043
 820	8.1490e+01	8.1441	7.527690	0.000438	4.379890	0.741974	0.000044
 821	8.1590e+01	8.1525	7.563536	0.000360	3.602153	0.610221	0.000036
 822	8.1689e+01	8.1628	7.604678	0.000413	4.134289	0.700368	0.000041
 823	8.1789e+01	8.1764	7.645412	0.000409	4.093355	0.693433	0.000041
 824	8.1888e+01	8.1845	7.684925	0.000397	3.970555	0.672630	0.000040
 825	8.1988e+01	8.1959	7.727696	0.000430	4.298023	0.728105	0.000043
 826	8.2088e+01	8.2024	7.765578	0.000381	3.806821	0.644893	0.000038
 827	8.2187e+01	8.2133	7.804683	0.000393	3.929621	0.665696	0.000039
 828	8.2287e+01	8.2224	7.845418	0.000409	4.093355	0.693433	0.000041
 829	8.2386e+01	8.2330	7.885744	0.000405	4.052422	0.686499	0.000041
 830	8.2486e+01	8.2422	7.925257	0.000397	3.970555	0.672630	0.000040
 831	8.2585e+01	8.2538	7.969657	0.000446	4.461757	0.755842	0.000045
 832	8.2684e+01	8.2652	8.008355	0.000389	3.888688	0.658762	0.000039
 833	8.2784e+01	8.2751	8.049904	0.000418	4.175223	0.707302	0.000042
 834	8.2883e+01	8.2835	8.094304	0.000446	4.461757	0.755842	0.000045
 835	8.2983e+01	8.2935	8.134223	0.000401	4.011488	0.679565	0.000040
 836	8.3082e+01	8.3033	8.172106	0.000381	3.806821	0.644893	0.000038
 837	8.3182e+01	8.3154	8.217729	0.000458	4.584558	0.776645	0.000046
 838	8.3281e+01	8.3233	8.257241	0.000397	3.970555	0.672630	0.000040
 839	8.3381e+01	8.3328	8.296753	0.000397	3.970555	0.672630	0.000040
 840	8.3481e+01	8.3436	8.343190	0.000467	4.666425	0.790514	0.000047
 841	8.3580e+01	8.3526	8.384739	0.000418	4.175223	0.707302	0.000042
 842	8.3680e+01	8.3623	8.427510	0.000430	4.298023	0.728105	0.000043
 843	8.3779e+01	8.3735	8.470688	0.000434	4.338957	0.735039	0.000043
 844	8.3879e+01	8.3813	8.515496	0.000450	4.502691	0.762776	0.000045
 845	8.3978e+01	8.3925	8.561118	0.000458	4.584558	0.776645	0.000046
 846	8.4078e+01	8.4049	8.606741	0.000458	4.584558	0.776645	0.000046
 847	8.4177e+01	8.4110	8.650734	0.000442	4.420824	0.748908	0.000044
 848	8.4276e+01	8.4220	8.697986	0.000475	4.748292	0.804382	0.000047
 849	8.4376e+01	8.4327	8.738312	0.000405	4.052422	0.686499	0.000041
 850	8.4475e+01	8.4417	8.781898	0.000438	4.379890	0.741974	0.000044
 851	8.4575e+01	8.4529	8.825076	0.000434	4.338957	0.735039	0.000043
 852	8.4674e+01	8.4623	8.870699	0.000458	4.584558	0.776645	0.000046
 853	8.4774e+01	8.4745	8.916321	0.000458	4.584558	0.776645	0.000046
 854	8.4874e+01	8.4817	8.963980	0.000479	4.789226	0.811317	0.000048
 855	8.4973e+01	8.4925	9.010417	0.000467	4.666425	0.790514	0.000047
 856	8.5073e+01	8.5021	9.056447	0.000463	4.625492	0.783579	0.000046
 857	8.5172e+01	8.5140	9.103699	0.000475	4.748292	0.804382	0.000047
 858	8.5272e+01	8.5208	9.146470	0.000430	4.298023	0.728105	0.000043
 859	8.5371e+01	8.5328	9.190055	0.000438	4.379890	0.741974	0.000044
 860	8.5471e+01	8.5459	9.232826	0.000430	4.298023	0.728105	0.000043
 861	8.5570e+01	8.5510	9.281300	0.000487	4.871093	0.825185	0.000049
 862	8.5669e+01	8.5606	9.326515	0.000454	4.543625	0.769711	0.000045
 863	8.5769e+01	8.5699	9.374174	0.000479	4.789226	0.811317	0.000048
 864	8.5868e+01	8.5806	9.419389	0.000454	4.543625	0.769711	0.000045
 865	8.5968e+01	8.5943	9.461753	0.000426	4.257090	0.721171	0.000043
 866	8.6067e+01	8.6019	9.504116	0.000426	4.257090	0.721171	0.000043
 867	8.6167e+01	8.6114	9.552183	0.000483	4.830159	0.818251	0.000048
 868	8.6266e+01	8.6208	9.592917	0.000409	4.093355	0.693433	0.000041
 869	8.6366e+01	8.6328	9.634873	0.000422	4.216156	0.714236	0.000042
 870	8.6466e+01	8.6398	9.677237	0.000426	4.257090	0.721171	0.000043
 871	8.6565e+01	8.6502	9.722045	0.000450	4.502691	0.762776	0.000045
 872	8.6665e+01	8.6600	9.764408	0.000426	4.257090	0.721171	0.000043
 873	8.6764e+01	8.6731	9.812067	0.000479	4.789226	0.811317	0.000048
 874	8.6864e+01	8.6844	9.852802	0.000409	4.093355	0.693433	0.000041
 875	8.6963e+01	8.6923	9.896387	0.000438	4.379890	0.741974	0.000044
 876	8.7063e+01	8.7045	9.937529	0.000413	4.134289	0.700368	0.000041
 877	8.7162e+01	8.7109	9.984781	0.000475	4.748292	0.804382	0.000047
 878	8.7261e+01	8.7239	10.028366	0.000438	4.379890	0.741974	0.000044
 879	8.7361e+01	8.7330	10.074803	0.000467	4.666425	0.790514	0.000047
 880	8.7460e+01	8.7431	10.117167	0.000426	4.257090	0.721171	0.000043
 881	8.7560e+01	8.7485	10.157901	0.000409	4.093355	0.693433	0.000041
 882	8.7659e+01	8.7624	10.201487	0.000438	4.379890	0.741974	0.000044
 883	8.7759e+01	8.7711	10.241406	0.000401	4.011488	0.679565	0.000040
 884	8.7859e+01	8.7793	10.288658	0.000475	4.748292	0.804382	0.000047
 885	8.7958e+01	8.7929	10.334281	0.000458	4.584558	0.776645	0.000046
 886	8.8058e+01	8.8026	10.379903	0.000458	4.584558	0.776645	0.000046
 887	8.8157e+01	8.8113	10.423896	0.000442	4.420824	0.748908	0.000044
 888	8.8257e+01	8.8208	10.471148	0.000475	4.748292	0.804382	0.000047
 889	8.8356e+01	8.8290	10.515955	0.000450	4.502691	0.762776	0.000045
 890	8.8456e+01	8.8370	10.560763	0.000450	4.502691	0.762776	0.000045
 891	8.8555e+01	8.8495	10.608422	0.000479	4.789226	0.811317	0.000048
 892	8.8654e+01	8.8596	10.651193	0.000430	4.298023	0.728105	0.000043
 893	8.8754e+01	8.8692	10.704148	0.000532	5.321362	0.901463	0.000053
 894	8.8853e+01	8.8806	10.748141	0.000442	4.420824	0.748908	0.000044
 895	8.8953e+01	8.8880	10.792134	0.000442	4.420824	0.748908	0.000044
 896	8.9052e+01	8.9001	10.840200	0.000483	4.830159	0.818251	0.000048
 897	8.9152e+01	8.9111	10.885822	0.000458	4.584558	0.776645	0.000046
 898	8.9251e+01	8.9215	10.935111	0.000495	4.952960	0.839054	0.000050
 899	8.9351e+01	8.9307	10.982770	0.000479	4.789226	0.811317	0.000048
 900	8.9451e+01	8.9404	11.027985	0.000454	4.543625	0.769711	0.000045
 901	8.9550e+01	8.9478	11.074422	0.000467	4.666425	0.790514	0.000047
 902	8.9650e+01	8.9578	11.126969	0.000528	5.280428	0.894529	0.000053
 903	8.9749e+01	8.9679	11.177887	0.000512	5.116694	0.866791	0.000051
 904	8.9849e+01	8.9795	11.225139	0.000475	4.748292	0.804382	0.000047
 905	8.9948e+01	8.9866	11.279315	0.000544	5.444163	0.922266	0.000054
 906	9.0047e+01	8.9996	11.328196	0.000491	4.912027	0.832120	0.000049
 907	9.0147e+01	9.0092	11.377485	0.000495	4.952960	0.839054	0.000050
 908	9.0246e+01	9.0187	11.426366	0.000491	4.912027	0.832120	0.000049
 909	9.0346e+01	9.0305	11.478913	0.000528	5.280428	0.894529	0.000053
 910	9.0445e+01	9.0400	11.530646	0.000520	5.198561	0.880660	0.000052
 911	9.0545e+01	9.0481	11.579119	0.000487	4.871093	0.825185	0.000049
 912	9.0644e+01	9.0576	11.629223	0.000503	5.034827	0.852923	0.000050
 913	9.0744e+01	9.0703	11.680955	0.000520	5.198561	0.880660	0.000052
 914	9.0844e+01	9.0791	11.727392	0.000467	4.666425	0.790514	0.000047
 915	9.0943e+01	9.0910	11.776681	0.000495	4.952960	0.839054	0.000050
 916	9.1043e+01	9.0995	11.830450	0.000540	5.403229	0.915332	0.000054
 917	9.1142e+01	9.1089	11.880146	0.000499	4.993894	0.845988	0.000050
 918	9.1242e+01	9.1178	11.935951	0.000561	5.607897	0.950003	0.000056
 919	9.1341e+01	9.1286	11.988906	0.000532	5.321362	0.901463	0.000053
 920	9.1441e+01	9.1384	12.036158	0.000475	4.748292	0.804382	0.000047
 921	9.1540e+01	9.1494	12.093593	0.000577	5.771631	0.977741	0.000058
 922	9.1639e+01	9.1614	12.145326	0.000520	5.198561	0.880660	0.000052
 923	9.1739e+01	9.1692	12.194614	0.000495	4.952960	0.839054	0.000050
 924	9.1838e+01	9.1804	12.244717	0.000503	5.034827	0.852923	0.000050
 925	9.1938e+01	9.1885	12.300523	0.000561	5.607897	0.950003	0.000056
 926	9.2037e+01	9.2004	12.349811	0.000495	4.952960	0.839054	0.000050
 927	9.2137e+01	9.2099	12.401544	0.000520	5.198561	0.880660	0.000052
 928	9.2237e+01	9.2181	12.448388	0.000471	4.707359	0.797448	0.000047
 929	9.2336e+01	9.2300	12.502972	0.000549	5.485096	0.929200	0.000055
 930	9.2436e+01	9.2384	12.553890	0.000512	5.116694	0.866791	0.000051
 931	9.2535e+01	9.2476	12.604808	0.000512	5.116694	0.866791	0.000051
 932	9.2635e+01	9.2570	12.661021	0.000565	5.648830	0.956938	0.000056
 933	9.2734e+01	9.2677	12.710310	0.000495	4.952960	0.839054	0.000050
 934	9.2834e+01	9.2780	12.766116	0.000561	5.607897	0.950003	0.000056
 935	9.2933e+01	9.2885	12.817848	0.000520	5.198561	0.880660	0.000052
 936	9.3032e+01	9.2957	12.873654	0.000561	5.607897	0.950003	0.000056
 937	9.3132e+01	9.3078	12.928645	0.000553	5.526030	0.936135	0.000055
 938	9.3231e+01	9.3217	12.984859	0.000565	5.648830	0.956938	0.000056
 939	9.3331e+01	9.3286	13.038628	0.000540	5.403229	0.915332	0.000054
 940	9.3430e+01	9.3362	13.094026	0.000557	5.566963	0.943069	0.000056
 941	9.3530e+01	9.3500	13.144944	0.000512	5.116694	0.866791	0.000051
 942	9.3629e+01	9.3568	13.203194	0.000585	5.853498	0.991609	0.000059
 943	9.3729e+01	9.3656	13.258593	0.000557	5.566963	0.943069	0.000056
 944	9.3829e+01	9.3771	13.317657	0.000594	5.935365	1.005478	0.000059
 945	9.3928e+01	9.3906	13.373871	0.000565	5.648830	0.956938	0.000056
 946	9.4028e+01	9.3982	13.434972	0.000614	6.140033	1.040150	0.000061
 947	9.4127e+01	9.4093	13.495259	0.000606	6.058166	1.026281	0.000061
 948	9.4227e+01	9.4177	13.555545	0.000606	6.058166	1.026281	0.000061
 949	9.4326e+01	9.4270	13.612166	0.000569	5.689764	0.963872	0.000057
 950	9.4425e+01	9.4360	13.671638	0.000598	5.976299	1.012412	0.000060
 951	9.4525e+01	9.4489	13.733961	0.000626	6.262834	1.060953	0.000063
 952	9.4624e+01	9.4604	13.793026	0.000594	5.935365	1.005478	0.000059
 953	9.4724e+01	9.4680	13.856572	0.000639	6.385634	1.081756	0.000064
 954	9.4823e+01	9.4764	13.917673	0.000614	6.140033	1.040150	0.000061
 955	9.4923e+01	9.4886	13.979996	0.000626	6.262834	1.060953	0.000063
 956	9.5022e+01	9.4995	14.043542	0.000639	6.385634	1.081756	0.000064
 957	9.5122e+01	9.5050	14.113197	0.000700	6.999638	1.185771	0.000070
 958	9.5222e+01	9.5169	14.183260	0.000704	7.040571	1.192705	0.000070
 959	9.5321e+01	9.5282	14.248842	0.000659	6.590302	1.116427	0.000066
 960	9.5421e+01	9.5373	14.314832	0.000663	6.631236	1.123362	0.000066
 961	9.5520e+01	9.5465	14.379599	0.000651	6.508435	1.102559	0.000065
 962	9.5620e+01	9.5569	14.447626	0.000684	6.835904	1.158033	0.000068
 963	9.5719e+01	9.5644	14.518911	0.000716	7.163372	1.213508	0.000072
 964	9.5819e+01	9.5791	14.582049	0.000634	6.344701	1.074821	0.000063
 965	9.5918e+01	9.5850	14.655778	0.000741	7.408973	1.255114	0.000074
 966	9.6017e+01	9.5935	14.722582	0.000671	6.713103	1.137230	0.000067
 967	9.6117e+01	9.6057	14.794274	0.000720	7.204306	1.220442	0.000072
 968	9.6216e+01	9.6174	14.859042	0.000651	6.508435	1.102559	0.000065
 969	9.6316e+01	9.6255	14.931956	0.000733	7.327106	1.241245	0.000073
 970	9.6415e+01	9.6375	15.004463	0.000729	7.286173	1.234311	0.000073
 971	9.6515e+01	9.6445	15.074118	0.000700	6.999638	1.185771	0.000070
 972	9.6615e+01	9.6582	15.148662	0.000749	7.490840	1.268983	0.000075
 973	9.6714e+01	9.6652	15.216281	0.000679	6.794970	1.151099	0.000068
 974	9.6814e+01	9.6759	15.287566	0.000716	7.163372	1.213508	0.000072
 975	9.6913e+01	9.6857	15.356407	0.000692	6.917771	1.171902	0.000069
 976	9.7013e+01	9.6954	15.432987	0.000770	7.695508	1.303654	0.000077
 977	9.7112e+01	9.7046	15.503050	0.000704	7.040571	1.192705	0.000070
 978	9.7212e+01	9.7163	15.573113	0.000704	7.040571	1.192705	0.000070
 979	9.7311e+01	9.7253	15.641547	0.000688	6.876837	1.164968	0.000069
 980	9.7410e+01	9.7324	15.712832	0.000716	7.163372	1.213508	0.000072
 981	9.7510e+01	9.7449	15.784117	0.000716	7.163372	1.213508	0.000072
 982	9.7609e+01	9.7552	15.854994	0.000712	7.122438	1.206574	0.000071
 983	9.7709e+01	9.7632	15.939314	0.000847	8.473246	1.435407	0.000085
 984	9.7808e+01	9.7754	16.013858	0.000749	7.490840	1.268983	0.000075
 985	9.7908e+01	9.7878	16.090845	0.000774	7.736442	1.310589	0.000077
 986	9.8007e+01	9.7979	16.170277	0.000798	7.982043	1.352195	0.000080
 987	9.8107e+01	9.8071	16.250116	0.000802	8.022977	1.359129	0.000080
 988	9.8207e+01	9.8154	16.326697	0.000770	7.695508	1.303654	0.000077
 989	9.8306e+01	9.8257	16.408165	0.000819	8.186711	1.386866	0.000082
 990	9.8406e+01	9.8340	16.481894	0.000741	7.408973	1.255114	0.000074
 991	9.8505e+01	9.8438	16.563363	0.000819	8.186711	1.386866	0.000082
 992	9.8605e+01	9.8535	16.641980	0.000790	7.900176	1.338326	0.000079
 993	9.8704e+01	9.8640	16.719375	0.000778	7.777375	1.317523	0.000078
 994	9.8803e+01	9.8743	16.802066	0.000831	8.309512	1.407669	0.000083
 995	9.8903e+01	9.8849	16.879053	0.000774	7.736442	1.310589	0.000077
 996	9.9002e+01	9.8918	16.963373	0.000847	8.473246	1.435407	0.000085
 997	9.9102e+01	9.9040	17.042398	0.000794	7.941110	1.345260	0.000079
 998	9.9201e+01	9.9127	17.117349	0.000753	7.531774	1.275917	0.000075
 999	9.9301e+01	9.9252	17.199632	0.000827	8.268578	1.400735	0.000083
1000	9.9400e+01	9.9326	17.287211	0.000880	8.800714	1.490881	0.000088
1001	9.9500e+01	9.9431	17.367864	0.000810	8.104844	1.372998	0.000081
1002	9.9600e+01	9.9546	17.445667	0.000782	7.818309	1.324457	0.000078
1003	9.9699e+01	9.9658	17.527135	0.000819	8.186711	1.386866	0.000082
1004	9.9799e+01	9.9744	17.601679	0.000749	7.490840	1.268983	0.000075
1005	9.9898e+01	9.9864	17.680703	0.000794	7.941110	1.345260	0.000079
1006	9.9998e+01	9.9957	17.760950	0.000806	8.063910	1.366063	0.000081
1007	1.0010e+02	9.9811	17.806165	-0.000454	-4.543625	-0.769711	0.000045
1008	1.0020e+02	9.9760	17.848529	-0.000426	-4.257090	-0.721171	0.000043
1009	1.0030e+02	9.9660	17.888041	-0.000397	-3.970555	-0.672630	0.000040
1010	1.0040e+02	9.9532	17.922258	-0.000344	-3.438419	-0.582484	0.000034
1011	1.0050e+02	9.9429	17.961362	-0.000393	-3.929621	-0.665696	0.000039
1012	1.0059e+02	9.9360	17.993135	-0.000319	-3.192817	-0.540878	0.000032
1013	1.0069e+02	9.9237	18.031833	-0.000389	-3.888688	-0.658762	0.000039
1014	1.0079e+02	9.9158	18.072567	-0.000409	-4.093355	-0.693433	0.000041
1015	1.0089e+02	9.9036	18.114931	-0.000426	-4.257090	-0.721171	0.000043
1016	1.0099e+02	9.8930	18.156072	-0.000413	-4.134289	-0.700368	0.000041
1017	1.0109e+02	9.8846	18.204546	-0.000487	-4.871093	-0.825185	0.000049
1018	1.0119e+02	9.8755	18.242836	-0.000385	-3.847754	-0.651827	0.000038
1019	1.0129e+02	9.8636	18.290088	-0.000475	-4.748292	-0.804382	0.000047
1020	1.0139e+02	9.8537	18.332859	-0.000430	-4.298023	-0.728105	0.000043
1021	1.0149e+02	9.8419	18.372778	-0.000401	-4.011488	-0.679565	0.000040
1022	1.0159e+02	9.8340	18.416771	-0.000442	-4.420824	-0.748908	0.000044
1023	1.0169e+02	9.8230	18.457098	-0.000405	-4.052422	-0.686499	0.000041
1024	1.0179e+02	9.8153	18.500684	-0.000438	-4.379890	-0.741974	0.000044
1025	1.0189e+02	9.8047	18.546306	-0.000458	-4.584558	-0.776645	0.000046
1026	1.0199e+02	9.7943	18.587041	-0.000409	-4.093355	-0.693433	0.000041
1027	1.0209e+02	9.7852	18.627775	-0.000409	-4.093355	-0.693433	0.000041
1028	1.0219e+02	9.7768	18.657511	-0.000299	-2.988149	-0.506206	0.000030
1029	1.0229e+02	9.7662	18.682766	-0.000254	-2.537880	-0.429929	0.000025
1030	1.0239e+02	9.7547	18.703948	-0.000213	-2.128545	-0.360585	0.000021
1031	1.0248e+02	9.7443	18.725944	-0.000221	-2.210412	-0.374454	0.000022
1032	1.0258e+02	9.7354	18.745090	-0.000192	-1.923877	-0.325914	0.000019
1033	1.0268e+02	9.7266	18.766271	-0.000213	-2.128545	-0.360585	0.000021
1034	1.0278e+02	9.7147	18.792341	-0.000262	-2.619747	-0.443797	0.000026
1035	1.0288e+02	9.7083	18.815560	-0.000233	-2.333213	-0.395257	0.000023
1036	1.0298e+02	9.6973	18.830631	-0.000151	-1.514542	-0.256570	0.000015
1037	1.0308e+02	9.6848	18.854665	-0.000242	-2.415080	-0.409126	0.000024
1038	1.0318e+02	9.6777	18.871773	-0.000172	-1.719209	-0.291242	0.000017
1039	1.0328e+02	9.6655	18.886437	-0.000147	-1.473608	-0.249636	0.000015
1040	1.0338e+02	9.6540	18.909656	-0.000233	-2.333213	-0.395257	0.000023
1041	1.0348e+02	9.6473	18.923098	-0.000135	-1.350807	-0.228833	0.000014
1042	1.0358e+02	9.6351	18.942651	-0.000196	-1.964811	-0.332848	0.000020
1043	1.0368e+02	9.6280	18.960166	-0.000176	-1.760143	-0.298176	0.000018
1044	1.0378e+02	9.6158	18.977275	-0.000172	-1.719209	-0.291242	0.000017
1045	1.0388e+02	9.6072	18.990717	-0.000135	-1.350807	-0.228833	0.000014
1046	1.0398e+02	9.5956	19.006603	-0.000160	-1.596409	-0.270439	0.000016
1047	1.0408e+02	9.5862	19.018416	-0.000119	-1.187073	-0.201096	0.000012
1048	1.0418e+02	9.5764	19.034303	-0.000160	-1.596409	-0.270439	0.000016
1049	1.0428e+02	9.5648	19.044894	-0.000106	-1.064272	-0.180293	0.000011
1050	1.0438e+02	9.5559	19.060780	-0.000160	-1.596409	-0.270439	0.000016
1051	1.0447e+02	9.5459	19.074630	-0.000139	-1.391741	-0.235767	0.000014
1052	1.0457e+02	9.5382	19.085221	-0.000106	-1.064272	-0.180293	0.000011
1053	1.0467e+02	9.5264	19.101107	-0.000160	-1.596409	-0.270439	0.000016
1054	1.0477e+02	9.5143	19.112920	-0.000119	-1.187073	-0.201096	0.000012
1055	1.0487e+02	9.5049	19.122696	-0.000098	-0.982405	-0.166424	0.000010
1056	1.0497e+02	9.4976	19.133694	-0.000111	-1.105206	-0.187227	0.000011
1057	1.0507e+02	9.4843	19.144693	-0.000111	-1.105206	-0.187227	0.000011
1058	1.0517e+02	9.4793	19.156506	-0.000119	-1.187073	-0.201096	0.000012
1059	1.0527e+02	9.4656	19.168318	-0.000119	-1.187073	-0.201096	0.000012
1060	1.0537e+02	9.4571	19.177687	-0.000094	-0.941472	-0.159490	0.000009
1061	1.0547e+02	9.4495	19.189500	-0.000119	-1.187073	-0.201096	0.000012
1062	1.0557e+02	9.4367	19.198462	-0.000090	-0.900538	-0.152555	0.000009
1063	1.0567e+02	9.4271	19.210275	-0.000119	-1.187073	-0.201096	0.000012
1064	1.0577e+02	9.4189	19.217607	-0.000074	-0.736804	-0.124818	0.000007
1065	1.0587e+02	9.4068	19.225346	-0.000078	-0.777738	-0.131752	0.000008
1066	1.0597e+02	9.3978	19.235937	-0.000106	-1.064272	-0.180293	0.000011
1067	1.0607e+02	9.3868	19.242047	-0.000061	-0.614003	-0.104015	0.000006
1068	1.0617e+02	9.3779	19.255082	-0.000131	-1.309874	-0.221899	0.000013
1069	1.0627e+02	9.3671	19.265673	-0.000106	-1.064272	-0.180293	0.000011
1070	1.0637e+02	9.3563	19.271783	-0.000061	-0.614003	-0.104015	0.000006
1071	1.0647e+02	9.3482	19.279930	-0.000082	-0.818671	-0.138687	0.000008
1072	1.0656e+02	9.3384	19.292558	-0.000127	-1.268940	-0.214964	0.000013
1073	1.0666e+02	9.3286	19.299075	-0.000065	-0.654937	-0.110949	0.000007
1074	1.0676e+02	9.3170	19.306815	-0.000078	-0.777738	-0.131752	0.000008
1075	1.0686e+02	9.3070	19.316591	-0.000098	-0.982405	-0.166424	0.000010
1076	1.0696e+02	9.2988	19.323109	-0.000065	-0.654937	-0.110949	0.000007
1077	1.0706e+02	9.2884	19.326367	-0.000033	-0.327468	-0.055475	0.000003
1078	1.0716e+02	9.2789	19.334107	-0.000078	-0.777738	-0.131752	0.000008
1079	1.0726e+02	9.2664	19.339402	-0.000053	-0.532136	-0.090146	0.000005
1080	1.0736e+02	9.2579	19.347957	-0.000086	-0.859605	-0.145621	0.000009
1081	1.0746e+02	9.2487	19.355289	-0.000074	-0.736804	-0.124818	0.000007
1082	1.0756e+02	9.2383	19.360991	-0.000057	-0.573070	-0.097081	0.000006
1083	1.0766e+02	9.2292	19.365472	-0.000045	-0.450269	-0.076278	0.000005
1084	1.0776e+02	9.2202	19.363843	0.000016	0.163734	0.027737	-0.000002
1085	1.0786e+02	9.2068	19.372397	-0.000086	-0.859605	-0.145621	0.000009
1086	1.0796e+02	9.1993	19.377285	-0.000049	-0.491203	-0.083212	0.000005
1087	1.0806e+02	9.1883	19.380137	-0.000029	-0.286535	-0.048540	0.000003
1088	1.0816e+02	9.1773	19.382173	-0.000020	-0.204668	-0.034672	0.000002
1089	1.0826e+02	9.1682	19.387061	-0.000049	-0.491203	-0.083212	0.000005
1090	1.0836e+02	9.1580	19.387876	-0.000008	-0.081867	-0.013869	0.000001
1091	1.0845e+02	9.1479	19.394394	-0.000065	-0.654937	-0.110949	0.000007
1092	1.0855e+02	9.1406	19.394801	-0.000004	-0.040934	-0.006934	0.000000
1093	1.0865e+02	9.1277	19.392357	0.000025	0.245601	0.041606	-0.000002
1094	1.0875e+02	9.1179	19.394801	-0.000025	-0.245601	-0.041606	0.000002
1095	1.0885e+02	9.1113	19.393579	0.000012	0.122801	0.020803	-0.000001
1096	1.0895e+02	9.0991	19.391542	0.000020	0.204668	0.034672	-0.000002
1097	1.0905e+02	9.0923	19.390727	0.000008	0.081867	0.013869	-0.000001
1098	1.0915e+02	9.0778	19.383395	0.000074	0.736804	0.124818	-0.000007
1099	1.0925e+02	9.0687	19.384617	-0.000012	-0.122801	-0.020803	0.000001
1100	1.0935e+02	9.0607	19.385025	-0.000004	-0.040934	-0.006934	0.000000
1101	1.0945e+02	9.0483	19.383395	0.000016	0.163734	0.027737	-0.000002
1102	1.0955e+02	9.0388	19.387061	-0.000037	-0.368402	-0.062409	0.000004
1103	1.0965e+02	9.0303	19.385839	0.000012	0.122801	0.020803	-0.000001
1104	1.0975e+02	9.0202	19.378507	0.000074	0.736804	0.124818	-0.000007
1105	1.0985e+02	9.0091	19.379322	-0.000008	-0.081867	-0.013869	0.000001
1106	1.0995e+02	8.9973	19.373619	0.000057	0.573070	0.097081	-0.000006
1107	1.1005e+02	8.9911	19.369953	0.000037	0.368402	0.062409	-0.000004
1108	1.1015e+02	8.9785	19.369953	-0.000000	-0.000000	-0.000000	0.000000
1109	1.1025e+02	8.9715	19.359362	0.000106	1.064272	0.180293	-0.000011
1110	1.1035e+02	8.9590	19.357325	0.000020	0.204668	0.034672	-0.000002
1111	1.1044e+02	8.9502	19.359769	-0.000025	-0.245601	-0.041606	0.000002
1112	1.1054e+02	8.9407	19.354881	0.000049	0.491203	0.083212	-0.000005
1113	1.1064e+02	8.9314	19.352437	0.000025	0.245601	0.041606	-0.000002
1114	1.1074e+02	8.9198	19.348364	0.000041	0.409336	0.069343	-0.000004
1115	1.1084e+02	8.9097	19.346327	0.000020	0.204668	0.034672	-0.000002
1116	1.1094e+02	8.8984	19.338995	0.000074	0.736804	0.124818	-0.000007
1117	1.1104e+02	8.8895	19.338180	0.000008	0.081867	0.013869	-0.000001
1118	1.1114e+02	8.8788	19.335329	0.000029	0.286535	0.048540	-0.000003
1119	1.1124e+02	8.8721	19.332070	0.000033	0.327468	0.055475	-0.000003
1120	1.1134e+02	8.8612	19.326775	0.000053	0.532136	0.090146	-0.000005
1121	1.1144e+02	8.8515	19.325145	0.000016	0.163734	0.027737	-0.000002
1122	1.1154e+02	8.8387	19.325553	-0.000004	-0.040934	-0.006934	0.000000
1123	1.1164e+02	8.8302	19.320665	0.000049	0.491203	0.083212	-0.000005
1124	1.1174e+02	8.8203	19.318221	0.000025	0.245601	0.041606	-0.000002
1125	1.1184e+02	8.8108	19.315369	0.000029	0.286535	0.048540	-0.000003
1126	1.1194e+02	8.8033	19.311703	0.000037	0.368402	0.062409	-0.000004
1127	1.1204e+02	8.7903	19.304371	0.000074	0.736804	0.124818	-0.000007
1128	1.1214e+02	8.7799	19.303556	0.000008	0.081867	0.013869	-0.000001
1129	1.1224e+02	8.7691	19.299890	0.000037	0.368402	0.062409	-0.000004
1130	1.1234e+02	8.7616	19.296224	0.000037	0.368402	0.062409	-0.000004
1131	1.1244e+02	8.7511	19.293373	0.000029	0.286535	0.048540	-0.000003
1132	1.1253e+02	8.7415	19.289707	0.000037	0.368402	0.062409	-0.000004
1133	1.1263e+02	8.7301	19.284004	0.000057	0.573070	0.097081	-0.000006
1134	1.1273e+02	8.7196	19.278301	0.000057	0.573070	0.097081	-0.000006
1135	1.1283e+02	8.7113	19.268117	0.000102	1.023339	0.173358	-0.000010
1136	1.1293e+02	8.7016	19.264044	0.000041	0.409336	0.069343	-0.000004
1137	1.1303e+02	8.6907	19.253860	0.000102	1.023339	0.173358	-0.000010
1138	1.1313e+02	8.6816	19.250194	0.000037	0.368402	0.062409	-0.000004
1139	1.1323e+02	8.6703	19.244492	0.000057	0.573070	0.097081	-0.000006
1140	1.1333e+02	8.6621	19.237974	0.000065	0.654937	0.110949	-0.000007
1141	1.1343e+02	8.6523	19.230642	0.000074	0.736804	0.124818	-0.000007
1142	1.1353e+02	8.6421	19.222088	0.000086	0.859605	0.145621	-0.000009
1143	1.1363e+02	8.6341	19.213941	0.000082	0.818671	0.138687	-0.000008
1144	1.1373e+02	8.6214	19.207016	0.000070	0.695870	0.117884	-0.000007
1145	1.1383e+02	8.6137	19.198869	0.000082	0.818671	0.138687	-0.000008
1146	1.1393e+02	8.6002	19.189500	0.000094	0.941472	0.159490	-0.000009
1147	1.1403e+02	8.5910	19.179317	0.000102	1.023339	0.173358	-0.000010
1148	1.1413e+02	8.5825	19.169540	0.000098	0.982405	0.166424	-0.000010
1149	1.1423e+02	8.5718	19.161801	0.000078	0.777738	0.131752	-0.000008
1150	1.1433e+02	8.5622	19.154469	0.000074	0.736804	0.124818	-0.000007
1151	1.1442e+02	8.5523	19.147137	0.000074	0.736804	0.124818	-0.000007
1152	1.1452e+02	8.5416	19.132880	0.000143	1.432674	0.242702	-0.000014
1153	1.1462e+02	8.5316	19.126770	0.000061	0.614003	0.104015	-0.000006
1154	1.1472e+02	8.5217	19.115771	0.000111	1.105206	0.187227	-0.000011
1155	1.1482e+02	8.5158	19.105588	0.000102	1.023339	0.173358	-0.000010
1156	1.1492e+02	8.5031	19.094997	0.000106	1.064272	0.180293	-0.000011
1157	1.1502e+02	8.4935	19.088479	0.000065	0.654937	0.110949	-0.000007
1158	1.1512e+02	8.4838	19.075444	0.000131	1.309874	0.221899	-0.000013
1159	1.1522e+02	8.4722	19.065668	0.000098	0.982405	0.166424	-0.000010
1160	1.1532e+02	8.4614	19.057114	0.000086	0.859605	0.145621	-0.000009
1161	1.1542e+02	8.4550	19.044486	0.000127	1.268940	0.214964	-0.000013
1162	1.1552e+02	8.4402	19.034303	0.000102	1.023339	0.173358	-0.000010
1163	1.1562e+02	8.4339	19.023304	0.000111	1.105206	0.187227	-0.000011
1164	1.1572e+02	8.4250	19.016380	0.000070	0.695870	0.117884	-0.000007
1165	1.1582e+02	8.4132	19.004974	0.000115	1.146140	0.194161	-0.000011
1166	1.1592e+02	8.4052	18.992346	0.000127	1.268940	0.214964	-0.000013
1167	1.1602e+02	8.3926	18.980534	0.000119	1.187073	0.201096	-0.000012
1168	1.1612e+02	8.3833	18.972387	0.000082	0.818671	0.138687	-0.000008
1169	1.1622e+02	8.3723	18.959352	0.000131	1.309874	0.221899	-0.000013
1170	1.1632e+02	8.3637	18.949575	0.000098	0.982405	0.166424	-0.000010
1171	1.1642e+02	8.3545	18.940207	0.000094	0.941472	0.159490	-0.000009
1172	1.1651e+02	8.3413	18.923913	0.000164	1.637342	0.277373	-0.000016
1173	1.1661e+02	8.3326	18.916173	0.000078	0.777738	0.131752	-0.000008
1174	1.1671e+02	8.3212	18.903138	0.000131	1.309874	0.221899	-0.000013
1175	1.1681e+02	8.3141	18.887659	0.000156	1.555475	0.263505	-0.000016
1176	1.1691e+02	8.3041	18.880327	0.000074	0.736804	0.124818	-0.000007
1177	1.1701e+02	8.2952	18.869329	0.000111	1.105206	0.187227	-0.000011
1178	1.1711e+02	8.2832	18.859960	0.000094	0.941472	0.159490	-0.000009
1179	1.1721e+02	8.2739	18.847740	0.000123	1.228007	0.208030	-0.000012
1180	1.1731e+02	8.2629	18.833890	0.000139	1.391741	0.235767	-0.000014
1181	1.1741e+02	8.2500	18.823299	0.000106	1.064272	0.180293	-0.000011
1182	1.1751e+02	8.2442	18.809857	0.000135	1.350807	0.228833	-0.000014
1183	1.1761e+02	8.2349	18.801710	0.000082	0.818671	0.138687	-0.000008
1184	1.1771e+02	8.2236	18.790712	0.000111	1.105206	0.187227	-0.000011
1185	1.1781e+02	8.2143	18.776862	0.000139	1.391741	0.235767	-0.000014
1186	1.1791e+02	8.2015	18.765049	0.000119	1.187073	0.201096	-0.000012
1187	1.1801e+02	8.1966	18.752829	0.000123	1.228007	0.208030	-0.000012
1188	1.1811e+02	8.1865	18.739794	0.000131	1.309874	0.221899	-0.000013
1189	1.1821e+02	8.1715	18.732055	0.000078	0.777738	0.131752	-0.000008
1190	1.1831e+02	8.1645	18.721056	0.000111	1.105206	0.187227	-0.000011
1191	1.1841e+02	8.1551	18.705577	0.000156	1.555475	0.263505	-0.000016
1192	1.1850e+02	8.1434	18.692950	0.000127	1.268940	0.214964	-0.000013
1193	1.1860e+02	8.1352	18.680322	0.000127	1.268940	0.214964	-0.000013
1194	1.1870e+02	8.1263	18.666065	0.000143	1.432674	0.242702	-0.000014
1195	1.1880e+02	8.1129	18.654252	0.000119	1.187073	0.201096	-0.000012
1196	1.1890e+02	8.1034	18.645291	0.000090	0.900538	0.152555	-0.000009
1197	1.1900e+02	8.0948	18.626146	0.000192	1.923877	0.325914	-0.000019
1198	1.1910e+02	8.0840	18.612296	0.000139	1.391741	0.235767	-0.000014
1199	1.1920e+02	8.0748	18.594780	0.000176	1.760143	0.298176	-0.000018
1200	1.1930e+02	8.0637	18.581338	0.000135	1.350807	0.228833	-0.000014
1201	1.1940e+02	8.0540	18.565044	0.000164	1.637342	0.277373	-0.000016
1202	1.1950e+02	8.0429	18.550380	0.000147	1.473608	0.249636	-0.000015
1203	1.1960e+02	8.0372	18.530420	0.000201	2.005744	0.339782	-0.000020
1204	1.1970e+02	8.0253	18.512904	0.000176	1.760143	0.298176	-0.000018
1205	1.1980e+02	8.0151	18.496611	0.000164	1.637342	0.277373	-0.000016
1206	1.1990e+02	8.0058	18.479502	0.000172	1.719209	0.291242	-0.000017
1207	1.2000e+02	7.9960	18.465245	0.000143	1.432674	0.242702	-0.000014
1208	1.2010e+02	7.9867	18.448544	0.000168	1.678276	0.284308	-0.000017
1209	1.2020e+02	7.9786	18.429806	0.000188	1.882943	0.318979	-0.000019
1210	1.2030e+02	7.9657	18.415549	0.000143	1.432674	0.242702	-0.000014
1211	1.2039e+02	7.9541	18.398034	0.000176	1.760143	0.298176	-0.000018
1212	1.2049e+02	7.9462	18.383777	0.000143	1.432674	0.242702	-0.000014
1213	1.2059e+02	7.9350	18.365039	0.000188	1.882943	0.318979	-0.000019
1214	1.2069e+02	7.9246	18.346301	0.000188	1.882943	0.318979	-0.000019
1215	1.2079e+02	7.9178	18.326749	0.000196	1.964811	0.332848	-0.000020
1216	1.2089e+02	7.9053	18.308011	0.000188	1.882943	0.318979	-0.000019
1217	1.2099e+02	7.8961	18.288459	0.000196	1.964811	0.332848	-0.000020
1218	1.2109e+02	7.8880	18.270128	0.000184	1.842010	0.312045	-0.000018
1219	1.2119e+02	7.8785	18.253834	0.000164	1.637342	0.277373	-0.000016
1220	1.2129e+02	7.8645	18.234282	0.000196	1.964811	0.332848	-0.000020
1221	1.2139e+02	7.8549	18.217988	0.000164	1.637342	0.277373	-0.000016
1222	1.2149e+02	7.8452	18.200880	0.000172	1.719209	0.291242	-0.000017
1223	1.2159e+02	7.8372	18.187845	0.000131	1.309874	0.221899	-0.000013
1224	1.2169e+02	7.8284	18.168292	0.000196	1.964811	0.332848	-0.000020
1225	1.2179e+02	7.8164	18.147925	0.000205	2.046678	0.346717	-0.000020
1226	1.2189e+02	7.8043	18.131632	0.000164	1.637342	0.277373	-0.000016
1227	1.2199e+02	7.7966	18.114116	0.000176	1.760143	0.298176	-0.000018
1228	1.2209e+02	7.7850	18.096600	0.000176	1.760143	0.298176	-0.000018
1229	1.2219e+02	7.7770	18.078677	0.000180	1.801076	0.305111	-0.000018
1230	1.2229e+02	7.7648	18.064013	0.000147	1.473608	0.249636	-0.000015
1231	1.2239e+02	7.7556	18.045682	0.000184	1.842010	0.312045	-0.000018
1232	1.2248e+02	7.7441	18.026945	0.000188	1.882943	0.318979	-0.000019
1233	1.2258e+02	7.7328	18.011873	0.000151	1.514542	0.256570	-0.000015
1234	1.2268e+02	7.7241	17.994765	0.000172	1.719209	0.291242	-0.000017
1235	1.2278e+02	7.7176	17.974397	0.000205	2.046678	0.346717	-0.000020
1236	1.2288e+02	7.7039	17.956474	0.000180	1.801076	0.305111	-0.000018
1237	1.2298e+02	7.6954	17.936107	0.000205	2.046678	0.346717	-0.000020
1238	1.2308e+02	7.6876	17.917777	0.000184	1.842010	0.312045	-0.000018
1239	1.2318e+02	7.6761	17.901890	0.000160	1.596409	0.270439	-0.000016
1240	1.2328e+02	7.6710	17.888041	0.000139	1.391741	0.235767	-0.000014
1241	1.2338e+02	7.6569	17.864415	0.000237	2.374146	0.402191	-0.000024
1242	1.2348e+02	7.6460	17.851380	0.000131	1.309874	0.221899	-0.000013
1243	1.2358e+02	7.6369	17.833050	0.000184	1.842010	0.312045	-0.000018
1244	1.2368e+02	7.6257	17.811868	0.000213	2.128545	0.360585	-0.000021
1245	1.2378e+02	7.6169	17.796796	0.000151	1.514542	0.256570	-0.000015
1246	1.2388e+02	7.6075	17.777244	0.000196	1.964811	0.332848	-0.000020
1247	1.2398e+02	7.5979	17.760543	0.000168	1.678276	0.284308	-0.000017
1248	1.2408e+02	7.5865	17.738953	0.000217	2.169478	0.367520	-0.000022
1249	1.2418e+02	7.5775	17.721030	0.000180	1.801076	0.305111	-0.000018
1250	1.2428e+02	7.5659	17.700256	0.000209	2.087611	0.353651	-0.000021
1251	1.2438e+02	7.5582	17.687221	0.000131	1.309874	0.221899	-0.000013
1252	1.2447e+02	7.5453	17.666446	0.000209	2.087611	0.353651	-0.000021
1253	1.2457e+02	7.5375	17.647709	0.000188	1.882943	0.318979	-0.000019
1254	1.2467e+02	7.5285	17.631008	0.000168	1.678276	0.284308	-0.000017
1255	1.2477e+02	7.5172	17.612677	0.000184	1.842010	0.312045	-0.000018
1256	1.2487e+02	7.5098	17.593939	0.000188	1.882943	0.318979	-0.000019
1257	1.2497e+02	7.4977	17.576831	0.000172	1.719209	0.291242	-0.000017
1258	1.2507e+02	7.4870	17.557686	0.000192	1.923877	0.325914	-0.000019
1259	1.2517e+02	7.4773	17.538948	0.000188	1.882943	0.318979	-0.000019
1260	1.2527e+02	7.4699	17.523469	0.000156	1.555475	0.263505	-0.000016
1261	1.2537e+02	7.4577	17.500251	0.000233	2.333213	0.395257	-0.000023
1262	1.2547e+02	7.4477	17.479476	0.000209	2.087611	0.353651	-0.000021
1263	1.2557e+02	7.4377	17.457887	0.000217	2.169478	0.367520	-0.000022
1264	1.2567e+02	7.4285	17.441186	0.000168	1.678276	0.284308	-0.000017
1265	1.2577e+02	7.4172	17.420004	0.000213	2.128545	0.360585	-0.000021
1266	1.2587e+02	7.4093	17.394749	0.000254	2.537880	0.429929	-0.000025
1267	1.2597e+02	7.3976	17.376011	0.000188	1.882943	0.318979	-0.000019
1268	1.2607e+02	7.3877	17.356459	0.000196	1.964811	0.332848	-0.000020
1269	1.2617e+02	7.3769	17.337721	0.000188	1.882943	0.318979	-0.000019
1270	1.2627e+02	7.3663	17.314502	0.000233	2.333213	0.395257	-0.000023
1271	1.2636e+02	7.3586	17.296987	0.000176	1.760143	0.298176	-0.000018
1272	1.2646e+02	7.3465	17.278656	0.000184	1.842010	0.312045	-0.000018
1273	1.2656e+02	7.3387	17.258289	0.000205	2.046678	0.346717	-0.000020
1274	1.2666e+02	7.3278	17.235478	0.000229	2.292279	0.388323	-0.000023
1275	1.2676e+02	7.3190	17.214704	0.000209	2.087611	0.353651	-0.000021
1276	1.2686e+02	7.3083	17.197188	0.000176	1.760143	0.298176	-0.000018
1277	1.2696e+02	7.2994	17.173969	0.000233	2.333213	0.395257	-0.000023
1278	1.2706e+02	7.2877	17.156046	0.000180	1.801076	0.305111	-0.000018
1279	1.2716e+02	7.2793	17.133235	0.000229	2.292279	0.388323	-0.000023
1280	1.2726e+02	7.2706	17.112053	0.000213	2.128545	0.360585	-0.000021
1281	1.2736e+02	7.2601	17.090057	0.000221	2.210412	0.374454	-0.000022
1282	1.2746e+02	7.2479	17.069282	0.000209	2.087611	0.353651	-0.000021
1283	1.2756e+02	7.2398	17.050952	0.000184	1.842010	0.312045	-0.000018
1284	1.2766e+02	7.2279	17.032214	0.000188	1.882943	0.318979	-0.000019
1285	1.2776e+02	7.2202	17.011440	0.000209	2.087611	0.353651	-0.000021
1286	1.2786e+02	7.2091	16.996368	0.000151	1.514542	0.256570	-0.000015
1287	1.2796e+02	7.1987	16.976408	0.000201	2.005744	0.339782	-0.000020
1288	1.2806e+02	7.1880	16.965003	0.000115	1.146140	0.194161	-0.000011
1289	1.2816e+02	7.1821	16.943006	0.000221	2.210412	0.374454	-0.000022
1290	1.2826e+02	7.1688	16.923046	0.000201	2.005744	0.339782	-0.000020
1291	1.2835e+02	7.1587	16.903494	0.000196	1.964811	0.332848	-0.000020
1292	1.2845e+02	7.1472	16.883941	0.000196	1.964811	0.332848	-0.000020
1293	1.2855e+02	7.1404	16.864389	0.000196	1.964811	0.332848	-0.000020
1294	1.2865e+02	7.1298	16.844837	0.000196	1.964811	0.332848	-0.000020
1295	1.2875e+02	7.1204	16.828950	0.000160	1.596409	0.270439	-0.000016
1296	1.2885e+02	7.1098	16.806954	0.000221	2.210412	0.374454	-0.000022
1297	1.2895e+02	7.0992	16.788623	0.000184	1.842010	0.312045	-0.000018
1298	1.2905e+02	7.0885	16.768663	0.000201	2.005744	0.339782	-0.000020
1299	1.2915e+02	7.0786	16.751555	0.000172	1.719209	0.291242	-0.000017
1300	1.2925e+02	7.0754	16.734854	0.000168	1.678276	0.284308	-0.000017
1301	1.2935e+02	7.0592	16.716524	0.000184	1.842010	0.312045	-0.000018
1302	1.2945e+02	7.0483	16.698601	0.000180	1.801076	0.305111	-0.000018
1303	1.2955e+02	7.0388	16.682307	0.000164	1.637342	0.277373	-0.000016
1304	1.2965e+02	7.0292	16.661532	0.000209	2.087611	0.353651	-0.000021
1305	1.2975e+02	7.0181	16.635870	0.000258	2.578814	0.436863	-0.000026
1306	1.2985e+02	7.0098	16.615095	0.000209	2.087611	0.353651	-0.000021
1307	1.2995e+02	6.9998	16.596765	0.000184	1.842010	0.312045	-0.000018
1308	1.3005e+02	6.9918	16.579657	0.000172	1.719209	0.291242	-0.000017
1309	1.3015e+02	6.9808	16.556438	0.000233	2.333213	0.395257	-0.000023
1310	1.3025e+02	6.9707	16.532405	0.000242	2.415080	0.409126	-0.000024
1311	1.3034e+02	6.9613	16.514889	0.000176	1.760143	0.298176	-0.000018
1312	1.3044e+02	6.9500	16.495744	0.000192	1.923877	0.325914	-0.000019
1313	1.3054e+02	6.9426	16.478636	0.000172	1.719209	0.291242	-0.000017
1314	1.3064e+02	6.9315	16.455824	0.000229	2.292279	0.388323	-0.000023
1315	1.3074e+02	6.9198	16.432199	0.000237	2.374146	0.402191	-0.000024
1316	1.3084e+02	6.9099	16.413053	0.000192	1.923877	0.325914	-0.000019
1317	1.3094e+02	6.9019	16.390242	0.000229	2.292279	0.388323	-0.000023
1318	1.3104e+02	6.8893	16.368246	0.000221	2.210412	0.374454	-0.000022
1319	1.3114e+02	6.8800	16.349508	0.000188	1.882943	0.318979	-0.000019
1320	1.3124e+02	6.8703	16.328734	0.000209	2.087611	0.353651	-0.000021
1321	1.3134e+02	6.8636	16.308774	0.000201	2.005744	0.339782	-0.000020
1322	1.3144e+02	6.8520	16.283518	0.000254	2.537880	0.429929	-0.000025
1323	1.3154e+02	6.8408	16.262337	0.000213	2.128545	0.360585	-0.000021
1324	1.3164e+02	6.8317	16.242784	0.000196	1.964811	0.332848	-0.000020
1325	1.3174e+02	6.8224	16.218751	0.000242	2.415080	0.409126	-0.000024
1326	1.3184e+02	6.8112	16.197162	0.000217	2.169478	0.367520	-0.000022
1327	1.3194e+02	6.8009	16.176795	0.000205	2.046678	0.346717	-0.000020
1328	1.3204e+02	6.7925	16.151540	0.000254	2.537880	0.429929	-0.000025
1329	1.3214e+02	6.7796	16.131987	0.000196	1.964811	0.332848	-0.000020
1330	1.3224e+02	6.7751	16.113249	0.000188	1.882943	0.318979	-0.000019
1331	1.3234e+02	6.7631	16.089623	0.000237	2.374146	0.402191	-0.000024
1332	1.3243e+02	6.7507	16.069664	0.000201	2.005744	0.339782	-0.000020
1333	1.3253e+02	6.7407	16.047667	0.000221	2.210412	0.374454	-0.000022
1334	1.3263e+02	6.7316	16.024856	0.000229	2.292279	0.388323	-0.000023
1335	1.3273e+02	6.7239	16.004489	0.000205	2.046678	0.346717	-0.000020
1336	1.3283e+02	6.7126	15.979234	0.000254	2.537880	0.429929	-0.000025
1337	1.3293e+02	6.7031	15.960089	0.000192	1.923877	0.325914	-0.000019
1338	1.3303e+02	6.6897	15.932389	0.000278	2.783482	0.471535	-0.000028
1339	1.3313e+02	6.6823	15.910800	0.000217	2.169478	0.367520	-0.000022
1340	1.3323e+02	6.6700	15.887174	0.000237	2.374146	0.402191	-0.000024
1341	1.3333e+02	6.6607	15.865178	0.000221	2.210412	0.374454	-0.000022
1342	1.3343e+02	6.6520	15.844811	0.000205	2.046678	0.346717	-0.000020
1343	1.3353e+02	6.6438	15.823221	0.000217	2.169478	0.367520	-0.000022
1344	1.3363e+02	6.6331	15.800818	0.000225	2.251345	0.381388	-0.000023
1345	1.3373e+02	6.6232	15.778414	0.000225	2.251345	0.381388	-0.000023
1346	1.3383e+02	6.6135	15.757232	0.000213	2.128545	0.360585	-0.000021
1347	1.3393e+02	6.6027	15.738494	0.000188	1.882943	0.318979	-0.000019
1348	1.3403e+02	6.5938	15.716090	0.000225	2.251345	0.381388	-0.000023
1349	1.3413e+02	6.5865	15.693686	0.000225	2.251345	0.381388	-0.000023
1350	1.3423e+02	6.5720	15.669246	0.000246	2.456013	0.416060	-0.000025
1351	1.3432e+02	6.5620	15.646435	0.000229	2.292279	0.388323	-0.000023
1352	1.3442e+02	6.5531	15.621994	0.000246	2.456013	0.416060	-0.000025
1353	1.3452e+02	6.5408	15.602442	0.000196	1.964811	0.332848	-0.000020
1354	1.3462e+02	6.5309	15.581260	0.000213	2.128545	0.360585	-0.000021
1355	1.3472e+02	6.5237	15.558449	0.000229	2.292279	0.388323	-0.000023
1356	1.3482e+02	6.5137	15.536045	0.000225	2.251345	0.381388	-0.000023
1357	1.3492e+02	6.5038	15.515678	0.000205	2.046678	0.346717	-0.000020
1358	1.3502e+02	6.4942	15.496533	0.000192	1.923877	0.325914	-0.000019
1359	1.3512e+02	6.4837	15.472499	0.000242	2.415080	0.409126	-0.000024
1360	1.3522e+02	6.4748	15.449688	0.000229	2.292279	0.388323	-0.000023
1361	1.3532e+02	6.4625	15.430543	0.000192	1.923877	0.325914	-0.000019
1362	1.3542e+02	6.4518	15.400400	0.000303	3.029083	0.513141	-0.000030
1363	1.3552e+02	6.4417	15.381662	0.000188	1.882943	0.318979	-0.000019
1364	1.3562e+02	6.4323	15.358036	0.000237	2.374146	0.402191	-0.000024
1365	1.3572e+02	6.4228	15.333188	0.000250	2.496947	0.422994	-0.000025
1366	1.3582e+02	6.4098	15.310784	0.000225	2.251345	0.381388	-0.000023
1367	1.3592e+02	6.4030	15.285122	0.000258	2.578814	0.436863	-0.000026
1368	1.3602e+02	6.3938	15.262718	0.000225	2.251345	0.381388	-0.000023
1369	1.3612e+02	6.3837	15.238278	0.000246	2.456013	0.416060	-0.000025
1370	1.3622e+02	6.3745	15.210171	0.000282	2.824415	0.478469	-0.000028
1371	1.3631e+02	6.3638	15.185730	0.000246	2.456013	0.416060	-0.000025
1372	1.3641e+02	6.3543	15.156402	0.000295	2.947216	0.499272	-0.000029
1373	1.3651e+02	6.3433	15.130739	0.000258	2.578814	0.436863	-0.000026
1374	1.3661e+02	6.3343	15.106299	0.000246	2.456013	0.416060	-0.000025
1375	1.3671e+02	6.3241	15.082673	0.000237	2.374146	0.402191	-0.000024
1376	1.3681e+02	6.3129	15.057010	0.000258	2.578814	0.436863	-0.000026
1377	1.3691e+02	6.3034	15.029718	0.000274	2.742548	0.464600	-0.000027
1378	1.3701e+02	6.2977	15.006907	0.000229	2.292279	0.388323	-0.000023
1379	1.3711e+02	6.2823	14.980430	0.000266	2.660681	0.450732	-0.000027
1380	1.3721e+02	6.2737	14.953952	0.000266	2.660681	0.450732	-0.000027
1381	1.3731e+02	6.2661	14.929105	0.000250	2.496947	0.422994	-0.000025
1382	1.3741e+02	6.2560	14.900591	0.000287	2.865349	0.485403	-0.000029
1383	1.3751e+02	6.2447	14.877372	0.000233	2.333213	0.395257	-0.000023
1384	1.3761e+02	6.2331	14.848451	0.000291	2.906282	0.492338	-0.000029
1385	1.3771e+02	6.2256	14.819937	0.000287	2.865349	0.485403	-0.000029
1386	1.3781e+02	6.2141	14.795496	0.000246	2.456013	0.416060	-0.000025
1387	1.3791e+02	6.2029	14.764945	0.000307	3.070017	0.520075	-0.000031
1388	1.3801e+02	6.1971	14.746615	0.000184	1.842010	0.312045	-0.000018
1389	1.3811e+02	6.1848	14.716879	0.000299	2.988149	0.506206	-0.000030
1390	1.3821e+02	6.1731	14.691216	0.000258	2.578814	0.436863	-0.000026
1391	1.3831e+02	6.1642	14.664332	0.000270	2.701615	0.457666	-0.000027
1392	1.3840e+02	6.1553	14.640706	0.000237	2.374146	0.402191	-0.000024
1393	1.3850e+02	6.1445	14.616265	0.000246	2.456013	0.416060	-0.000025
1394	1.3860e+02	6.1332	14.593047	0.000233	2.333213	0.395257	-0.000023
1395	1.3870e+02	6.1269	14.569014	0.000242	2.415080	0.409126	-0.000024
1396	1.3880e+02	6.1150	14.540092	0.000291	2.906282	0.492338	-0.000029
1397	1.3890e+02	6.1036	14.513615	0.000266	2.660681	0.450732	-0.000027
1398	1.3900e+02	6.0941	14.489989	0.000237	2.374146	0.402191	-0.000024
1399	1.3910e+02	6.0862	14.463512	0.000266	2.660681	0.450732	-0.000027
1400	1.3920e+02	6.0744	14.439071	0.000246	2.456013	0.416060	-0.000025
1401	1.3930e+02	6.0646	14.410965	0.000282	2.824415	0.478469	-0.000028
1402	1.3940e+02	6.0566	14.385710	0.000254	2.537880	0.429929	-0.000025
1403	1.3950e+02	6.0464	14.359232	0.000266	2.660681	0.450732	-0.000027
1404	1.3960e+02	6.0339	14.334384	0.000250	2.496947	0.422994	-0.000025
1405	1.3970e+02	6.0239	14.309536	0.000250	2.496947	0.422994	-0.000025
1406	1.3980e+02	6.0154	14.285503	0.000242	2.415080	0.409126	-0.000024
1407	1.3990e+02	6.0053	14.258619	0.000270	2.701615	0.457666	-0.000027
1408	1.4000e+02	5.9951	14.235400	0.000233	2.333213	0.395257	-0.000023
1409	1.4010e+02	5.9890	14.208516	0.000270	2.701615	0.457666	-0.000027
1410	1.4020e+02	5.9762	14.183260	0.000254	2.537880	0.429929	-0.000025
1411	1.4029e+02	5.9664	14.159227	0.000242	2.415080	0.409126	-0.000024
1412	1.4039e+02	5.9545	14.132750	0.000266	2.660681	0.450732	-0.000027
1413	1.4049e+02	5.9472	14.107495	0.000254	2.537880	0.429929	-0.000025
1414	1.4059e+02	5.9353	14.079795	0.000278	2.783482	0.471535	-0.000028
1415	1.4069e+02	5.9271	14.053318	0.000266	2.660681	0.450732	-0.000027
1416	1.4079e+02	5.9151	14.030100	0.000233	2.333213	0.395257	-0.000023
1417	1.4089e+02	5.9045	14.002808	0.000274	2.742548	0.464600	-0.000027
1418	1.4099e+02	5.8959	13.979589	0.000233	2.333213	0.395257	-0.000023
1419	1.4109e+02	5.8871	13.950668	0.000291	2.906282	0.492338	-0.000029
1420	1.4119e+02	5.8759	13.927042	0.000237	2.374146	0.402191	-0.000024
1421	1.4129e+02	5.8639	13.901379	0.000258	2.578814	0.436863	-0.000026
1422	1.4139e+02	5.8569	13.876124	0.000254	2.537880	0.429929	-0.000025
1423	1.4149e+02	5.8459	13.852091	0.000242	2.415080	0.409126	-0.000024
1424	1.4159e+02	5.8373	13.824799	0.000274	2.742548	0.464600	-0.000027
1425	1.4169e+02	5.8253	13.800358	0.000246	2.456013	0.416060	-0.000025
1426	1.4179e+02	5.8181	13.777547	0.000229	2.292279	0.388323	-0.000023
1427	1.4189e+02	5.8072	13.744960	0.000327	3.274684	0.554747	-0.000033
1428	1.4199e+02	5.7952	13.721741	0.000233	2.333213	0.395257	-0.000023
1429	1.4209e+02	5.7858	13.693227	0.000287	2.865349	0.485403	-0.000029
1430	1.4219e+02	5.7784	13.665935	0.000274	2.742548	0.464600	-0.000027
1431	1.4228e+02	5.7651	13.639865	0.000262	2.619747	0.443797	-0.000026
1432	1.4238e+02	5.7555	13.614203	0.000258	2.578814	0.436863	-0.000026
1433	1.4248e+02	5.7471	13.584874	0.000295	2.947216	0.499272	-0.000029
1434	1.4258e+02	5.7351	13.555953	0.000291	2.906282	0.492338	-0.000029
1435	1.4268e+02	5.7266	13.531920	0.000242	2.415080	0.409126	-0.000024
1436	1.4278e+02	5.7168	13.507072	0.000250	2.496947	0.422994	-0.000025
1437	1.4288e+02	5.7073	13.479780	0.000274	2.742548	0.464600	-0.000027
1438	1.4298e+02	5.6985	13.453302	0.000266	2.660681	0.450732	-0.000027
1439	1.4308e+02	5.6861	13.421937	0.000315	3.151884	0.533944	-0.000032
1440	1.4318e+02	5.6787	13.397497	0.000246	2.456013	0.416060	-0.000025
1441	1.4328e+02	5.6676	13.365724	0.000319	3.192817	0.540878	-0.000032
1442	1.4338e+02	5.6567	13.342505	0.000233	2.333213	0.395257	-0.000023
1443	1.4348e+02	5.6510	13.314399	0.000282	2.824415	0.478469	-0.000028
1444	1.4358e+02	5.6408	13.286292	0.000282	2.824415	0.478469	-0.000028
1445	1.4368e+02	5.6316	13.260629	0.000258	2.578814	0.436863	-0.000026
1446	1.4378e+02	5.6159	13.234559	0.000262	2.619747	0.443797	-0.000026
1447	1.4388e+02	5.6084	13.205638	0.000291	2.906282	0.492338	-0.000029
1448	1.4398e+02	5.5941	13.180383	0.000254	2.537880	0.429929	-0.000025
1449	1.4408e+02	5.5886	13.151869	0.000287	2.865349	0.485403	-0.000029
1450	1.4418e+02	5.5789	13.130280	0.000217	2.169478	0.367520	-0.000022
1451	1.4428e+02	5.5669	13.103395	0.000270	2.701615	0.457666	-0.000027
1452	1.4437e+02	5.5592	13.078547	0.000250	2.496947	0.422994	-0.000025
1453	1.4447e+02	5.5473	13.050441	0.000282	2.824415	0.478469	-0.000028
1454	1.4457e+02	5.5379	13.027222	0.000233	2.333213	0.395257	-0.000023
1455	1.4467e+02	5.5282	13.007262	0.000201	2.005744	0.339782	-0.000020
1456	1.4477e+02	5.5184	12.979156	0.000282	2.824415	0.478469	-0.000028
1457	1.4487e+02	5.5100	12.955123	0.000242	2.415080	0.409126	-0.000024
1458	1.4497e+02	5.4986	12.932719	0.000225	2.251345	0.381388	-0.000023
1459	1.4507e+02	5.4900	12.905834	0.000270	2.701615	0.457666	-0.000027
1460	1.4517e+02	5.4791	12.882616	0.000233	2.333213	0.395257	-0.000023
1461	1.4527e+02	5.4698	12.858175	0.000246	2.456013	0.416060	-0.000025
1462	1.4537e+02	5.4590	12.832512	0.000258	2.578814	0.436863	-0.000026
1463	1.4547e+02	5.4493	12.807257	0.000254	2.537880	0.429929	-0.000025
1464	1.4557e+02	5.4368	12.781187	0.000262	2.619747	0.443797	-0.000026
1465	1.4567e+02	5.4288	12.758783	0.000225	2.251345	0.381388	-0.000023
1466	1.4577e+02	5.4160	12.738009	0.000209	2.087611	0.353651	-0.000021
1467	1.4587e+02	5.4071	12.712754	0.000254	2.537880	0.429929	-0.000025
1468	1.4597e+02	5.3989	12.687906	0.000250	2.496947	0.422994	-0.000025
1469	1.4607e+02	5.3899	12.661021	0.000270	2.701615	0.457666	-0.000027
1470	1.4617e+02	5.3777	12.639839	0.000213	2.128545	0.360585	-0.000021
1471	1.4626e+02	5.3680	12.612140	0.000278	2.783482	0.471535	-0.000028
1472	1.4636e+02	5.3594	12.587700	0.000246	2.456013	0.416060	-0.000025
1473	1.4646e+02	5.3488	12.563259	0.000246	2.456013	0.416060	-0.000025
1474	1.4656e+02	5.3414	12.540040	0.000233	2.333213	0.395257	-0.000023
1475	1.4666e+02	5.3275	12.509082	0.000311	3.110950	0.527009	-0.000031
1476	1.4676e+02	5.3193	12.488308	0.000209	2.087611	0.353651	-0.000021
1477	1.4686e+02	5.3071	12.459794	0.000287	2.865349	0.485403	-0.000029
1478	1.4696e+02	5.2985	12.433724	0.000262	2.619747	0.443797	-0.000026
1479	1.4706e+02	5.2868	12.409691	0.000242	2.415080	0.409126	-0.000024
1480	1.4716e+02	5.2821	12.378325	0.000315	3.151884	0.533944	-0.000032
1481	1.4726e+02	5.2714	12.357958	0.000205	2.046678	0.346717	-0.000020
1482	1.4736e+02	5.2593	12.330666	0.000274	2.742548	0.464600	-0.000027
1483	1.4746e+02	5.2496	12.303374	0.000274	2.742548	0.464600	-0.000027
1484	1.4756e+02	5.2393	12.275675	0.000278	2.783482	0.471535	-0.000028
1485	1.4766e+02	5.2305	12.251642	0.000242	2.415080	0.409126	-0.000024
1486	1.4776e+02	5.2190	12.225572	0.000262	2.619747	0.443797	-0.000026
1487	1.4786e+02	5.2116	12.201131	0.000246	2.456013	0.416060	-0.000025
1488	1.4796e+02	5.1992	12.173025	0.000282	2.824415	0.478469	-0.000028
1489	1.4806e+02	5.1882	12.148992	0.000242	2.415080	0.409126	-0.000024
1490	1.4816e+02	5.1785	12.124551	0.000246	2.456013	0.416060	-0.000025
1491	1.4825e+02	5.1684	12.092778	0.000319	3.192817	0.540878	-0.000032
1492	1.4835e+02	5.1592	12.065486	0.000274	2.742548	0.464600	-0.000027
1493	1.4845e+02	5.1489	12.039824	0.000258	2.578814	0.436863	-0.000026
1494	1.4855e+02	5.1388	12.012125	0.000278	2.783482	0.471535	-0.000028
1495	1.4865e+02	5.1296	11.988499	0.000237	2.374146	0.402191	-0.000024
1496	1.4875e+02	5.1221	11.959170	0.000295	2.947216	0.499272	-0.000029
1497	1.4885e+02	5.1089	11.932693	0.000266	2.660681	0.450732	-0.000027
1498	1.4895e+02	5.0989	11.907437	0.000254	2.537880	0.429929	-0.000025
1499	1.4905e+02	5.0911	11.880146	0.000274	2.742548	0.464600	-0.000027
1500	1.4915e+02	5.0785	11.849187	0.000311	3.110950	0.527009	-0.000031
1501	1.4925e+02	5.0706	11.828820	0.000205	2.046678	0.346717	-0.000020
1502	1.4935e+02	5.0593	11.803565	0.000254	2.537880	0.429929	-0.000025
1503	1.4945e+02	5.0504	11.772607	0.000311	3.110950	0.527009	-0.000031
1504	1.4955e+02	5.0426	11.748167	0.000246	2.456013	0.416060	-0.000025
1505	1.4965e+02	5.0301	11.721282	0.000270	2.701615	0.457666	-0.000027
1506	1.4975e+02	5.0207	11.696027	0.000254	2.537880	0.429929	-0.000025
1507	1.4985e+02	5.0114	11.664254	0.000319	3.192817	0.540878	-0.000032
1508	1.4995e+02	5.0000	11.637369	0.000270	2.701615	0.457666	-0.000027
1509	1.5005e+02	4.9897	11.608855	0.000287	2.865349	0.485403	-0.000029
1510	1.5015e+02	4.9837	11.583193	0.000258	2.578814	0.436863	-0.000026
1511	1.5025e+02	4.9728	11.553864	0.000295	2.947216	0.499272	-0.000029
1512	1.5034e+02	4.9595	11.530238	0.000237	2.374146	0.402191	-0.000024
1513	1.5044e+02	4.9500	11.509056	0.000213	2.128545	0.360585	-0.000021
1514	1.5054e+02	4.9407	11.478506	0.000307	3.070017	0.520075	-0.000031
1515	1.5064e+02	4.9307	11.454880	0.000237	2.374146	0.402191	-0.000024
1516	1.5074e+02	4.9194	11.428810	0.000262	2.619747	0.443797	-0.000026
1517	1.5084e+02	4.9116	11.401518	0.000274	2.742548	0.464600	-0.000027
1518	1.5094e+02	4.9012	11.377892	0.000237	2.374146	0.402191	-0.000024
1519	1.5104e+02	4.8908	11.348156	0.000299	2.988149	0.506206	-0.000030
1520	1.5114e+02	4.8830	11.320864	0.000274	2.742548	0.464600	-0.000027
1521	1.5124e+02	4.8698	11.294387	0.000266	2.660681	0.450732	-0.000027
1522	1.5134e+02	4.8614	11.269539	0.000250	2.496947	0.422994	-0.000025
1523	1.5144e+02	4.8486	11.243469	0.000262	2.619747	0.443797	-0.000026
1524	1.5154e+02	4.8405	11.219843	0.000237	2.374146	0.402191	-0.000024
1525	1.5164e+02	4.8316	11.190922	0.000291	2.906282	0.492338	-0.000029
1526	1.5174e+02	4.8210	11.168518	0.000225	2.251345	0.381388	-0.000023
1527	1.5184e+02	4.8146	11.137967	0.000307	3.070017	0.520075	-0.000031
1528	1.5194e+02	4.8003	11.111083	0.000270	2.701615	0.457666	-0.000027
1529	1.5204e+02	4.7911	11.085828	0.000254	2.537880	0.429929	-0.000025
1530	1.5214e+02	4.7825	11.058943	0.000270	2.701615	0.457666	-0.000027
1531	1.5224e+02	4.7720	11.032058	0.000270	2.701615	0.457666	-0.000027
1532	1.5233e+02	4.7596	11.002730	0.000295	2.947216	0.499272	-0.000029
1533	1.5243e+02	4.7491	10.974623	0.000282	2.824415	0.478469	-0.000028
1534	1.5253e+02	4.7424	10.945294	0.000295	2.947216	0.499272	-0.000029
1535	1.5263e+02	4.7317	10.916373	0.000291	2.906282	0.492338	-0.000029
1536	1.5273e+02	4.7229	10.886230	0.000303	3.029083	0.513141	-0.000030
1537	1.5283e+02	4.7127	10.861382	0.000250	2.496947	0.422994	-0.000025
1538	1.5293e+02	4.7004	10.831238	0.000303	3.029083	0.513141	-0.000030
1539	1.5303e+02	4.6929	10.799873	0.000315	3.151884	0.533944	-0.000032
1540	1.5313e+02	4.6822	10.771766	0.000282	2.824415	0.478469	-0.000028
1541	1.5323e+02	4.6729	10.740401	0.000315	3.151884	0.533944	-0.000032
1542	1.5333e+02	4.6633	10.711072	0.000295	2.947216	0.499272	-0.000029
1543	1.5343e+02	4.6528	10.682151	0.000291	2.906282	0.492338	-0.000029
1544	1.5353e+02	4.6453	10.652415	0.000299	2.988149	0.506206	-0.000030
1545	1.5363e+02	4.6325	10.619828	0.000327	3.274684	0.554747	-0.000033
1546	1.5373e+02	4.6265	10.590092	0.000299	2.988149	0.506206	-0.000030
1547	1.5383e+02	4.6134	10.562800	0.000274	2.742548	0.464600	-0.000027
1548	1.5393e+02	4.6018	10.532249	0.000307	3.070017	0.520075	-0.000031
1549	1.5403e+02	4.5918	10.502513	0.000299	2.988149	0.506206	-0.000030
1550	1.5413e+02	4.5823	10.474814	0.000278	2.783482	0.471535	-0.000028
1551	1.5422e+02	4.5748	10.439782	0.000352	3.520286	0.596353	-0.000035
1552	1.5432e+02	4.5606	10.408824	0.000311	3.110950	0.527009	-0.000031
1553	1.5442e+02	4.5538	10.379903	0.000291	2.906282	0.492338	-0.000029
1554	1.5452e+02	4.5437	10.348945	0.000311	3.110950	0.527009	-0.000031
1555	1.5462e+02	4.5329	10.319209	0.000299	2.988149	0.506206	-0.000030
1556	1.5472e+02	4.5223	10.291917	0.000274	2.742548	0.464600	-0.000027
1557	1.5482e+02	4.5116	10.259737	0.000323	3.233751	0.547812	-0.000032
1558	1.5492e+02	4.5031	10.233667	0.000262	2.619747	0.443797	-0.000026
1559	1.5502e+02	4.4933	10.202302	0.000315	3.151884	0.533944	-0.000032
1560	1.5512e+02	4.4837	10.173788	0.000287	2.865349	0.485403	-0.000029
1561	1.5522e+02	4.4754	10.142830	0.000311	3.110950	0.527009	-0.000031
1562	1.5532e+02	4.4616	10.115945	0.000270	2.701615	0.457666	-0.000027
1563	1.5542e+02	4.4535	10.084172	0.000319	3.192817	0.540878	-0.000032
1564	1.5552e+02	4.4424	10.058510	0.000258	2.578814	0.436863	-0.000026
1565	1.5562e+02	4.4336	10.026737	0.000319	3.192817	0.540878	-0.000032
1566	1.5572e+02	4.4239	10.000260	0.000266	2.660681	0.450732	-0.000027
1567	1.5582e+02	4.4138	9.970524	0.000299	2.988149	0.506206	-0.000030
1568	1.5592e+02	4.4045	9.939158	0.000315	3.151884	0.533944	-0.000032
1569	1.5602e+02	4.3946	9.911459	0.000278	2.783482	0.471535	-0.000028
1570	1.5612e+02	4.3822	9.882945	0.000287	2.865349	0.485403	-0.000029
1571	1.5622e+02	4.3732	9.851987	0.000311	3.110950	0.527009	-0.000031
1572	1.5631e+02	4.3633	9.821029	0.000311	3.110950	0.527009	-0.000031
1573	1.5641e+02	4.3533	9.792515	0.000287	2.865349	0.485403	-0.000029
1574	1.5651e+02	4.3467	9.765630	0.000270	2.701615	0.457666	-0.000027
1575	1.5661e+02	4.3346	9.736709	0.000291	2.906282	0.492338	-0.000029
1576	1.5671e+02	4.3238	9.705344	0.000315	3.151884	0.533944	-0.000032
1577	1.5681e+02	4.3121	9.675608	0.000299	2.988149	0.506206	-0.000030
1578	1.5691e+02	4.3038	9.647094	0.000287	2.865349	0.485403	-0.000029
1579	1.5701e+02	4.2959	9.616950	0.000303	3.029083	0.513141	-0.000030
1580	1.5711e+02	4.2834	9.592510	0.000246	2.456013	0.416060	-0.000025
1581	1.5721e+02	4.2737	9.560330	0.000323	3.233751	0.547812	-0.000032
1582	1.5731e+02	4.2616	9.531408	0.000291	2.906282	0.492338	-0.000029
1583	1.5741e+02	4.2544	9.503302	0.000282	2.824415	0.478469	-0.000028
1584	1.5751e+02	4.2453	9.473973	0.000295	2.947216	0.499272	-0.000029
1585	1.5761e+02	4.2333	9.440164	0.000340	3.397485	0.575550	-0.000034
1586	1.5771e+02	4.2251	9.413279	0.000270	2.701615	0.457666	-0.000027
1587	1.5781e+02	4.2159	9.384358	0.000291	2.906282	0.492338	-0.000029
1588	1.5791e+02	4.2043	9.355436	0.000291	2.906282	0.492338	-0.000029
1589	1.5801e+02	4.1939	9.324478	0.000311	3.110950	0.527009	-0.000031
1590	1.5811e+02	4.1837	9.299223	0.000254	2.537880	0.429929	-0.000025
1591	1.5821e+02	4.1761	9.273153	0.000262	2.619747	0.443797	-0.000026
1592	1.5830e+02	4.1655	9.241788	0.000315	3.151884	0.533944	-0.000032
1593	1.5840e+02	4.1544	9.212459	0.000295	2.947216	0.499272	-0.000029
1594	1.5850e+02	4.1447	9.183130	0.000295	2.947216	0.499272	-0.000029
1595	1.5860e+02	4.1357	9.154617	0.000287	2.865349	0.485403	-0.000029
1596	1.5870e+02	4.1267	9.121622	0.000332	3.315618	0.561681	-0.000033
1597	1.5880e+02	4.1143	9.090664	0.000311	3.110950	0.527009	-0.000031
1598	1.5890e+02	4.1044	9.059706	0.000311	3.110950	0.527009	-0.000031
1599	1.5900e+02	4.0932	9.029155	0.000307	3.070017	0.520075	-0.000031
1600	1.5910e+02	4.0820	8.996568	0.000327	3.274684	0.554747	-0.000033
1601	1.5920e+02	4.0766	8.965610	0.000311	3.110950	0.527009	-0.000031
1602	1.5930e+02	4.0654	8.937096	0.000287	2.865349	0.485403	-0.000029
1603	1.5940e+02	4.0557	8.909804	0.000274	2.742548	0.464600	-0.000027
1604	1.5950e+02	4.0440	8.875994	0.000340	3.397485	0.575550	-0.000034
1605	1.5960e+02	4.0337	8.847073	0.000291	2.906282	0.492338	-0.000029
1606	1.5970e+02	4.0243	8.818152	0.000291	2.906282	0.492338	-0.000029
1607	1.5980e+02	4.0150	8.784342	0.000340	3.397485	0.575550	-0.000034
1608	1.5990e+02	4.0052	8.751347	0.000332	3.315618	0.561681	-0.000033
1609	1.6000e+02	3.9966	8.724055	0.000274	2.742548	0.464600	-0.000027
1610	1.6010e+02	3.9860	8.694727	0.000295	2.947216	0.499272	-0.000029
1611	1.6019e+02	3.9761	8.663769	0.000311	3.110950	0.527009	-0.000031
1612	1.6029e+02	3.9629	8.632811	0.000311	3.110950	0.527009	-0.000031
1613	1.6039e+02	3.9574	8.604297	0.000287	2.865349	0.485403	-0.000029
1614	1.6049e+02	3.9442	8.569265	0.000352	3.520286	0.596353	-0.000035
1615	1.6059e+02	3.9370	8.539937	0.000295	2.947216	0.499272	-0.000029
1616	1.6069e+02	3.9266	8.508571	0.000315	3.151884	0.533944	-0.000032
1617	1.6079e+02	3.9161	8.478428	0.000303	3.029083	0.513141	-0.000030
1618	1.6089e+02	3.9053	8.451136	0.000274	2.742548	0.464600	-0.000027
1619	1.6099e+02	3.8963	8.423844	0.000274	2.742548	0.464600	-0.000027
1620	1.6109e+02	3.8876	8.393293	0.000307	3.070017	0.520075	-0.000031
1621	1.6119e+02	3.8741	8.370482	0.000229	2.292279	0.388323	-0.000023
1622	1.6129e+02	3.8658	8.341153	0.000295	2.947216	0.499272	-0.000029
1623	1.6139e+02	3.8566	8.313861	0.000274	2.742548	0.464600	-0.000027
1624	1.6149e+02	3.8461	8.286162	0.000278	2.783482	0.471535	-0.000028
1625	1.6159e+02	3.8354	8.255204	0.000311	3.110950	0.527009	-0.000031
1626	1.6169e+02	3.8255	8.230356	0.000250	2.496947	0.422994	-0.000025
1627	1.6179e+02	3.8174	8.203879	0.000266	2.660681	0.450732	-0.000027
1628	1.6189e+02	3.8094	8.174550	0.000295	2.947216	0.499272	-0.000029
1629	1.6199e+02	3.7953	8.147258	0.000274	2.742548	0.464600	-0.000027
1630	1.6209e+02	3.7854	8.119152	0.000282	2.824415	0.478469	-0.000028
1631	1.6219e+02	3.7785	8.089823	0.000295	2.947216	0.499272	-0.000029
1632	1.6228e+02	3.7670	8.063753	0.000262	2.619747	0.443797	-0.000026
1633	1.6238e+02	3.7562	8.034424	0.000295	2.947216	0.499272	-0.000029
1634	1.6248e+02	3.7469	8.012021	0.000225	2.251345	0.381388	-0.000023
1635	1.6258e+02	3.7359	7.983099	0.000291	2.906282	0.492338	-0.000029
1636	1.6268e+02	3.7276	7.957437	0.000258	2.578814	0.436863	-0.000026
1637	1.6278e+02	3.7172	7.927701	0.000299	2.988149	0.506206	-0.000030
1638	1.6288e+02	3.7093	7.900816	0.000270	2.701615	0.457666	-0.000027
1639	1.6298e+02	3.6954	7.869043	0.000319	3.192817	0.540878	-0.000032
1640	1.6308e+02	3.6890	7.841344	0.000278	2.783482	0.471535	-0.000028
1641	1.6318e+02	3.6776	7.813645	0.000278	2.783482	0.471535	-0.000028
1642	1.6328e+02	3.6684	7.785946	0.000278	2.783482	0.471535	-0.000028
1643	1.6338e+02	3.6573	7.754173	0.000319	3.192817	0.540878	-0.000032
1644	1.6348e+02	3.6460	7.722400	0.000319	3.192817	0.540878	-0.000032
1645	1.6358e+02	3.6369	7.695923	0.000266	2.660681	0.450732	-0.000027
1646	1.6368e+02	3.6280	7.669038	0.000270	2.701615	0.457666	-0.000027
1647	1.6378e+02	3.6193	7.638080	0.000311	3.110950	0.527009	-0.000031
1648	1.6388e+02	3.6070	7.606307	0.000319	3.192817	0.540878	-0.000032
1649	1.6398e+02	3.5975	7.577386	0.000291	2.906282	0.492338	-0.000029
1650	1.6408e+02	3.5863	7.552131	0.000254	2.537880	0.429929	-0.000025
1651	1.6418e+02	3.5820	7.519951	0.000323	3.233751	0.547812	-0.000032
1652	1.6427e+02	3.5668	7.492659	0.000274	2.742548	0.464600	-0.000027
1653	1.6437e+02	3.5567	7.464960	0.000278	2.783482	0.471535	-0.000028
1654	1.6447e+02	3.5470	7.431965	0.000332	3.315618	0.561681	-0.000033
1655	1.6457e+02	3.5384	7.403858	0.000282	2.824415	0.478469	-0.000028
1656	1.6467e+02	3.5290	7.374122	0.000299	2.988149	0.506206	-0.000030
1657	1.6477e+02	3.5197	7.347238	0.000270	2.701615	0.457666	-0.000027
1658	1.6487e+02	3.5085	7.312613	0.000348	3.479352	0.589418	-0.000035
1659	1.6497e+02	3.4987	7.284507	0.000282	2.824415	0.478469	-0.000028
1660	1.6507e+02	3.4860	7.252327	0.000323	3.233751	0.547812	-0.000032
1661	1.6517e+02	3.4788	7.226257	0.000262	2.619747	0.443797	-0.000026
1662	1.6527e+02	3.4687	7.194484	0.000319	3.192817	0.540878	-0.000032
1663	1.6537e+02	3.4593	7.162304	0.000323	3.233751	0.547812	-0.000032
1664	1.6547e+02	3.4488	7.133790	0.000287	2.865349	0.485403	-0.000029
1665	1.6557e+02	3.4384	7.103647	0.000303	3.029083	0.513141	-0.000030
1666	1.6567e+02	3.4289	7.080428	0.000233	2.333213	0.395257	-0.000023
1667	1.6577e+02	3.4192	7.047026	0.000336	3.356551	0.568615	-0.000034
1668	1.6587e+02	3.4089	7.014846	0.000323	3.233751	0.547812	-0.000032
1669	1.6597e+02	3.3993	6.982666	0.000323	3.233751	0.547812	-0.000032
1670	1.6607e+02	3.3861	6.951708	0.000311	3.110950	0.527009	-0.000031
1671	1.6616e+02	3.3790	6.922787	0.000291	2.906282	0.492338	-0.000029
1672	1.6626e+02	3.3688	6.895902	0.000270	2.701615	0.457666	-0.000027
1673	1.6636e+02	3.3582	6.865351	0.000307	3.070017	0.520075	-0.000031
1674	1.6646e+02	3.3479	6.833171	0.000323	3.233751	0.547812	-0.000032
1675	1.6656e+02	3.3376	6.802213	0.000311	3.110950	0.527009	-0.000031
1676	1.6666e+02	3.3296	6.772885	0.000295	2.947216	0.499272	-0.000029
1677	1.6676e+02	3.3181	6.741927	0.000311	3.110950	0.527009	-0.000031
1678	1.6686e+02	3.3096	6.713005	0.000291	2.906282	0.492338	-0.000029
1679	1.6696e+02	3.2999	6.682862	0.000303	3.029083	0.513141	-0.000030
1680	1.6706e+02	3.2909	6.654348	0.000287	2.865349	0.485403	-0.000029
1681	1.6716e+02	3.2803	6.625019	0.000295	2.947216	0.499272	-0.000029
1682	1.6726e+02	3.2703	6.591617	0.000336	3.356551	0.568615	-0.000034
1683	1.6736e+02	3.2587	6.563511	0.000282	2.824415	0.478469	-0.000028
1684	1.6746e+02	3.2487	6.539477	0.000242	2.415080	0.409126	-0.000024
1685	1.6756e+02	3.2394	6.510556	0.000291	2.906282	0.492338	-0.000029
1686	1.6766e+02	3.2305	6.480413	0.000303	3.029083	0.513141	-0.000030
1687	1.6776e+02	3.2197	6.446196	0.000344	3.438419	0.582484	-0.000034
1688	1.6786e+02	3.2088	6.416460	0.000299	2.988149	0.506206	-0.000030
1689	1.6796e+02	3.1997	6.386317	0.000303	3.029083	0.513141	-0.000030
1690	1.6806e+02	3.1878	6.356988	0.000295	2.947216	0.499272	-0.000029
1691	1.6816e+02	3.1799	6.331733	0.000254	2.537880	0.429929	-0.000025
1692	1.6825e+02	3.1693	6.299960	0.000319	3.192817	0.540878	-0.000032
1693	1.6835e+02	3.1609	6.271446	0.000287	2.865349	0.485403	-0.000029
1694	1.6845e+02	3.1467	6.238451	0.000332	3.315618	0.561681	-0.000033
1695	1.6855e+02	3.1374	6.212381	0.000262	2.619747	0.443797	-0.000026
1696	1.6865e+02	3.1285	6.179794	0.000327	3.274684	0.554747	-0.000033
1697	1.6875e+02	3.1176	6.154946	0.000250	2.496947	0.422994	-0.000025
1698	1.6885e+02	3.1116	6.124803	0.000303	3.029083	0.513141	-0.000030
1699	1.6895e+02	3.1015	6.089364	0.000356	3.561219	0.603287	-0.000036
1700	1.6905e+02	3.0902	6.053518	0.000360	3.602153	0.610221	-0.000036
1701	1.6915e+02	3.0809	6.024596	0.000291	2.906282	0.492338	-0.000029
1702	1.6925e+02	3.0695	5.997304	0.000274	2.742548	0.464600	-0.000027
1703	1.6935e+02	3.0582	5.961458	0.000360	3.602153	0.610221	-0.000036
1704	1.6945e+02	3.0499	5.929686	0.000319	3.192817	0.540878	-0.000032
1705	1.6955e+02	3.0403	5.897913	0.000319	3.192817	0.540878	-0.000032
1706	1.6965e+02	3.0293	5.866140	0.000319	3.192817	0.540878	-0.000032
1707	1.6975e+02	3.0186	5.830294	0.000360	3.602153	0.610221	-0.000036
1708	1.6985e+02	3.0103	5.798929	0.000315	3.151884	0.533944	-0.000032
1709	1.6995e+02	3.0007	5.766341	0.000327	3.274684	0.554747	-0.000033
1710	1.7005e+02	2.9912	5.734568	0.000319	3.192817	0.540878	-0.000032
1711	1.7015e+02	2.9812	5.695871	0.000389	3.888688	0.658762	-0.000039
1712	1.7024e+02	2.9720	5.662876	0.000332	3.315618	0.561681	-0.000033
1713	1.7034e+02	2.9630	5.635992	0.000270	2.701615	0.457666	-0.000027
1714	1.7044e+02	2.9510	5.601367	0.000348	3.479352	0.589418	-0.000035
1715	1.7054e+02	2.9400	5.568373	0.000332	3.315618	0.561681	-0.000033
1716	1.7064e+02	2.9299	5.533749	0.000348	3.479352	0.589418	-0.000035
1717	1.7074e+02	2.9237	5.501569	0.000323	3.233751	0.547812	-0.000032
1718	1.7084e+02	2.9118	5.469796	0.000319	3.192817	0.540878	-0.000032
1719	1.7094e+02	2.9014	5.434357	0.000356	3.561219	0.603287	-0.000036
1720	1.7104e+02	2.8932	5.398918	0.000356	3.561219	0.603287	-0.000036
1721	1.7114e+02	2.8824	5.364294	0.000348	3.479352	0.589418	-0.000035
1722	1.7124e+02	2.8696	5.332929	0.000315	3.151884	0.533944	-0.000032
1723	1.7134e+02	2.8602	5.298712	0.000344	3.438419	0.582484	-0.000034
1724	1.7144e+02	2.8505	5.266125	0.000327	3.274684	0.554747	-0.000033
1725	1.7154e+02	2.8434	5.234759	0.000315	3.151884	0.533944	-0.000032
1726	1.7164e+02	2.8297	5.205023	0.000299	2.988149	0.506206	-0.000030
1727	1.7174e+02	2.8213	5.169177	0.000360	3.602153	0.610221	-0.000036
1728	1.7184e+02	2.8133	5.137812	0.000315	3.151884	0.533944	-0.000032
1729	1.7194e+02	2.8027	5.106039	0.000319	3.192817	0.540878	-0.000032
1730	1.7204e+02	2.7901	5.074266	0.000319	3.192817	0.540878	-0.000032
1731	1.7213e+02	2.7837	5.042493	0.000319	3.192817	0.540878	-0.000032
1732	1.7223e+02	2.7745	5.005425	0.000372	3.724953	0.631024	-0.000037
1733	1.7233e+02	2.7628	4.976911	0.000287	2.865349	0.485403	-0.000029
1734	1.7243e+02	2.7515	4.941065	0.000360	3.602153	0.610221	-0.000036
1735	1.7253e+02	2.7430	4.910922	0.000303	3.029083	0.513141	-0.000030
1736	1.7263e+02	2.7309	4.878742	0.000323	3.233751	0.547812	-0.000032
1737	1.7273e+02	2.7233	4.846562	0.000323	3.233751	0.547812	-0.000032
1738	1.7283e+02	2.7114	4.812345	0.000344	3.438419	0.582484	-0.000034
1739	1.7293e+02	2.7023	4.780572	0.000319	3.192817	0.540878	-0.000032
1740	1.7303e+02	2.6925	4.747577	0.000332	3.315618	0.561681	-0.000033
1741	1.7313e+02	2.6823	4.715805	0.000319	3.192817	0.540878	-0.000032
1742	1.7323e+02	2.6714	4.681995	0.000340	3.397485	0.575550	-0.000034
1743	1.7333e+02	2.6611	4.653074	0.000291	2.906282	0.492338	-0.000029
1744	1.7343e+02	2.6547	4.617228	0.000360	3.602153	0.610221	-0.000036
1745	1.7353e+02	2.6405	4.587492	0.000299	2.988149	0.506206	-0.000030
1746	1.7363e+02	2.6317	4.553682	0.000340	3.397485	0.575550	-0.000034
1747	1.7373e+02	2.6228	4.521502	0.000323	3.233751	0.547812	-0.000032
1748	1.7383e+02	2.6134	4.487693	0.000340	3.397485	0.575550	-0.000034
1749	1.7393e+02	2.6007	4.456328	0.000315	3.151884	0.533944	-0.000032
1750	1.7403e+02	2.5910	4.424962	0.000315	3.151884	0.533944	-0.000032
1751	1.7413e+02	2.5870	4.389931	0.000352	3.520286	0.596353	-0.000035
1752	1.7422e+02	2.5725	4.361009	0.000291	2.906282	0.492338	-0.000029
1753	1.7432e+02	2.5626	4.328422	0.000327	3.274684	0.554747	-0.000033
1754	1.7442e+02	2.5520	4.294613	0.000340	3.397485	0.575550	-0.000034
1755	1.7452e+02	2.5429	4.264469	0.000303	3.029083	0.513141	-0.000030
1756	1.7462e+02	2.5323	4.233918	0.000307	3.070017	0.520075	-0.000031
1757	1.7472e+02	2.5227	4.199702	0.000344	3.438419	0.582484	-0.000034
1758	1.7482e+02	2.5101	4.167522	0.000323	3.233751	0.547812	-0.000032
1759	1.7492e+02	2.5031	4.136156	0.000315	3.151884	0.533944	-0.000032
1760	1.7502e+02	2.4912	4.104791	0.000315	3.151884	0.533944	-0.000032
1761	1.7512e+02	2.4854	4.073426	0.000315	3.151884	0.533944	-0.000032
1762	1.7522e+02	2.4723	4.040431	0.000332	3.315618	0.561681	-0.000033
1763	1.7532e+02	2.4630	4.006214	0.000344	3.438419	0.582484	-0.000034
1764	1.7542e+02	2.4513	3.970368	0.000360	3.602153	0.610221	-0.000036
1765	1.7552e+02	2.4439	3.935744	0.000348	3.479352	0.589418	-0.000035
1766	1.7562e+02	2.4316	3.900712	0.000352	3.520286	0.596353	-0.000035
1767	1.7572e+02	2.4217	3.868940	0.000319	3.192817	0.540878	-0.000032
1768	1.7582e+02	2.4138	3.836352	0.000327	3.274684	0.554747	-0.000033
1769	1.7592e+02	2.4043	3.801321	0.000352	3.520286	0.596353	-0.000035
1770	1.7602e+02	2.3936	3.767511	0.000340	3.397485	0.575550	-0.000034
1771	1.7612e+02	2.3848	3.733702	0.000340	3.397485	0.575550	-0.000034
1772	1.7621e+02	2.3727	3.704373	0.000295	2.947216	0.499272	-0.000029
1773	1.7631e+02	2.3622	3.666490	0.000381	3.806821	0.644893	-0.000038
1774	1.7641e+02	2.3515	3.634718	0.000319	3.192817	0.540878	-0.000032
1775	1.7651e+02	2.3431	3.598464	0.000364	3.643086	0.617156	-0.000036
1776	1.7661e+02	2.3325	3.564247	0.000344	3.438419	0.582484	-0.000034
1777	1.7671e+02	2.3240	3.532475	0.000319	3.192817	0.540878	-0.000032
1778	1.7681e+02	2.3151	3.496628	0.000360	3.602153	0.610221	-0.000036
1779	1.7691e+02	2.3061	3.464041	0.000327	3.274684	0.554747	-0.000033
1780	1.7701e+02	2.2948	3.426973	0.000372	3.724953	0.631024	-0.000037
1781	1.7711e+02	2.2822	3.394793	0.000323	3.233751	0.547812	-0.000032
1782	1.7721e+02	2.2707	3.364649	0.000303	3.029083	0.513141	-0.000030
1783	1.7731e+02	2.2641	3.327989	0.000368	3.684020	0.624090	-0.000037
1784	1.7741e+02	2.2524	3.298660	0.000295	2.947216	0.499272	-0.000029
1785	1.7751e+02	2.2459	3.268109	0.000307	3.070017	0.520075	-0.000031
1786	1.7761e+02	2.2339	3.235522	0.000327	3.274684	0.554747	-0.000033
1787	1.7771e+02	2.2251	3.201712	0.000340	3.397485	0.575550	-0.000034
1788	1.7781e+02	2.2156	3.168718	0.000332	3.315618	0.561681	-0.000033
1789	1.7791e+02	2.2040	3.140611	0.000282	2.824415	0.478469	-0.000028
1790	1.7801e+02	2.1931	3.110468	0.000303	3.029083	0.513141	-0.000030
1791	1.7810e+02	2.1843	3.081954	0.000287	2.865349	0.485403	-0.000029
1792	1.7820e+02	2.1741	3.047737	0.000344	3.438419	0.582484	-0.000034
1793	1.7830e+02	2.1656	3.017594	0.000303	3.029083	0.513141	-0.000030
1794	1.7840e+02	2.1529	2.981747	0.000360	3.602153	0.610221	-0.000036
1795	1.7850e+02	2.1471	2.954456	0.000274	2.742548	0.464600	-0.000027
1796	1.7860e+02	2.1338	2.924720	0.000299	2.988149	0.506206	-0.000030
1797	1.7870e+02	2.1252	2.890503	0.000344	3.438419	0.582484	-0.000034
1798	1.7880e+02	2.1172	2.858323	0.000323	3.233751	0.547812	-0.000032
1799	1.7890e+02	2.1053	2.831031	0.000274	2.742548	0.464600	-0.000027
1800	1.7900e+02	2.0947	2.798036	0.000332	3.315618	0.561681	-0.000033
1801	1.7910e+02	2.0851	2.768707	0.000295	2.947216	0.499272	-0.000029
1802	1.7920e+02	2.0765	2.736935	0.000319	3.192817	0.540878	-0.000032
1803	1.7930e+02	2.0645	2.704755	0.000323	3.233751	0.547812	-0.000032
1804	1.7940e+02	2.0512	2.678277	0.000266	2.660681	0.450732	-0.000027
1805	1.7950e+02	2.0445	2.646505	0.000319	3.192817	0.540878	-0.000032
1806	1.7960e+02	2.0341	2.617583	0.000291	2.906282	0.492338	-0.000029
1807	1.7970e+02	2.0232	2.586625	0.000311	3.110950	0.527009	-0.000031
1808	1.7980e+02	2.0164	2.550779	0.000360	3.602153	0.610221	-0.000036
1809	1.7990e+02	2.0074	2.515748	0.000352	3.520286	0.596353	-0.000035
1810	1.8000e+02	1.9950	2.484790	0.000311	3.110950	0.527009	-0.000031
1811	1.8009e+02	1.9846	2.455461	0.000295	2.947216	0.499272	-0.000029
1812	1.8019e+02	1.9752	2.420022	0.000356	3.561219	0.603287	-0.000036
1813	1.8029e+02	1.9643	2.384583	0.000356	3.561219	0.603287	-0.000036
1814	1.8039e+02	1.9567	2.352811	0.000319	3.192817	0.540878	-0.000032
1815	1.8049e+02	1.9450	2.324297	0.000287	2.865349	0.485403	-0.000029
1816	1.8059e+02	1.9343	2.286414	0.000381	3.806821	0.644893	-0.000038
1817	1.8069e+02	1.9235	2.259936	0.000266	2.660681	0.450732	-0.000027
1818	1.8079e+02	1.9146	2.224090	0.000360	3.602153	0.610221	-0.000036
1819	1.8089e+02	1.9059	2.193540	0.000307	3.070017	0.520075	-0.000031
1820	1.8099e+02	1.8958	2.160952	0.000327	3.274684	0.554747	-0.000033
1821	1.8109e+02	1.8865	2.127957	0.000332	3.315618	0.561681	-0.000033
1822	1.8119e+02	1.8798	2.096185	0.000319	3.192817	0.540878	-0.000032
1823	1.8129e+02	1.8661	2.061561	0.000348	3.479352	0.589418	-0.000035
1824	1.8139e+02	1.8559	2.030195	0.000315	3.151884	0.533944	-0.000032
1825	1.8149e+02	1.8468	1.996793	0.000336	3.356551	0.568615	-0.000034
1826	1.8159e+02	1.8340	1.962169	0.000348	3.479352	0.589418	-0.000035
1827	1.8169e+02	1.8254	1.932026	0.000303	3.029083	0.513141	-0.000030
1828	1.8179e+02	1.8156	1.897809	0.000344	3.438419	0.582484	-0.000034
1829	1.8189e+02	1.8053	1.861963	0.000360	3.602153	0.610221	-0.000036
1830	1.8199e+02	1.7953	1.831005	0.000311	3.110950	0.527009	-0.000031
1831	1.8209e+02	1.7882	1.798417	0.000327	3.274684	0.554747	-0.000033
1832	1.8218e+02	1.7784	1.766645	0.000319	3.192817	0.540878	-0.000032
1833	1.8228e+02	1.7683	1.729576	0.000372	3.724953	0.631024	-0.000037
1834	1.8238e+02	1.7556	1.700655	0.000291	2.906282	0.492338	-0.000029
1835	1.8248e+02	1.7478	1.663587	0.000372	3.724953	0.631024	-0.000037
1836	1.8258e+02	1.7385	1.631000	0.000327	3.274684	0.554747	-0.000033
1837	1.8268e+02	1.7260	1.600856	0.000303	3.029083	0.513141	-0.000030
1838	1.8278e+02	1.7162	1.565010	0.000360	3.602153	0.610221	-0.000036
1839	1.8288e+02	1.7059	1.531608	0.000336	3.356551	0.568615	-0.000034
1840	1.8298e+02	1.6968	1.496169	0.000356	3.561219	0.603287	-0.000036
1841	1.8308e+02	1.6879	1.463174	0.000332	3.315618	0.561681	-0.000033
1842	1.8318e+02	1.6756	1.429772	0.000336	3.356551	0.568615	-0.000034
1843	1.8328e+02	1.6676	1.398000	0.000319	3.192817	0.540878	-0.000032
1844	1.8338e+02	1.6560	1.363376	0.000348	3.479352	0.589418	-0.000035
1845	1.8348e+02	1.6456	1.328751	0.000348	3.479352	0.589418	-0.000035
1846	1.8358e+02	1.6367	1.297793	0.000311	3.110950	0.527009	-0.000031
1847	1.8368e+02	1.6256	1.268465	0.000295	2.947216	0.499272	-0.000029
1848	1.8378e+02	1.6177	1.230989	0.000377	3.765887	0.637959	-0.000038
1849	1.8388e+02	1.6051	1.197587	0.000336	3.356551	0.568615	-0.000034
1850	1.8398e+02	1.5974	1.165814	0.000319	3.192817	0.540878	-0.000032
1851	1.8407e+02	1.5891	1.133634	0.000323	3.233751	0.547812	-0.000032
1852	1.8417e+02	1.5788	1.103898	0.000299	2.988149	0.506206	-0.000030
1853	1.8427e+02	1.5703	1.069274	0.000348	3.479352	0.589418	-0.000035
1854	1.8437e+02	1.5583	1.037909	0.000315	3.151884	0.533944	-0.000032
1855	1.8447e+02	1.5499	1.002470	0.000356	3.561219	0.603287	-0.000036
1856	1.8457e+02	1.5371	0.971919	0.000307	3.070017	0.520075	-0.000031
1857	1.8467e+02	1.5305	0.936073	0.000360	3.602153	0.610221	-0.000036
1858	1.8477e+02	1.5165	0.903078	0.000332	3.315618	0.561681	-0.000033
1859	1.8487e+02	1.5080	0.874564	0.000287	2.865349	0.485403	-0.000029
1860	1.8497e+02	1.4956	0.839126	0.000356	3.561219	0.603287	-0.000036
1861	1.8507e+02	1.4885	0.806131	0.000332	3.315618	0.561681	-0.000033
1862	1.8517e+02	1.4764	0.771099	0.000352	3.520286	0.596353	-0.000035
1863	1.8527e+02	1.4668	0.741363	0.000299	2.988149	0.506206	-0.000030
1864	1.8537e+02	1.4561	0.710405	0.000311	3.110950	0.527009	-0.000031
1865	1.8547e+02	1.4463	0.673337	0.000372	3.724953	0.631024	-0.000037
1866	1.8557e+02	1.4385	0.641157	0.000323	3.233751	0.547812	-0.000032
1867	1.8567e+02	1.4303	0.608570	0.000327	3.274684	0.554747	-0.000033
1868	1.8577e+02	1.4188	0.571502	0.000372	3.724953	0.631024	-0.000037
1869	1.8587e+02	1.4079	0.536470	0.000352	3.520286	0.596353	-0.000035
1870	1.8597e+02	1.3968	0.501031	0.000356	3.561219	0.603287	-0.000036
1871	1.8606e+02	1.3889	0.465185	0.000360	3.602153	0.610221	-0.000036
1872	1.8616e+02	1.3770	0.428117	0.000372	3.724953	0.631024	-0.000037
1873	1.8626e+02	1.3708	0.392271	0.000360	3.602153	0.610221	-0.000036
1874	1.8636e+02	1.3577	0.359276	0.000332	3.315618	0.561681	-0.000033
1875	1.8646e+02	1.3496	0.316913	0.000426	4.257090	0.721171	-0.000043
1876	1.8656e+02	1.3396	0.285954	0.000311	3.110950	0.527009	-0.000031
1877	1.8666e+02	1.3284	0.250108	0.000360	3.602153	0.610221	-0.000036
1878	1.8676e+02	1.3180	0.211411	0.000389	3.888688	0.658762	-0.000039
1879	1.8686e+02	1.3104	0.176787	0.000348	3.479352	0.589418	-0.000035
1880	1.8696e+02	1.2974	0.135645	0.000413	4.134289	0.700368	-0.000041
1881	1.8706e+02	1.2890	0.103872	0.000319	3.192817	0.540878	-0.000032
1882	1.8716e+02	1.2768	0.068841	0.000352	3.520286	0.596353	-0.000035
1883	1.8726e+02	1.2691	0.032995	0.000360	3.602153	0.610221	-0.000036
1884	1.8736e+02	1.2589	-0.004073	0.000372	3.724953	0.631024	-0.000037
1885	1.8746e+02	1.2506	-0.043993	0.000401	4.011488	0.679565	-0.000040
1886	1.8756e+02	1.2385	-0.078210	0.000344	3.438419	0.582484	-0.000034
1887	1.8766e+02	1.2305	-0.116093	0.000381	3.806821	0.644893	-0.000038
1888	1.8776e+02	1.2189	-0.151939	0.000360	3.602153	0.610221	-0.000036
1889	1.8786e+02	1.2125	-0.187785	0.000360	3.602153	0.610221	-0.000036
1890	1.8796e+02	1.1984	-0.224446	0.000368	3.684020	0.624090	-0.000037
1891	1.8806e+02	1.1910	-0.259885	0.000356	3.561219	0.603287	-0.000036
1892	1.8815e+02	1.1823	-0.296545	0.000368	3.684020	0.624090	-0.000037
1893	1.8825e+02	1.1710	-0.332799	0.000364	3.643086	0.617156	-0.000036
1894	1.8835e+02	1.1597	-0.367016	0.000344	3.438419	0.582484	-0.000034
1895	1.8845e+02	1.1491	-0.400010	0.000332	3.315618	0.561681	-0.000033
1896	1.8855e+02	1.1398	-0.434635	0.000348	3.479352	0.589418	-0.000035
1897	1.8865e+02	1.1309	-0.471295	0.000368	3.684020	0.624090	-0.000037
1898	1.8875e+02	1.1184	-0.507141	0.000360	3.602153	0.610221	-0.000036
1899	1.8885e+02	1.1098	-0.544617	0.000377	3.765887	0.637959	-0.000038
1900	1.8895e+02	1.0986	-0.578834	0.000344	3.438419	0.582484	-0.000034
1901	1.8905e+02	1.0901	-0.615087	0.000364	3.643086	0.617156	-0.000036
1902	1.8915e+02	1.0796	-0.654192	0.000393	3.929621	0.665696	-0.000039
1903	1.8925e+02	1.0680	-0.688816	0.000348	3.479352	0.589418	-0.000035
1904	1.8935e+02	1.0593	-0.723848	0.000352	3.520286	0.596353	-0.000035
1905	1.8945e+02	1.0513	-0.758879	0.000352	3.520286	0.596353	-0.000035
1906	1.8955e+02	1.0437	-0.793503	0.000348	3.479352	0.589418	-0.000035
1907	1.8965e+02	1.0311	-0.832608	0.000393	3.929621	0.665696	-0.000039
1908	1.8975e+02	1.0213	-0.866010	0.000336	3.356551	0.568615	-0.000034
1909	1.8985e+02	1.0104	-0.901449	0.000356	3.561219	0.603287	-0.000036
1910	1.8995e+02	1.0017	-0.937703	0.000364	3.643086	0.617156	-0.000036
1911	1.9004e+02	0.9899	-0.970290	0.000327	3.274684	0.554747	-0.000033
1912	1.9014e+02	0.9818	-1.008173	0.000381	3.806821	0.644893	-0.000038
1913	1.9024e+02	0.9738	-1.044834	0.000368	3.684020	0.624090	-0.000037
1914	1.9034e+02	0.9595	-1.081902	0.000372	3.724953	0.631024	-0.000037
1915	1.9044e+02	0.9525	-1.114489	0.000327	3.274684	0.554747	-0.000033
1916	1.9054e+02	0.9406	-1.149928	0.000356	3.561219	0.603287	-0.000036
1917	1.9064e+02	0.9319	-1.188626	0.000389	3.888688	0.658762	-0.000039
1918	1.9074e+02	0.9214	-1.223657	0.000352	3.520286	0.596353	-0.000035
1919	1.9084e+02	0.9121	-1.259911	0.000364	3.643086	0.617156	-0.000036
1920	1.9094e+02	0.9019	-1.293720	0.000340	3.397485	0.575550	-0.000034
1921	1.9104e+02	0.8923	-1.331195	0.000377	3.765887	0.637959	-0.000038
1922	1.9114e+02	0.8838	-1.365005	0.000340	3.397485	0.575550	-0.000034
1923	1.9124e+02	0.8701	-1.397592	0.000327	3.274684	0.554747	-0.000033
1924	1.9134e+02	0.8618	-1.435475	0.000381	3.806821	0.644893	-0.000038
1925	1.9144e+02	0.8514	-1.469285	0.000340	3.397485	0.575550	-0.000034
1926	1.9154e+02	0.8398	-1.505131	0.000360	3.602153	0.610221	-0.000036
1927	1.9164e+02	0.8318	-1.538533	0.000336	3.356551	0.568615	-0.000034
1928	1.9174e+02	0.8198	-1.577638	0.000393	3.929621	0.665696	-0.000039
1929	1.9184e+02	0.8116	-1.611040	0.000336	3.356551	0.568615	-0.000034
1930	1.9194e+02	0.8013	-1.647701	0.000368	3.684020	0.624090	-0.000037
1931	1.9203e+02	0.7922	-1.689250	0.000418	4.175223	0.707302	-0.000042
1932	1.9213e+02	0.7839	-1.725910	0.000368	3.684020	0.624090	-0.000037
1933	1.9223e+02	0.7748	-1.760942	0.000352	3.520286	0.596353	-0.000035
1934	1.9233e+02	0.7647	-1.799232	0.000385	3.847754	0.651827	-0.000038
1935	1.9243e+02	0.7514	-1.836708	0.000377	3.765887	0.637959	-0.000038
1936	1.9253e+02	0.7414	-1.872146	0.000356	3.561219	0.603287	-0.000036
1937	1.9263e+02	0.7294	-1.911251	0.000393	3.929621	0.665696	-0.000039
1938	1.9273e+02	0.7231	-1.945468	0.000344	3.438419	0.582484	-0.000034
1939	1.9283e+02	0.7106	-1.981314	0.000360	3.602153	0.610221	-0.000036
1940	1.9293e+02	0.7008	-2.018790	0.000377	3.765887	0.637959	-0.000038
1941	1.9303e+02	0.6908	-2.054228	0.000356	3.561219	0.603287	-0.000036
1942	1.9313e+02	0.6806	-2.093741	0.000397	3.970555	0.672630	-0.000040
1943	1.9323e+02	0.6707	-2.130809	0.000372	3.724953	0.631024	-0.000037
1944	1.9333e+02	0.6673	-2.169099	0.000385	3.847754	0.651827	-0.000038
1945	1.9343e+02	0.6532	-2.206167	0.000372	3.724953	0.631024	-0.000037
1946	1.9353e+02	0.6438	-2.239977	0.000340	3.397485	0.575550	-0.000034
1947	1.9363e+02	0.6311	-2.277045	0.000372	3.724953	0.631024	-0.000037
1948	1.9373e+02	0.6223	-2.316964	0.000401	4.011488	0.679565	-0.000040
1949	1.9383e+02	0.6121	-2.355255	0.000385	3.847754	0.651827	-0.000038
1950	1.9393e+02	0.6026	-2.387435	0.000323	3.233751	0.547812	-0.000032
1951	1.9403e+02	0.5930	-2.422466	0.000352	3.520286	0.596353	-0.000035
1952	1.9412e+02	0.5857	-2.459127	0.000368	3.684020	0.624090	-0.000037
1953	1.9422e+02	0.5714	-2.497417	0.000385	3.847754	0.651827	-0.000038
1954	1.9432e+02	0.5651	-2.530819	0.000336	3.356551	0.568615	-0.000034
1955	1.9442e+02	0.5513	-2.567073	0.000364	3.643086	0.617156	-0.000036
1956	1.9452e+02	0.5432	-2.602919	0.000360	3.602153	0.610221	-0.000036
1957	1.9462e+02	0.5355	-2.635506	0.000327	3.274684	0.554747	-0.000033
1958	1.9472e+02	0.5216	-2.670538	0.000352	3.520286	0.596353	-0.000035
1959	1.9482e+02	0.5133	-2.703533	0.000332	3.315618	0.561681	-0.000033
1960	1.9492e+02	0.5044	-2.737342	0.000340	3.397485	0.575550	-0.000034
1961	1.9502e+02	0.4945	-2.771966	0.000348	3.479352	0.589418	-0.000035
1962	1.9512e+02	0.4848	-2.807812	0.000360	3.602153	0.610221	-0.000036
1963	1.9522e+02	0.4729	-2.838770	0.000311	3.110950	0.527009	-0.000031
1964	1.9532e+02	0.4645	-2.875024	0.000364	3.643086	0.617156	-0.000036
1965	1.9542e+02	0.4536	-2.909241	0.000344	3.438419	0.582484	-0.000034
1966	1.9552e+02	0.4439	-2.943457	0.000344	3.438419	0.582484	-0.000034
1967	1.9562e+02	0.4333	-2.977674	0.000344	3.438419	0.582484	-0.000034
1968	1.9572e+02	0.4227	-3.010261	0.000327	3.274684	0.554747	-0.000033
1969	1.9582e+02	0.4124	-3.042442	0.000323	3.233751	0.547812	-0.000032
1970	1.9592e+02	0.4018	-3.079510	0.000372	3.724953	0.631024	-0.000037
1971	1.9601e+02	0.3942	-3.112097	0.000327	3.274684	0.554747	-0.000033
1972	1.9611e+02	0.3828	-3.147129	0.000352	3.520286	0.596353	-0.000035
1973	1.9621e+02	0.3741	-3.184604	0.000377	3.765887	0.637959	-0.000038
1974	1.9631e+02	0.3650	-3.218413	0.000340	3.397485	0.575550	-0.000034
1975	1.9641e+02	0.3518	-3.255074	0.000368	3.684020	0.624090	-0.000037
1976	1.9651e+02	0.3430	-3.290920	0.000360	3.602153	0.610221	-0.000036
1977	1.9661e+02	0.3335	-3.321879	0.000311	3.110950	0.527009	-0.000031
1978	1.9671e+02	0.3235	-3.359761	0.000381	3.806821	0.644893	-0.000038
1979	1.9681e+02	0.3146	-3.393571	0.000340	3.397485	0.575550	-0.000034
1980	1.9691e+02	0.3065	-3.428602	0.000352	3.520286	0.596353	-0.000035
1981	1.9701e+02	0.2921	-3.466892	0.000385	3.847754	0.651827	-0.000038
1982	1.9711e+02	0.2843	-3.499480	0.000327	3.274684	0.554747	-0.000033
1983	1.9721e+02	0.2742	-3.540621	0.000413	4.134289	0.700368	-0.000041
1984	1.9731e+02	0.2678	-3.574838	0.000344	3.438419	0.582484	-0.000034
1985	1.9741e+02	0.2545	-3.609870	0.000352	3.520286	0.596353	-0.000035
1986	1.9751e+02	0.2431	-3.646123	0.000364	3.643086	0.617156	-0.000036
1987	1.9761e+02	0.2342	-3.683191	0.000372	3.724953	0.631024	-0.000037
1988	1.9771e+02	0.2227	-3.715779	0.000327	3.274684	0.554747	-0.000033
1989	1.9781e+02	0.2155	-3.755291	0.000397	3.970555	0.672630	-0.000040
1990	1.9791e+02	0.2062	-3.788286	0.000332	3.315618	0.561681	-0.000033
1991	1.9800e+02	0.1960	-3.826576	0.000385	3.847754	0.651827	-0.000038
1992	1.9810e+02	0.1840	-3.860385	0.000340	3.397485	0.575550	-0.000034
1993	1.9820e+02	0.1756	-3.899898	0.000397	3.970555	0.672630	-0.000040
1994	1.9830e+02	0.1657	-3.933707	0.000340	3.397485	0.575550	-0.000034
1995	1.9840e+02	0.1552	-3.970775	0.000372	3.724953	0.631024	-0.000037
1996	1.9850e+02	0.1442	-4.008251	0.000377	3.765887	0.637959	-0.000038
1997	1.9860e+02	0.1344	-4.045726	0.000377	3.765887	0.637959	-0.000038
1998	1.9870e+02	0.1260	-4.079943	0.000344	3.438419	0.582484	-0.000034
1999	1.9880e+02	0.1149	-4.117826	0.000381	3.806821	0.644893	-0.000038
2000	1.9890e+02	0.1050	-4.153672	0.000360	3.602153	0.610221	-0.000036
2001	1.9900e+02	0.0927	-4.189925	0.000364	3.643086	0.617156	-0.000036
2002	1.9910e+02	0.0845	-4.225364	0.000356	3.561219	0.603287	-0.000036
2003	1.9920e+02	0.0756	-4.264877	0.000397	3.970555	0.672630	-0.000040
2004	1.9930e+02	0.0655	-4.297871	0.000332	3.315618	0.561681	-0.000033
2005	1.9940e+02	0.0565	-4.335754	0.000381	3.806821	0.644893	-0.000038
2006	1.9950e+02	0.0460	-4.372822	0.000372	3.724953	0.631024	-0.000037
2007	1.9960e+02	0.0359	-4.409076	0.000364	3.643086	0.617156	-0.000036
2008	1.9970e+02	0.0271	-4.446959	0.000381	3.806821	0.644893	-0.000038
2009	1.9980e+02	0.0182	-4.481990	0.000352	3.520286	0.596353	-0.000035
2010	1.9990e+02	0.0087	-4.522724	0.000409	4.093355	0.693433	-0.000041
2011	2.0000e+02	-0.0042	-4.553682	0.000409	4.093355	0.693433	-0.000031

PMax (uC/cm2):	3.72e+01
Pr (uC/cm2):	1.48e+01
-Pr (uC/cm2):	0.00e+00
PLoss (uC/cm2):	0.00e+00
C (Max-Eff) (nF):	3.72e-01
K (Eff):	6.30e+02
Vert. (+/-Pr) Shift (uC/cm2):	7.42e+00
Offset (uC/cm2):	1.94e+01

A (Loop Area - uC/cm2·Volts):	-1.15e-01



Hysteresis Version: 5.48.1 - Radiant Technologies, Inc., 1999 - 9/12/24

