»»»»»»»»»»»»»»»»»»»»»»»»»»»»»»»»»»»» Hysteresis ««««««««««««««««««««««««««««««««««««
»»»  Executed Version:	5.48.1
»»»  Vision Version:	5.48.4 (R)
»»»  Vision Compiled:	9/18/24
»»»  Driver Version:	5.47.0
»»»  Windows Version:	Windows 8 or 8.1
»»»  Processor Information:	x86 (AMD or Intel) - 32 Processors
»»»  Tester Name:	PMF21124-494 (100V)
»»»  Tester S/N:	PMF21124-494
»»»  Internal Amp Type:	100V RevK 270k
»»»  Internal Amp S/N:	iAB2-596/K     
»»»  Execution Count:	1
»»»»»»»»»»»»»»»»»»»»»»»»»»»»»»»»»»»»»»»»»»««««««««««««««««««««««««««««««««««««««««««

Stored:	7/2/2025 - 14:2:7
Configured:	07/02/25 01:35:59 PM
Executed:	07/02/25 02:01:43 PM

»»»»»»»»»»»»»»»»»»»»»»»»»»»»»»»»»»» Sample Info ««««««««««««««««««««««««««««««««««««
Sample Name:	
Lot Name:	
Wafer Name:	
Die Row/Column:	0/0
Capacitor Number:	0
Sample Area (cm2):	1.00e-04
Sample Thickness (microns):	1.50e-01

Amplifier:	Internal

»»»»»»»»»»»»»»»»»»»»»»»»»»»»»»»»»»» Tester Info «««««««««««««««««««««««««««««««««««
Tester Name:	PMF21124-494 (100V)
Tester Serial Number:	PMF21124-494
Return Signal Amp. Level:	0.19 [Index: 3]

»»»»»»»»»»»»»»»»»»»»»»»»»»»»»»»» Hysteresis Info ««««««««««««««««««««««««««««««««««
Task Name:	Hyst-220
Volts:	10.00
Field:	666.67 (kV/cm)
DCBias:	0.00
DCField:	0.00 (kV/cm)
Hysteresis Period (ms):	1.00e+00
Preset:	Enabled
Preset Delay (ms):	1.00e+03
Profile:	Standard Bipolar

»»»»»»»»»»»»»»»»»»»»»»»»»»»»»»»»»»»»»» Data «««««««««««««««««««««««««««««««««««««««
Points:	2001

Valid Data

Point	Time (ms)	Drive Voltage	Measured Polarization (uC/cm2)	Capacitance (uF)	Normalized Capacitance (uF/cm2)	Dielectric Constant	Instantaneous Current (mA)
   1	0.0000e+00	0.0008	4.498921	0.000626	6.258501	1.060219	0.025005
   2	5.0000e-04	0.0117	4.623948	0.000626	6.258501	1.060219	0.025005
   3	1.0000e-03	0.0290	4.740907	0.000585	5.854727	0.991818	0.023392
   4	1.5000e-03	0.0489	4.837702	0.000485	4.845291	0.820815	0.019359
   5	2.0000e-03	0.0682	4.910298	0.000363	3.633968	0.615611	0.014519
   6	2.5000e-03	0.0883	5.083721	0.000868	8.681146	1.470626	0.034685
   7	3.0000e-03	0.1091	5.156317	0.000363	3.633968	0.615611	0.014519
   8	3.5000e-03	0.1281	5.261177	0.000525	5.249065	0.889216	0.020972
   9	4.0000e-03	0.1481	5.349905	0.000444	4.441517	0.752413	0.017746
  10	4.5000e-03	0.1675	5.430567	0.000404	4.037743	0.684012	0.016132
  11	5.0000e-03	0.1888	5.499130	0.000343	3.432081	0.581410	0.013713
  12	5.5000e-03	0.2090	5.620123	0.000606	6.056614	1.026018	0.024199
  13	6.0000e-03	0.2277	5.724983	0.000525	5.249065	0.889216	0.020972
  14	6.5000e-03	0.2482	5.845976	0.000606	6.056614	1.026018	0.024199
  15	7.0000e-03	0.2683	5.898407	0.000262	2.624533	0.444608	0.010486
  16	7.5000e-03	0.2881	6.015367	0.000585	5.854727	0.991818	0.023392
  17	8.0000e-03	0.3098	6.112161	0.000485	4.845291	0.820815	0.019359
  18	8.5000e-03	0.3284	6.184757	0.000363	3.633968	0.615611	0.014519
  19	9.0000e-03	0.3484	6.309783	0.000626	6.258501	1.060219	0.025005
  20	9.5000e-03	0.3683	6.398511	0.000444	4.441517	0.752413	0.017746
  21	1.0000e-02	0.3882	6.487239	0.000444	4.441517	0.752413	0.017746
  22	1.0500e-02	0.4083	6.571934	0.000424	4.239630	0.718213	0.016939
  23	1.1000e-02	0.4293	6.713093	0.000707	7.066049	1.197021	0.028232
  24	1.1500e-02	0.4491	6.801821	0.000444	4.441517	0.752413	0.017746
  25	1.2000e-02	0.4684	6.858284	0.000283	2.826420	0.478808	0.011293
  26	1.2500e-02	0.4887	6.947012	0.000444	4.441517	0.752413	0.017746
  27	1.3000e-02	0.5087	7.108336	0.000808	8.075485	1.368024	0.032265
  28	1.3500e-02	0.5290	7.176899	0.000343	3.432081	0.581410	0.013713
  29	1.4000e-02	0.5488	7.289826	0.000565	5.652840	0.957617	0.022585
  30	1.4500e-02	0.5698	7.386620	0.000485	4.845291	0.820815	0.019359
  31	1.5000e-02	0.5885	7.511646	0.000626	6.258501	1.060219	0.025005
  32	1.5500e-02	0.6087	7.572143	0.000303	3.028307	0.513009	0.012099
  33	1.6000e-02	0.6295	7.685069	0.000565	5.652840	0.957617	0.022585
  34	1.6500e-02	0.6485	7.761698	0.000384	3.835855	0.649811	0.015326
  35	1.7000e-02	0.6688	7.874625	0.000565	5.652840	0.957617	0.022585
  36	1.7500e-02	0.6891	7.983519	0.000545	5.450952	0.923416	0.021779
  37	1.8000e-02	0.7086	8.044015	0.000303	3.028307	0.513009	0.012099
  38	1.8500e-02	0.7294	8.156942	0.000565	5.652840	0.957617	0.022585
  39	1.9000e-02	0.7484	8.265836	0.000545	5.450952	0.923416	0.021779
  40	1.9500e-02	0.7687	8.419093	0.000767	7.671711	1.299623	0.030652
  41	2.0000e-02	0.7892	8.495722	0.000384	3.835855	0.649811	0.015326
  42	2.0500e-02	0.8093	8.568318	0.000363	3.633968	0.615611	0.014519
  43	2.1000e-02	0.8301	8.657046	0.000444	4.441517	0.752413	0.017746
  44	2.1500e-02	0.8487	8.802238	0.000727	7.267937	1.231222	0.029038
  45	2.2000e-02	0.8689	8.862734	0.000303	3.028307	0.513009	0.012099
  46	2.2500e-02	0.8893	8.951462	0.000444	4.441517	0.752413	0.017746
  47	2.3000e-02	0.9061	9.048257	0.000485	4.845291	0.820815	0.019359
  48	2.3500e-02	0.9302	9.177316	0.000646	6.460388	1.094419	0.025812
  49	2.4000e-02	0.9501	9.262011	0.000424	4.239630	0.718213	0.016939
  50	2.4500e-02	0.9692	9.314441	0.000262	2.624533	0.444608	0.010486
  51	2.5000e-02	0.9892	9.443500	0.000646	6.460388	1.094419	0.025812
  52	2.5500e-02	1.0089	9.584659	0.000707	7.066049	1.197021	0.028232
  53	2.6000e-02	1.0286	9.681453	0.000485	4.845291	0.820815	0.019359
  54	2.6500e-02	1.0487	9.806479	0.000626	6.258501	1.060219	0.025005
  55	2.7000e-02	1.0681	9.866976	0.000303	3.028307	0.513009	0.012099
  56	2.7500e-02	1.0887	9.955704	0.000444	4.441517	0.752413	0.017746
  57	2.8000e-02	1.1098	10.080730	0.000626	6.258501	1.060219	0.025005
  58	2.8500e-02	1.1292	10.157359	0.000384	3.835855	0.649811	0.015326
  59	2.9000e-02	1.1499	10.274319	0.000585	5.854727	0.991818	0.023392
  60	2.9500e-02	1.1694	10.371113	0.000485	4.845291	0.820815	0.019359
  61	3.0000e-02	1.1894	10.451775	0.000404	4.037743	0.684012	0.016132
  62	3.0500e-02	1.2088	10.564702	0.000565	5.652840	0.957617	0.022585
  63	3.1000e-02	1.2292	10.665529	0.000505	5.047178	0.855015	0.020165
  64	3.1500e-02	1.2497	10.705860	0.000202	2.018871	0.342006	0.008066
  65	3.2000e-02	1.2693	10.867184	0.000808	8.075485	1.368024	0.032265
  66	3.2500e-02	1.2898	10.955912	0.000444	4.441517	0.752413	0.017746
  67	3.3000e-02	1.3089	11.072872	0.000585	5.854727	0.991818	0.023392
  68	3.3500e-02	1.3276	11.129336	0.000283	2.826420	0.478808	0.011293
  69	3.4000e-02	1.3490	11.250329	0.000606	6.056614	1.026018	0.024199
  70	3.4500e-02	1.3689	11.359222	0.000545	5.450952	0.923416	0.021779
  71	3.5000e-02	1.3887	11.476182	0.000585	5.854727	0.991818	0.023392
  72	3.5500e-02	1.4079	11.625407	0.000747	7.469824	1.265422	0.029845
  73	3.6000e-02	1.4288	11.657672	0.000162	1.615097	0.273605	0.006453
  74	3.6500e-02	1.4489	11.762532	0.000525	5.249065	0.889216	0.020972
  75	3.7000e-02	1.4687	11.839161	0.000384	3.835855	0.649811	0.015326
  76	3.7500e-02	1.4890	11.927889	0.000444	4.441517	0.752413	0.017746
  77	3.8000e-02	1.5086	12.060981	0.000666	6.662275	1.128620	0.026618
  78	3.8500e-02	1.5289	12.181974	0.000606	6.056614	1.026018	0.024199
  79	3.9000e-02	1.5486	12.274736	0.000464	4.643404	0.786614	0.018552
  80	3.9500e-02	1.5691	12.339265	0.000323	3.230194	0.547210	0.012906
  81	4.0000e-02	1.5885	12.468324	0.000646	6.460388	1.094419	0.025812
  82	4.0500e-02	1.6097	12.524788	0.000283	2.826420	0.478808	0.011293
  83	4.1000e-02	1.6287	12.686112	0.000808	8.075485	1.368024	0.032265
  84	4.1500e-02	1.6492	12.803072	0.000585	5.854727	0.991818	0.023392
  85	4.2000e-02	1.6683	12.891800	0.000444	4.441517	0.752413	0.017746
  86	4.2500e-02	1.6882	12.976495	0.000424	4.239630	0.718213	0.016939
  87	4.3000e-02	1.7090	13.101521	0.000626	6.258501	1.060219	0.025005
  88	4.3500e-02	1.7287	13.198315	0.000485	4.845291	0.820815	0.019359
  89	4.4000e-02	1.7491	13.311242	0.000565	5.652840	0.957617	0.022585
  90	4.4500e-02	1.7687	13.412069	0.000505	5.047178	0.855015	0.020165
  91	4.5000e-02	1.7900	13.533062	0.000606	6.056614	1.026018	0.024199
  92	4.5500e-02	1.8091	13.573393	0.000202	2.018871	0.342006	0.008066
  93	4.6000e-02	1.8288	13.694386	0.000606	6.056614	1.026018	0.024199
  94	4.6500e-02	1.8494	13.775048	0.000404	4.037743	0.684012	0.016132
  95	4.7000e-02	1.8702	13.904107	0.000646	6.460388	1.094419	0.025812
  96	4.7500e-02	1.8890	14.017034	0.000565	5.652840	0.957617	0.022585
  97	4.8000e-02	1.9092	14.117862	0.000505	5.047178	0.855015	0.020165
  98	4.8500e-02	1.9287	14.226755	0.000545	5.450952	0.923416	0.021779
  99	4.9000e-02	1.9483	14.339682	0.000565	5.652840	0.957617	0.022585
 100	4.9500e-02	1.9696	14.456642	0.000585	5.854727	0.991818	0.023392
 101	5.0000e-02	1.9888	14.533271	0.000384	3.835855	0.649811	0.015326
 102	5.0500e-02	2.0084	14.638131	0.000525	5.249065	0.889216	0.020972
 103	5.1000e-02	2.0299	14.730893	0.000464	4.643404	0.786614	0.018552
 104	5.1500e-02	2.0499	14.831720	0.000505	5.047178	0.855015	0.020165
 105	5.2000e-02	2.0694	14.984978	0.000767	7.671711	1.299623	0.030652
 106	5.2500e-02	2.0892	15.110004	0.000626	6.258501	1.060219	0.025005
 107	5.3000e-02	2.1097	15.186633	0.000384	3.835855	0.649811	0.015326
 108	5.3500e-02	2.1277	15.255195	0.000343	3.432081	0.581410	0.013713
 109	5.4000e-02	2.1484	15.388288	0.000666	6.662275	1.128620	0.026618
 110	5.4500e-02	2.1692	15.424586	0.000182	1.816984	0.307805	0.007260
 111	5.5000e-02	2.1890	15.581876	0.000787	7.873598	1.333824	0.031458
 112	5.5500e-02	2.2087	15.690770	0.000545	5.450952	0.923416	0.021779
 113	5.6000e-02	2.2288	15.739167	0.000242	2.422646	0.410407	0.009679
 114	5.6500e-02	2.2501	15.872260	0.000666	6.662275	1.128620	0.026618
 115	5.7000e-02	2.2712	16.017451	0.000727	7.267937	1.231222	0.029038
 116	5.7500e-02	2.2896	16.073914	0.000283	2.826420	0.478808	0.011293
 117	5.8000e-02	2.3091	16.239272	0.000828	8.277372	1.402225	0.033071
 118	5.8500e-02	2.3302	16.287669	0.000242	2.422646	0.410407	0.009679
 119	5.9000e-02	2.3486	16.384463	0.000485	4.845291	0.820815	0.019359
 120	5.9500e-02	2.3694	16.481257	0.000485	4.845291	0.820815	0.019359
 121	6.0000e-02	2.3900	16.630482	0.000747	7.469824	1.265422	0.029845
 122	6.0500e-02	2.4097	16.678879	0.000242	2.422646	0.410407	0.009679
 123	6.1000e-02	2.4294	16.820038	0.000707	7.066049	1.197021	0.028232
 124	6.1500e-02	2.4494	16.896667	0.000384	3.835855	0.649811	0.015326
 125	6.2000e-02	2.4696	16.961196	0.000323	3.230194	0.547210	0.012906
 126	6.2500e-02	2.4892	17.074123	0.000565	5.652840	0.957617	0.022585
 127	6.3000e-02	2.5093	17.211248	0.000686	6.864162	1.162821	0.027425
 128	6.3500e-02	2.5303	17.352407	0.000707	7.066049	1.197021	0.028232
 129	6.4000e-02	2.5489	17.465333	0.000565	5.652840	0.957617	0.022585
 130	6.4500e-02	2.5694	17.501631	0.000182	1.816984	0.307805	0.007260
 131	6.5000e-02	2.5887	17.622624	0.000606	6.056614	1.026018	0.024199
 132	6.5500e-02	2.6085	17.739584	0.000585	5.854727	0.991818	0.023392
 133	6.6000e-02	2.6289	17.856544	0.000585	5.854727	0.991818	0.023392
 134	6.6500e-02	2.6492	17.929140	0.000363	3.633968	0.615611	0.014519
 135	6.7000e-02	2.6691	18.029967	0.000505	5.047178	0.855015	0.020165
 136	6.7500e-02	2.6891	18.142894	0.000565	5.652840	0.957617	0.022585
 137	6.8000e-02	2.7097	18.280019	0.000686	6.864162	1.162821	0.027425
 138	6.8500e-02	2.7290	18.380847	0.000505	5.047178	0.855015	0.020165
 139	6.9000e-02	2.7493	18.469575	0.000444	4.441517	0.752413	0.017746
 140	6.9500e-02	2.7686	18.570403	0.000505	5.047178	0.855015	0.020165
 141	7.0000e-02	2.7893	18.683329	0.000565	5.652840	0.957617	0.022585
 142	7.0500e-02	2.8085	18.747859	0.000323	3.230194	0.547210	0.012906
 143	7.1000e-02	2.8296	18.852719	0.000525	5.249065	0.889216	0.020972
 144	7.1500e-02	2.8497	18.957580	0.000525	5.249065	0.889216	0.020972
 145	7.2000e-02	2.8699	19.110838	0.000767	7.671711	1.299623	0.030652
 146	7.2500e-02	2.8888	19.207632	0.000485	4.845291	0.820815	0.019359
 147	7.3000e-02	2.9091	19.308460	0.000505	5.047178	0.855015	0.020165
 148	7.3500e-02	2.9292	19.433486	0.000626	6.258501	1.060219	0.025005
 149	7.4000e-02	2.9488	19.522214	0.000444	4.441517	0.752413	0.017746
 150	7.4500e-02	2.9700	19.627074	0.000525	5.249065	0.889216	0.020972
 151	7.5000e-02	2.9907	19.659339	0.000162	1.615097	0.273605	0.006453
 152	7.5500e-02	3.0093	19.812597	0.000767	7.671711	1.299623	0.030652
 153	7.6000e-02	3.0298	19.961822	0.000747	7.469824	1.265422	0.029845
 154	7.6500e-02	3.0499	20.026351	0.000323	3.230194	0.547210	0.012906
 155	7.7000e-02	3.0697	20.171543	0.000727	7.267937	1.231222	0.029038
 156	7.7500e-02	3.0896	20.228006	0.000283	2.826420	0.478808	0.011293
 157	7.8000e-02	3.1087	20.336900	0.000545	5.450952	0.923416	0.021779
 158	7.8500e-02	3.1296	20.478058	0.000707	7.066049	1.197021	0.028232
 159	7.9000e-02	3.1500	20.590985	0.000565	5.652840	0.957617	0.022585
 160	7.9500e-02	3.1699	20.699879	0.000545	5.450952	0.923416	0.021779
 161	8.0000e-02	3.1888	20.744243	0.000222	2.220758	0.376207	0.008873
 162	8.0500e-02	3.2092	20.901534	0.000787	7.873598	1.333824	0.031458
 163	8.1000e-02	3.2295	21.018493	0.000585	5.854727	0.991818	0.023392
 164	8.1500e-02	3.2495	21.046725	0.000141	1.413210	0.239404	0.005646
 165	8.2000e-02	3.2692	21.191917	0.000727	7.267937	1.231222	0.029038
 166	8.2500e-02	3.2892	21.280645	0.000444	4.441517	0.752413	0.017746
 167	8.3000e-02	3.3109	21.389538	0.000545	5.450952	0.923416	0.021779
 168	8.3500e-02	3.3293	21.542796	0.000767	7.671711	1.299623	0.030652
 169	8.4000e-02	3.3484	21.558929	0.000081	0.807549	0.136802	0.003226
 170	8.4500e-02	3.3688	21.716219	0.000787	7.873598	1.333824	0.031458
 171	8.5000e-02	3.3905	21.808981	0.000464	4.643404	0.786614	0.018552
 172	8.5500e-02	3.4103	21.942073	0.000666	6.662275	1.128620	0.026618
 173	8.6000e-02	3.4308	22.067099	0.000626	6.258501	1.060219	0.025005
 174	8.6500e-02	3.4503	22.167926	0.000505	5.047178	0.855015	0.020165
 175	8.7000e-02	3.4705	22.252622	0.000424	4.239630	0.718213	0.016939
 176	8.7500e-02	3.4900	22.296986	0.000222	2.220758	0.376207	0.008873
 177	8.8000e-02	3.5095	22.417979	0.000606	6.056614	1.026018	0.024199
 178	8.8500e-02	3.5303	22.534938	0.000585	5.854727	0.991818	0.023392
 179	8.9000e-02	3.5498	22.623667	0.000444	4.441517	0.752413	0.017746
 180	8.9500e-02	3.5691	22.732560	0.000545	5.450952	0.923416	0.021779
 181	9.0000e-02	3.5901	22.817255	0.000424	4.239630	0.718213	0.016939
 182	9.0500e-02	3.6099	22.914050	0.000485	4.845291	0.820815	0.019359
 183	9.1000e-02	3.6292	23.047142	0.000666	6.662275	1.128620	0.026618
 184	9.1500e-02	3.6499	23.127804	0.000404	4.037743	0.684012	0.016132
 185	9.2000e-02	3.6707	23.272995	0.000727	7.267937	1.231222	0.029038
 186	9.2500e-02	3.6908	23.345591	0.000363	3.633968	0.615611	0.014519
 187	9.3000e-02	3.7099	23.442386	0.000485	4.845291	0.820815	0.019359
 188	9.3500e-02	3.7294	23.555312	0.000565	5.652840	0.957617	0.022585
 189	9.4000e-02	3.7500	23.652107	0.000485	4.845291	0.820815	0.019359
 190	9.4500e-02	3.7709	23.781166	0.000646	6.460388	1.094419	0.025812
 191	9.5000e-02	3.7912	23.861828	0.000404	4.037743	0.684012	0.016132
 192	9.5500e-02	3.8098	24.011053	0.000747	7.469824	1.265422	0.029845
 193	9.6000e-02	3.8306	24.063483	0.000262	2.624533	0.444608	0.010486
 194	9.6500e-02	3.8509	24.156244	0.000464	4.643404	0.786614	0.018552
 195	9.7000e-02	3.8702	24.325634	0.000848	8.479259	1.436425	0.033878
 196	9.7500e-02	3.8910	24.353866	0.000141	1.413210	0.239404	0.005646
 197	9.8000e-02	3.9101	24.466793	0.000565	5.652840	0.957617	0.022585
 198	9.8500e-02	3.9294	24.571653	0.000525	5.249065	0.889216	0.020972
 199	9.9000e-02	3.9497	24.684580	0.000565	5.652840	0.957617	0.022585
 200	9.9500e-02	3.9700	24.773308	0.000444	4.441517	0.752413	0.017746
 201	1.0000e-01	3.9899	24.882202	0.000545	5.450952	0.923416	0.021779
 202	1.0050e-01	4.0094	25.011261	0.000646	6.460388	1.094419	0.025812
 203	1.0100e-01	4.0302	25.087890	0.000384	3.835855	0.649811	0.015326
 204	1.0150e-01	4.0497	25.152419	0.000323	3.230194	0.547210	0.012906
 205	1.0200e-01	4.0704	25.293578	0.000707	7.066049	1.197021	0.028232
 206	1.0250e-01	4.0900	25.374240	0.000404	4.037743	0.684012	0.016132
 207	1.0300e-01	4.1102	25.543630	0.000848	8.479259	1.436425	0.033878
 208	1.0350e-01	4.1298	25.592027	0.000242	2.422646	0.410407	0.009679
 209	1.0400e-01	4.1498	25.696888	0.000525	5.249065	0.889216	0.020972
 210	1.0450e-01	4.1699	25.821914	0.000626	6.258501	1.060219	0.025005
 211	1.0500e-01	4.1907	25.930807	0.000545	5.450952	0.923416	0.021779
 212	1.0550e-01	4.2097	26.007436	0.000384	3.835855	0.649811	0.015326
 213	1.0600e-01	4.2297	26.088098	0.000404	4.037743	0.684012	0.016132
 214	1.0650e-01	4.2514	26.172793	0.000424	4.239630	0.718213	0.016939
 215	1.0700e-01	4.2694	26.326051	0.000767	7.671711	1.299623	0.030652
 216	1.0750e-01	4.2902	26.362349	0.000182	1.816984	0.307805	0.007260
 217	1.0800e-01	4.3098	26.515607	0.000767	7.671711	1.299623	0.030652
 218	1.0850e-01	4.3298	26.656765	0.000707	7.066049	1.197021	0.028232
 219	1.0900e-01	4.3506	26.713229	0.000283	2.826420	0.478808	0.011293
 220	1.0950e-01	4.3704	26.830188	0.000585	5.854727	0.991818	0.023392
 221	1.1000e-01	4.3909	26.854387	0.000121	1.211323	0.205204	0.004840
 222	1.1050e-01	4.4106	26.987479	0.000666	6.662275	1.128620	0.026618
 223	1.1100e-01	4.4306	27.092340	0.000525	5.249065	0.889216	0.020972
 224	1.1150e-01	4.4510	27.197200	0.000525	5.249065	0.889216	0.020972
 225	1.1200e-01	4.4699	27.310127	0.000565	5.652840	0.957617	0.022585
 226	1.1250e-01	4.4910	27.386756	0.000384	3.835855	0.649811	0.015326
 227	1.1300e-01	4.5099	27.451286	0.000323	3.230194	0.547210	0.012906
 228	1.1350e-01	4.5300	27.588411	0.000686	6.864162	1.162821	0.027425
 229	1.1400e-01	4.5490	27.652941	0.000323	3.230194	0.547210	0.012906
 230	1.1450e-01	4.5676	27.765867	0.000565	5.652840	0.957617	0.022585
 231	1.1500e-01	4.5905	27.870728	0.000525	5.249065	0.889216	0.020972
 232	1.1550e-01	4.6103	28.003820	0.000666	6.662275	1.128620	0.026618
 233	1.1600e-01	4.6303	28.052217	0.000242	2.422646	0.410407	0.009679
 234	1.1650e-01	4.6510	28.197409	0.000727	7.267937	1.231222	0.029038
 235	1.1700e-01	4.6704	28.241773	0.000222	2.220758	0.376207	0.008873
 236	1.1750e-01	4.6895	28.338567	0.000485	4.845291	0.820815	0.019359
 237	1.1800e-01	4.7102	28.471660	0.000666	6.662275	1.128620	0.026618
 238	1.1850e-01	4.7304	28.568454	0.000485	4.845291	0.820815	0.019359
 239	1.1900e-01	4.7508	28.653149	0.000424	4.239630	0.718213	0.016939
 240	1.1950e-01	4.7713	28.766076	0.000565	5.652840	0.957617	0.022585
 241	1.2000e-01	4.7908	28.935466	0.000848	8.479259	1.436425	0.033878
 242	1.2050e-01	4.8109	28.983863	0.000242	2.422646	0.410407	0.009679
 243	1.2100e-01	4.8303	29.060492	0.000384	3.835855	0.649811	0.015326
 244	1.2150e-01	4.8508	29.209717	0.000747	7.469824	1.265422	0.029845
 245	1.2200e-01	4.8700	29.302478	0.000464	4.643404	0.786614	0.018552
 246	1.2250e-01	4.8901	29.338776	0.000182	1.816984	0.307805	0.007260
 247	1.2300e-01	4.9109	29.459769	0.000606	6.056614	1.026018	0.024199
 248	1.2350e-01	4.9304	29.528331	0.000343	3.432081	0.581410	0.013713
 249	1.2400e-01	4.9509	29.701755	0.000868	8.681146	1.470626	0.034685
 250	1.2450e-01	4.9709	29.738053	0.000182	1.816984	0.307805	0.007260
 251	1.2500e-01	4.9905	29.818715	0.000404	4.037743	0.684012	0.016132
 252	1.2550e-01	5.0110	29.963906	0.000727	7.267937	1.231222	0.029038
 253	1.2600e-01	5.0308	30.052634	0.000444	4.441517	0.752413	0.017746
 254	1.2650e-01	5.0519	30.113131	0.000303	3.028307	0.513009	0.012099
 255	1.2700e-01	5.0714	30.234124	0.000606	6.056614	1.026018	0.024199
 256	1.2750e-01	5.0909	30.375282	0.000707	7.066049	1.197021	0.028232
 257	1.2800e-01	5.1111	30.472076	0.000485	4.845291	0.820815	0.019359
 258	1.2850e-01	5.1300	30.492242	0.000101	1.009436	0.171003	0.004033
 259	1.2900e-01	5.1508	30.597103	0.000525	5.249065	0.889216	0.020972
 260	1.2950e-01	5.1703	30.685831	0.000444	4.441517	0.752413	0.017746
 261	1.3000e-01	5.1909	30.798757	0.000565	5.652840	0.957617	0.022585
 262	1.3050e-01	5.2112	30.891519	0.000464	4.643404	0.786614	0.018552
 263	1.3100e-01	5.2301	31.000412	0.000545	5.450952	0.923416	0.021779
 264	1.3150e-01	5.2509	31.093174	0.000464	4.643404	0.786614	0.018552
 265	1.3200e-01	5.2707	31.210134	0.000585	5.854727	0.991818	0.023392
 266	1.3250e-01	5.2902	31.254498	0.000222	2.220758	0.376207	0.008873
 267	1.3300e-01	5.3101	31.363391	0.000545	5.450952	0.923416	0.021779
 268	1.3350e-01	5.3308	31.448086	0.000424	4.239630	0.718213	0.016939
 269	1.3400e-01	5.3506	31.544881	0.000485	4.845291	0.820815	0.019359
 270	1.3450e-01	5.3711	31.673940	0.000646	6.460388	1.094419	0.025812
 271	1.3500e-01	5.3912	31.762668	0.000444	4.441517	0.752413	0.017746
 272	1.3550e-01	5.4099	31.875595	0.000565	5.652840	0.957617	0.022585
 273	1.3600e-01	5.4315	31.923992	0.000242	2.422646	0.410407	0.009679
 274	1.3650e-01	5.4504	32.016753	0.000464	4.643404	0.786614	0.018552
 275	1.3700e-01	5.4709	32.145812	0.000646	6.460388	1.094419	0.025812
 276	1.3750e-01	5.4901	32.262772	0.000585	5.854727	0.991818	0.023392
 277	1.3800e-01	5.5112	32.331335	0.000343	3.432081	0.581410	0.013713
 278	1.3850e-01	5.5310	32.476526	0.000727	7.267937	1.231222	0.029038
 279	1.3900e-01	5.5511	32.537023	0.000303	3.028307	0.513009	0.012099
 280	1.3950e-01	5.5707	32.561222	0.000121	1.211323	0.205204	0.004840
 281	1.4000e-01	5.5911	32.686248	0.000626	6.258501	1.060219	0.025005
 282	1.4050e-01	5.6105	32.774976	0.000444	4.441517	0.752413	0.017746
 283	1.4100e-01	5.6305	32.887903	0.000565	5.652840	0.957617	0.022585
 284	1.4150e-01	5.6509	32.968565	0.000404	4.037743	0.684012	0.016132
 285	1.4200e-01	5.6711	33.089557	0.000606	6.056614	1.026018	0.024199
 286	1.4250e-01	5.6912	33.141988	0.000262	2.624533	0.444608	0.010486
 287	1.4300e-01	5.7114	33.246848	0.000525	5.249065	0.889216	0.020972
 288	1.4350e-01	5.7312	33.363808	0.000585	5.854727	0.991818	0.023392
 289	1.4400e-01	5.7520	33.416238	0.000262	2.624533	0.444608	0.010486
 290	1.4450e-01	5.7715	33.488834	0.000363	3.633968	0.615611	0.014519
 291	1.4500e-01	5.7901	33.670324	0.000908	9.084921	1.539027	0.036298
 292	1.4550e-01	5.8109	33.702588	0.000162	1.615097	0.273605	0.006453
 293	1.4600e-01	5.8313	33.831648	0.000646	6.460388	1.094419	0.025812
 294	1.4650e-01	5.8514	33.867946	0.000182	1.816984	0.307805	0.007260
 295	1.4700e-01	5.8704	33.992972	0.000626	6.258501	1.060219	0.025005
 296	1.4750e-01	5.8899	34.049435	0.000283	2.826420	0.478808	0.011293
 297	1.4800e-01	5.9119	34.126064	0.000384	3.835855	0.649811	0.015326
 298	1.4850e-01	5.9296	34.222858	0.000485	4.845291	0.820815	0.019359
 299	1.4900e-01	5.9515	34.368050	0.000727	7.267937	1.231222	0.029038
 300	1.4950e-01	5.9698	34.432579	0.000323	3.230194	0.547210	0.012906
 301	1.5000e-01	5.9908	34.517274	0.000424	4.239630	0.718213	0.016939
 302	1.5050e-01	6.0101	34.581804	0.000323	3.230194	0.547210	0.012906
 303	1.5100e-01	6.0306	34.674565	0.000464	4.643404	0.786614	0.018552
 304	1.5150e-01	6.0510	34.807657	0.000666	6.662275	1.128620	0.026618
 305	1.5200e-01	6.0712	34.880253	0.000363	3.633968	0.615611	0.014519
 306	1.5250e-01	6.0913	35.001246	0.000606	6.056614	1.026018	0.024199
 307	1.5300e-01	6.1102	35.065776	0.000323	3.230194	0.547210	0.012906
 308	1.5350e-01	6.1316	35.158537	0.000464	4.643404	0.786614	0.018552
 309	1.5400e-01	6.1508	35.206934	0.000242	2.422646	0.410407	0.009679
 310	1.5450e-01	6.1713	35.348093	0.000707	7.066049	1.197021	0.028232
 311	1.5500e-01	6.1908	35.416655	0.000343	3.432081	0.581410	0.013713
 312	1.5550e-01	6.2109	35.549748	0.000666	6.662275	1.128620	0.026618
 313	1.5600e-01	6.2323	35.594112	0.000222	2.220758	0.376207	0.008873
 314	1.5650e-01	6.2518	35.670741	0.000384	3.835855	0.649811	0.015326
 315	1.5700e-01	6.2704	35.783667	0.000565	5.652840	0.957617	0.022585
 316	1.5750e-01	6.2915	35.888528	0.000525	5.249065	0.889216	0.020972
 317	1.5800e-01	6.3118	35.965157	0.000384	3.835855	0.649811	0.015326
 318	1.5850e-01	6.3300	36.037753	0.000363	3.633968	0.615611	0.014519
 319	1.5900e-01	6.3503	36.122448	0.000424	4.239630	0.718213	0.016939
 320	1.5950e-01	6.3707	36.243441	0.000606	6.056614	1.026018	0.024199
 321	1.6000e-01	6.3898	36.316036	0.000363	3.633968	0.615611	0.014519
 322	1.6050e-01	6.4111	36.356367	0.000202	2.018871	0.342006	0.008066
 323	1.6100e-01	6.4307	36.477360	0.000606	6.056614	1.026018	0.024199
 324	1.6150e-01	6.4502	36.562055	0.000424	4.239630	0.718213	0.016939
 325	1.6200e-01	6.4709	36.658850	0.000485	4.845291	0.820815	0.019359
 326	1.6250e-01	6.4905	36.727412	0.000343	3.432081	0.581410	0.013713
 327	1.6300e-01	6.5100	36.872604	0.000727	7.267937	1.231222	0.029038
 328	1.6350e-01	6.5308	36.912935	0.000202	2.018871	0.342006	0.008066
 329	1.6400e-01	6.5511	36.989564	0.000384	3.835855	0.649811	0.015326
 330	1.6450e-01	6.5704	37.134755	0.000727	7.267937	1.231222	0.029038
 331	1.6500e-01	6.5906	37.171053	0.000182	1.816984	0.307805	0.007260
 332	1.6550e-01	6.6095	37.231550	0.000303	3.028307	0.513009	0.012099
 333	1.6600e-01	6.6299	37.384807	0.000767	7.671711	1.299623	0.030652
 334	1.6650e-01	6.6498	37.445304	0.000303	3.028307	0.513009	0.012099
 335	1.6700e-01	6.6705	37.570330	0.000626	6.258501	1.060219	0.025005
 336	1.6750e-01	6.6907	37.574363	0.000020	0.201887	0.034201	0.000807
 337	1.6800e-01	6.7102	37.703422	0.000646	6.460388	1.094419	0.025812
 338	1.6850e-01	6.7310	37.848614	0.000727	7.267937	1.231222	0.029038
 339	1.6900e-01	6.7505	37.905077	0.000283	2.826420	0.478808	0.011293
 340	1.6950e-01	6.7709	37.969607	0.000323	3.230194	0.547210	0.012906
 341	1.7000e-01	6.7905	38.001872	0.000162	1.615097	0.273605	0.006453
 342	1.7050e-01	6.8091	38.130931	0.000646	6.460388	1.094419	0.025812
 343	1.7100e-01	6.8311	38.251924	0.000606	6.056614	1.026018	0.024199
 344	1.7150e-01	6.8506	38.320486	0.000343	3.432081	0.581410	0.013713
 345	1.7200e-01	6.8707	38.405181	0.000424	4.239630	0.718213	0.016939
 346	1.7250e-01	6.8903	38.465678	0.000303	3.028307	0.513009	0.012099
 347	1.7300e-01	6.9104	38.614903	0.000747	7.469824	1.265422	0.029845
 348	1.7350e-01	6.9312	38.598770	-0.000081	-0.807549	-0.136802	-0.003226
 349	1.7400e-01	6.9510	38.703631	0.000525	5.249065	0.889216	0.020972
 350	1.7450e-01	6.9704	38.848822	0.000727	7.267937	1.231222	0.029038
 351	1.7500e-01	6.9910	38.893186	0.000222	2.220758	0.376207	0.008873
 352	1.7550e-01	7.0096	38.929484	0.000182	1.816984	0.307805	0.007260
 353	1.7600e-01	7.0316	39.054510	0.000626	6.258501	1.060219	0.025005
 354	1.7650e-01	7.0502	39.171470	0.000585	5.854727	0.991818	0.023392
 355	1.7700e-01	7.0703	39.268265	0.000485	4.845291	0.820815	0.019359
 356	1.7750e-01	7.0908	39.348927	0.000404	4.037743	0.684012	0.016132
 357	1.7800e-01	7.1106	39.389257	0.000202	2.018871	0.342006	0.008066
 358	1.7850e-01	7.1307	39.506217	0.000585	5.854727	0.991818	0.023392
 359	1.7900e-01	7.1503	39.655442	0.000747	7.469824	1.265422	0.029845
 360	1.7950e-01	7.1710	39.691740	0.000182	1.816984	0.307805	0.007260
 361	1.8000e-01	7.1912	39.784501	0.000464	4.643404	0.786614	0.018552
 362	1.8050e-01	7.2116	39.865163	0.000404	4.037743	0.684012	0.016132
 363	1.8100e-01	7.2305	39.925660	0.000303	3.028307	0.513009	0.012099
 364	1.8150e-01	7.2513	40.038586	0.000565	5.652840	0.957617	0.022585
 365	1.8200e-01	7.2708	40.127315	0.000444	4.441517	0.752413	0.017746
 366	1.8250e-01	7.2913	40.123281	-0.000020	-0.201887	-0.034201	-0.000807
 367	1.8300e-01	7.3114	40.284605	0.000808	8.075485	1.368024	0.032265
 368	1.8350e-01	7.3306	40.369300	0.000424	4.239630	0.718213	0.016939
 369	1.8400e-01	7.3517	40.429797	0.000303	3.028307	0.513009	0.012099
 370	1.8450e-01	7.3712	40.526591	0.000485	4.845291	0.820815	0.019359
 371	1.8500e-01	7.3908	40.558856	0.000162	1.615097	0.273605	0.006453
 372	1.8550e-01	7.4110	40.700015	0.000707	7.066049	1.197021	0.028232
 373	1.8600e-01	7.4304	40.768577	0.000343	3.432081	0.581410	0.013713
 374	1.8650e-01	7.4509	40.873438	0.000525	5.249065	0.889216	0.020972
 375	1.8700e-01	7.4713	40.921835	0.000242	2.422646	0.410407	0.009679
 376	1.8750e-01	7.4915	40.990398	0.000343	3.432081	0.581410	0.013713
 377	1.8800e-01	7.5116	41.119457	0.000646	6.460388	1.094419	0.025812
 378	1.8850e-01	7.5305	41.192053	0.000363	3.633968	0.615611	0.014519
 379	1.8900e-01	7.5513	41.212218	0.000101	1.009436	0.171003	0.004033
 380	1.8950e-01	7.5717	41.296913	0.000424	4.239630	0.718213	0.016939
 381	1.9000e-01	7.5916	41.357410	0.000303	3.028307	0.513009	0.012099
 382	1.9050e-01	7.6105	41.490502	0.000666	6.662275	1.128620	0.026618
 383	1.9100e-01	7.6306	41.595362	0.000525	5.249065	0.889216	0.020972
 384	1.9150e-01	7.6514	41.647793	0.000262	2.624533	0.444608	0.010486
 385	1.9200e-01	7.6703	41.768786	0.000606	6.056614	1.026018	0.024199
 386	1.9250e-01	7.6913	41.805084	0.000182	1.816984	0.307805	0.007260
 387	1.9300e-01	7.7112	41.918010	0.000565	5.652840	0.957617	0.022585
 388	1.9350e-01	7.7313	41.974474	0.000283	2.826420	0.478808	0.011293
 389	1.9400e-01	7.7502	42.083367	0.000545	5.450952	0.923416	0.021779
 390	1.9450e-01	7.7704	42.143864	0.000303	3.028307	0.513009	0.012099
 391	1.9500e-01	7.7911	42.204360	0.000303	3.028307	0.513009	0.012099
 392	1.9550e-01	7.8107	42.297122	0.000464	4.643404	0.786614	0.018552
 393	1.9600e-01	7.8314	42.406015	0.000545	5.450952	0.923416	0.021779
 394	1.9650e-01	7.8516	42.486677	0.000404	4.037743	0.684012	0.016132
 395	1.9700e-01	7.8711	42.571372	0.000424	4.239630	0.718213	0.016939
 396	1.9750e-01	7.8906	42.668167	0.000485	4.845291	0.820815	0.019359
 397	1.9800e-01	7.9108	42.668167	0.000000	0.000000	0.000000	0.000000
 398	1.9850e-01	7.9309	42.785127	0.000585	5.854727	0.991818	0.023392
 399	1.9900e-01	7.9504	42.881921	0.000485	4.845291	0.820815	0.019359
 400	1.9950e-01	7.9712	42.926285	0.000222	2.220758	0.376207	0.008873
 401	2.0000e-01	7.9913	43.047278	0.000606	6.056614	1.026018	0.024199
 402	2.0050e-01	8.0109	43.099708	0.000262	2.624533	0.444608	0.010486
 403	2.0100e-01	8.0304	43.208602	0.000545	5.450952	0.923416	0.021779
 404	2.0150e-01	8.0511	43.265065	0.000283	2.826420	0.478808	0.011293
 405	2.0200e-01	8.0719	43.349760	0.000424	4.239630	0.718213	0.016939
 406	2.0250e-01	8.0908	43.438488	0.000444	4.441517	0.752413	0.017746
 407	2.0300e-01	8.1122	43.535283	0.000485	4.845291	0.820815	0.019359
 408	2.0350e-01	8.1317	43.579647	0.000222	2.220758	0.376207	0.008873
 409	2.0400e-01	8.1519	43.708706	0.000646	6.460388	1.094419	0.025812
 410	2.0450e-01	8.1708	43.769203	0.000303	3.028307	0.513009	0.012099
 411	2.0500e-01	8.1927	43.817600	0.000242	2.422646	0.410407	0.009679
 412	2.0550e-01	8.2117	43.918427	0.000505	5.047178	0.855015	0.020165
 413	2.0600e-01	8.2324	43.978924	0.000303	3.028307	0.513009	0.012099
 414	2.0650e-01	8.2489	44.039420	0.000303	3.028307	0.513009	0.012099
 415	2.0700e-01	8.2715	44.116049	0.000384	3.835855	0.649811	0.015326
 416	2.0750e-01	8.2913	44.204777	0.000444	4.441517	0.752413	0.017746
 417	2.0800e-01	8.3118	44.301572	0.000485	4.845291	0.820815	0.019359
 418	2.0850e-01	8.3313	44.402399	0.000505	5.047178	0.855015	0.020165
 419	2.0900e-01	8.3508	44.450796	0.000242	2.422646	0.410407	0.009679
 420	2.0950e-01	8.3722	44.507260	0.000283	2.826420	0.478808	0.011293
 421	2.1000e-01	8.3911	44.555657	0.000242	2.422646	0.410407	0.009679
 422	2.1050e-01	8.4116	44.660517	0.000525	5.249065	0.889216	0.020972
 423	2.1100e-01	8.4308	44.745212	0.000424	4.239630	0.718213	0.016939
 424	2.1150e-01	8.4509	44.878305	0.000666	6.662275	1.128620	0.026618
 425	2.1200e-01	8.4714	44.926702	0.000242	2.422646	0.410407	0.009679
 426	2.1250e-01	8.4915	45.019463	0.000464	4.643404	0.786614	0.018552
 427	2.1300e-01	8.5114	45.067860	0.000242	2.422646	0.410407	0.009679
 428	2.1350e-01	8.5306	45.116258	0.000242	2.422646	0.410407	0.009679
 429	2.1400e-01	8.5513	45.245317	0.000646	6.460388	1.094419	0.025812
 430	2.1450e-01	8.5706	45.334045	0.000444	4.441517	0.752413	0.017746
 431	2.1500e-01	8.5913	45.386475	0.000262	2.624533	0.444608	0.010486
 432	2.1550e-01	8.6115	45.463104	0.000384	3.835855	0.649811	0.015326
 433	2.1600e-01	8.6316	45.519567	0.000283	2.826420	0.478808	0.011293
 434	2.1650e-01	8.6511	45.628461	0.000545	5.450952	0.923416	0.021779
 435	2.1700e-01	8.6707	45.741388	0.000565	5.652840	0.957617	0.022585
 436	2.1750e-01	8.6917	45.773653	0.000162	1.615097	0.273605	0.006453
 437	2.1800e-01	8.7109	45.878513	0.000525	5.249065	0.889216	0.020972
 438	2.1850e-01	8.7305	45.947076	0.000343	3.432081	0.581410	0.013713
 439	2.1900e-01	8.7512	45.987407	0.000202	2.018871	0.342006	0.008066
 440	2.1950e-01	8.7714	46.080168	0.000464	4.643404	0.786614	0.018552
 441	2.2000e-01	8.7909	46.144698	0.000323	3.230194	0.547210	0.012906
 442	2.2050e-01	8.8110	46.201161	0.000283	2.826420	0.478808	0.011293
 443	2.2100e-01	8.8330	46.257624	0.000283	2.826420	0.478808	0.011293
 444	2.2150e-01	8.8513	46.301989	0.000222	2.220758	0.376207	0.008873
 445	2.2200e-01	8.8708	46.447180	0.000727	7.267937	1.231222	0.029038
 446	2.2250e-01	8.8904	46.548008	0.000505	5.047178	0.855015	0.020165
 447	2.2300e-01	8.9099	46.632703	0.000424	4.239630	0.718213	0.016939
 448	2.2350e-01	8.9316	46.624636	-0.000040	-0.403774	-0.068401	-0.001613
 449	2.2400e-01	8.9514	46.749662	0.000626	6.258501	1.060219	0.025005
 450	2.2450e-01	8.9703	46.822258	0.000363	3.633968	0.615611	0.014519
 451	2.2500e-01	8.9905	46.919053	0.000485	4.845291	0.820815	0.019359
 452	2.2550e-01	9.0112	47.015847	0.000485	4.845291	0.820815	0.019359
 453	2.2600e-01	9.0302	47.084410	0.000343	3.432081	0.581410	0.013713
 454	2.2650e-01	9.0515	47.169105	0.000424	4.239630	0.718213	0.016939
 455	2.2700e-01	9.0704	47.209436	0.000202	2.018871	0.342006	0.008066
 456	2.2750e-01	9.0912	47.229601	0.000101	1.009436	0.171003	0.004033
 457	2.2800e-01	9.1107	47.334462	0.000525	5.249065	0.889216	0.020972
 458	2.2850e-01	9.1306	47.431256	0.000485	4.845291	0.820815	0.019359
 459	2.2900e-01	9.1516	47.483686	0.000262	2.624533	0.444608	0.010486
 460	2.2950e-01	9.1711	47.532084	0.000242	2.422646	0.410407	0.009679
 461	2.3000e-01	9.1907	47.657110	0.000626	6.258501	1.060219	0.025005
 462	2.3050e-01	9.2102	47.733739	0.000384	3.835855	0.649811	0.015326
 463	2.3100e-01	9.2310	47.798268	0.000323	3.230194	0.547210	0.012906
 464	2.3150e-01	9.2511	47.874897	0.000384	3.835855	0.649811	0.015326
 465	2.3200e-01	9.2712	47.971691	0.000485	4.845291	0.820815	0.019359
 466	2.3250e-01	9.2902	48.036221	0.000323	3.230194	0.547210	0.012906
 467	2.3300e-01	9.3109	48.112850	0.000384	3.835855	0.649811	0.015326
 468	2.3350e-01	9.3304	48.193512	0.000404	4.037743	0.684012	0.016132
 469	2.3400e-01	9.3509	48.254008	0.000303	3.028307	0.513009	0.012099
 470	2.3450e-01	9.3713	48.342736	0.000444	4.441517	0.752413	0.017746
 471	2.3500e-01	9.3909	48.431465	0.000444	4.441517	0.752413	0.017746
 472	2.3550e-01	9.4110	48.491961	0.000303	3.028307	0.513009	0.012099
 473	2.3600e-01	9.4305	48.564557	0.000363	3.633968	0.615611	0.014519
 474	2.3650e-01	9.4501	48.669417	0.000525	5.249065	0.889216	0.020972
 475	2.3700e-01	9.4711	48.673450	0.000020	0.201887	0.034201	0.000807
 476	2.3750e-01	9.4910	48.729914	0.000283	2.826420	0.478808	0.011293
 477	2.3800e-01	9.5108	48.842841	0.000565	5.652840	0.957617	0.022585
 478	2.3850e-01	9.5313	48.895271	0.000262	2.624533	0.444608	0.010486
 479	2.3900e-01	9.5508	48.996098	0.000505	5.047178	0.855015	0.020165
 480	2.3950e-01	9.5709	49.064661	0.000343	3.432081	0.581410	0.013713
 481	2.4000e-01	9.5911	49.117091	0.000262	2.624533	0.444608	0.010486
 482	2.4050e-01	9.6106	49.201786	0.000424	4.239630	0.718213	0.016939
 483	2.4100e-01	9.6307	49.266316	0.000323	3.230194	0.547210	0.012906
 484	2.4150e-01	9.6509	49.338912	0.000363	3.633968	0.615611	0.014519
 485	2.4200e-01	9.6716	49.455872	0.000585	5.854727	0.991818	0.023392
 486	2.4250e-01	9.6912	49.496203	0.000202	2.018871	0.342006	0.008066
 487	2.4300e-01	9.7119	49.536534	0.000202	2.018871	0.342006	0.008066
 488	2.4350e-01	9.7314	49.649460	0.000565	5.652840	0.957617	0.022585
 489	2.4400e-01	9.7516	49.734155	0.000424	4.239630	0.718213	0.016939
 490	2.4450e-01	9.7711	49.770453	0.000182	1.816984	0.307805	0.007260
 491	2.4500e-01	9.7913	49.851115	0.000404	4.037743	0.684012	0.016132
 492	2.4550e-01	9.8108	49.968075	0.000585	5.854727	0.991818	0.023392
 493	2.4600e-01	9.8303	49.980174	0.000061	0.605661	0.102602	0.002420
 494	2.4650e-01	9.8505	50.008406	0.000141	1.413210	0.239404	0.005646
 495	2.4700e-01	9.8706	50.145531	0.000686	6.864162	1.162821	0.027425
 496	2.4750e-01	9.8914	50.173763	0.000141	1.413210	0.239404	0.005646
 497	2.4800e-01	9.9115	50.298789	0.000626	6.258501	1.060219	0.025005
 498	2.4850e-01	9.9304	50.335087	0.000182	1.816984	0.307805	0.007260
 499	2.4900e-01	9.9512	50.407683	0.000363	3.633968	0.615611	0.014519
 500	2.4950e-01	9.9713	50.500444	0.000464	4.643404	0.786614	0.018552
 501	2.5000e-01	9.9915	50.536742	0.000182	1.816984	0.307805	0.007260
 502	2.5050e-01	9.9872	50.464146	0.000363	3.633968	0.615611	-0.014519
 503	2.5100e-01	9.9713	50.472212	-0.000040	-0.403774	-0.068401	0.001613
 504	2.5150e-01	9.9524	50.395584	0.000384	3.835855	0.649811	-0.015326
 505	2.5200e-01	9.9335	50.395584	-0.000000	-0.000000	-0.000000	0.000000
 506	2.5250e-01	9.9139	50.375418	0.000101	1.009436	0.171003	-0.004033
 507	2.5300e-01	9.8935	50.290723	0.000424	4.239630	0.718213	-0.016939
 508	2.5350e-01	9.8730	50.250392	0.000202	2.018871	0.342006	-0.008066
 509	2.5400e-01	9.8523	50.141498	0.000545	5.450952	0.923416	-0.021779
 510	2.5450e-01	9.8331	50.117300	0.000121	1.211323	0.205204	-0.004840
 511	2.5500e-01	9.8126	50.052770	0.000323	3.230194	0.547210	-0.012906
 512	2.5550e-01	9.7934	49.988241	0.000323	3.230194	0.547210	-0.012906
 513	2.5600e-01	9.7736	49.875314	0.000565	5.652840	0.957617	-0.022585
 514	2.5650e-01	9.7528	49.843049	0.000162	1.615097	0.273605	-0.006453
 515	2.5700e-01	9.7327	49.851115	-0.000040	-0.403774	-0.068401	0.001613
 516	2.5750e-01	9.7125	49.758354	0.000464	4.643404	0.786614	-0.018552
 517	2.5800e-01	9.6924	49.701891	0.000283	2.826420	0.478808	-0.011293
 518	2.5850e-01	9.6729	49.592997	0.000545	5.450952	0.923416	-0.021779
 519	2.5900e-01	9.6533	49.524434	0.000343	3.432081	0.581410	-0.013713
 520	2.5950e-01	9.6338	49.520401	0.000020	0.201887	0.034201	-0.000807
 521	2.6000e-01	9.6133	49.472004	0.000242	2.422646	0.410407	-0.009679
 522	2.6050e-01	9.5935	49.399408	0.000363	3.633968	0.615611	-0.014519
 523	2.6100e-01	9.5740	49.330846	0.000343	3.432081	0.581410	-0.013713
 524	2.6150e-01	9.5532	49.290515	0.000202	2.018871	0.342006	-0.008066
 525	2.6200e-01	9.5343	49.197753	0.000464	4.643404	0.786614	-0.018552
 526	2.6250e-01	9.5135	49.225985	-0.000141	-1.413210	-0.239404	0.005646
 527	2.6300e-01	9.4946	49.100959	0.000626	6.258501	1.060219	-0.025005
 528	2.6350e-01	9.4724	49.024330	0.000384	3.835855	0.649811	-0.015326
 529	2.6400e-01	9.4531	48.979966	0.000222	2.220758	0.376207	-0.008873
 530	2.6450e-01	9.4330	48.863006	0.000585	5.854727	0.991818	-0.023392
 531	2.6500e-01	9.4135	48.838808	0.000121	1.211323	0.205204	-0.004840
 532	2.6550e-01	9.3933	48.794443	0.000222	2.220758	0.376207	-0.008873
 533	2.6600e-01	9.3738	48.733947	0.000303	3.028307	0.513009	-0.012099
 534	2.6650e-01	9.3536	48.653285	0.000404	4.037743	0.684012	-0.016132
 535	2.6700e-01	9.3341	48.592789	0.000303	3.028307	0.513009	-0.012099
 536	2.6750e-01	9.3134	48.544391	0.000242	2.422646	0.410407	-0.009679
 537	2.6800e-01	9.2938	48.475829	0.000343	3.432081	0.581410	-0.013713
 538	2.6850e-01	9.2737	48.387100	0.000444	4.441517	0.752413	-0.017746
 539	2.6900e-01	9.2545	48.342736	0.000222	2.220758	0.376207	-0.008873
 540	2.6950e-01	9.2328	48.266108	0.000384	3.835855	0.649811	-0.015326
 541	2.7000e-01	9.2126	48.181412	0.000424	4.239630	0.718213	-0.016939
 542	2.7050e-01	9.1928	48.124949	0.000283	2.826420	0.478808	-0.011293
 543	2.7100e-01	9.1736	48.092684	0.000162	1.615097	0.273605	-0.006453
 544	2.7150e-01	9.1528	48.040254	0.000262	2.624533	0.444608	-0.010486
 545	2.7200e-01	9.1327	47.983791	0.000283	2.826420	0.478808	-0.011293
 546	2.7250e-01	9.1125	47.899096	0.000424	4.239630	0.718213	-0.016939
 547	2.7300e-01	9.0936	47.798268	0.000505	5.047178	0.855015	-0.020165
 548	2.7350e-01	9.0732	47.729705	0.000343	3.432081	0.581410	-0.013713
 549	2.7400e-01	9.0540	47.725672	0.000020	0.201887	0.034201	-0.000807
 550	2.7450e-01	9.0327	47.632911	0.000464	4.643404	0.786614	-0.018552
 551	2.7500e-01	9.0132	47.528050	0.000525	5.249065	0.889216	-0.020972
 552	2.7550e-01	8.9935	47.519984	0.000040	0.403774	0.068401	-0.001613
 553	2.7600e-01	8.9740	47.443355	0.000384	3.835855	0.649811	-0.015326
 554	2.7650e-01	8.9532	47.394958	0.000242	2.422646	0.410407	-0.009679
 555	2.7700e-01	8.9340	47.298164	0.000485	4.845291	0.820815	-0.019359
 556	2.7750e-01	8.9136	47.245734	0.000262	2.624533	0.444608	-0.010486
 557	2.7800e-01	8.8928	47.165072	0.000404	4.037743	0.684012	-0.016132
 558	2.7850e-01	8.8727	47.136840	0.000141	1.413210	0.239404	-0.005646
 559	2.7900e-01	8.8531	47.048112	0.000444	4.441517	0.752413	-0.017746
 560	2.7950e-01	8.8324	46.987615	0.000303	3.028307	0.513009	-0.012099
 561	2.8000e-01	8.8123	46.886788	0.000505	5.047178	0.855015	-0.020165
 562	2.8050e-01	8.7939	46.842424	0.000222	2.220758	0.376207	-0.008873
 563	2.8100e-01	8.7744	46.818225	0.000121	1.211323	0.205204	-0.004840
 564	2.8150e-01	8.7537	46.681100	0.000686	6.864162	1.162821	-0.027425
 565	2.8200e-01	8.7335	46.608504	0.000363	3.633968	0.615611	-0.014519
 566	2.8250e-01	8.7146	46.564140	0.000222	2.220758	0.376207	-0.008873
 567	2.8300e-01	8.6938	46.495577	0.000343	3.432081	0.581410	-0.013713
 568	2.8350e-01	8.6737	46.406849	0.000444	4.441517	0.752413	-0.017746
 569	2.8400e-01	8.6548	46.366518	0.000202	2.018871	0.342006	-0.008066
 570	2.8450e-01	8.6331	46.310055	0.000283	2.826420	0.478808	-0.011293
 571	2.8500e-01	8.6145	46.205194	0.000525	5.249065	0.889216	-0.020972
 572	2.8550e-01	8.5941	46.144698	0.000303	3.028307	0.513009	-0.012099
 573	2.8600e-01	8.5736	46.080168	0.000323	3.230194	0.547210	-0.012906
 574	2.8650e-01	8.5535	46.027738	0.000262	2.624533	0.444608	-0.010486
 575	2.8700e-01	8.5339	45.995473	0.000162	1.615097	0.273605	-0.006453
 576	2.8750e-01	8.5135	45.870447	0.000626	6.258501	1.060219	-0.025005
 577	2.8800e-01	8.4938	45.813984	0.000283	2.826420	0.478808	-0.011293
 578	2.8850e-01	8.4735	45.797851	0.000081	0.807549	0.136802	-0.003226
 579	2.8900e-01	8.4540	45.745421	0.000262	2.624533	0.444608	-0.010486
 580	2.8950e-01	8.4341	45.632494	0.000565	5.652840	0.957617	-0.022585
 581	2.9000e-01	8.4137	45.567965	0.000323	3.230194	0.547210	-0.012906
 582	2.9050e-01	8.3936	45.523600	0.000222	2.220758	0.376207	-0.008873
 583	2.9100e-01	8.3734	45.422773	0.000505	5.047178	0.855015	-0.020165
 584	2.9150e-01	8.3545	45.338078	0.000424	4.239630	0.718213	-0.016939
 585	2.9200e-01	8.3331	45.253383	0.000424	4.239630	0.718213	-0.016939
 586	2.9250e-01	8.3130	45.225151	0.000141	1.413210	0.239404	-0.005646
 587	2.9300e-01	8.2941	45.152555	0.000363	3.633968	0.615611	-0.014519
 588	2.9350e-01	8.2727	45.124324	0.000141	1.413210	0.239404	-0.005646
 589	2.9400e-01	8.2538	45.027529	0.000485	4.845291	0.820815	-0.019359
 590	2.9450e-01	8.2336	44.967033	0.000303	3.028307	0.513009	-0.012099
 591	2.9500e-01	8.2141	44.854106	0.000565	5.652840	0.957617	-0.022585
 592	2.9550e-01	8.1921	44.793610	0.000303	3.028307	0.513009	-0.012099
 593	2.9600e-01	8.1732	44.749246	0.000222	2.220758	0.376207	-0.008873
 594	2.9650e-01	8.1534	44.620186	0.000646	6.460388	1.094419	-0.025812
 595	2.9700e-01	8.1332	44.547591	0.000363	3.633968	0.615611	-0.014519
 596	2.9750e-01	8.1131	44.519359	0.000141	1.413210	0.239404	-0.005646
 597	2.9800e-01	8.0927	44.426598	0.000464	4.643404	0.786614	-0.018552
 598	2.9850e-01	8.0737	44.390300	0.000182	1.816984	0.307805	-0.007260
 599	2.9900e-01	8.0536	44.321737	0.000343	3.432081	0.581410	-0.013713
 600	2.9950e-01	8.0331	44.253174	0.000343	3.432081	0.581410	-0.013713
 601	3.0000e-01	8.0133	44.164446	0.000444	4.441517	0.752413	-0.017746
 602	3.0050e-01	7.9932	44.128148	0.000182	1.816984	0.307805	-0.007260
 603	3.0100e-01	7.9724	44.007155	0.000606	6.056614	1.026018	-0.024199
 604	3.0150e-01	7.9535	43.946659	0.000303	3.028307	0.513009	-0.012099
 605	3.0200e-01	7.9330	43.894229	0.000262	2.624533	0.444608	-0.010486
 606	3.0250e-01	7.9126	43.829699	0.000323	3.230194	0.547210	-0.012906
 607	3.0300e-01	7.8931	43.753070	0.000384	3.835855	0.649811	-0.015326
 608	3.0350e-01	7.8723	43.696607	0.000283	2.826420	0.478808	-0.011293
 609	3.0400e-01	7.8528	43.603846	0.000464	4.643404	0.786614	-0.018552
 610	3.0450e-01	7.8333	43.567548	0.000182	1.816984	0.307805	-0.007260
 611	3.0500e-01	7.8131	43.498985	0.000343	3.432081	0.581410	-0.013713
 612	3.0550e-01	7.7936	43.373959	0.000626	6.258501	1.060219	-0.025005
 613	3.0600e-01	7.7734	43.361860	0.000061	0.605661	0.102602	-0.002420
 614	3.0650e-01	7.7539	43.236834	0.000626	6.258501	1.060219	-0.025005
 615	3.0700e-01	7.7325	43.192469	0.000222	2.220758	0.376207	-0.008873
 616	3.0750e-01	7.7142	43.107774	0.000424	4.239630	0.718213	-0.016939
 617	3.0800e-01	7.6942	43.055344	0.000262	2.624533	0.444608	-0.010486
 618	3.0850e-01	7.6733	42.970649	0.000424	4.239630	0.718213	-0.016939
 619	3.0900e-01	7.6526	42.873855	0.000485	4.845291	0.820815	-0.019359
 620	3.0950e-01	7.6334	42.821424	0.000262	2.624533	0.444608	-0.010486
 621	3.1000e-01	7.6123	42.777060	0.000222	2.220758	0.376207	-0.008873
 622	3.1050e-01	7.5925	42.680266	0.000485	4.845291	0.820815	-0.019359
 623	3.1100e-01	7.5720	42.611703	0.000343	3.432081	0.581410	-0.013713
 624	3.1150e-01	7.5525	42.579438	0.000162	1.615097	0.273605	-0.006453
 625	3.1200e-01	7.5323	42.478611	0.000505	5.047178	0.855015	-0.020165
 626	3.1250e-01	7.5140	42.381817	0.000485	4.845291	0.820815	-0.019359
 627	3.1300e-01	7.4927	42.353585	0.000141	1.413210	0.239404	-0.005646
 628	3.1350e-01	7.4731	42.212427	0.000707	7.066049	1.197021	-0.028232
 629	3.1400e-01	7.4536	42.188228	0.000121	1.211323	0.205204	-0.004840
 630	3.1450e-01	7.4335	42.115632	0.000363	3.633968	0.615611	-0.014519
 631	3.1500e-01	7.4129	42.014805	0.000505	5.047178	0.855015	-0.020165
 632	3.1550e-01	7.3920	41.942209	0.000363	3.633968	0.615611	-0.014519
 633	3.1600e-01	7.3737	41.865580	0.000384	3.835855	0.649811	-0.015326
 634	3.1650e-01	7.3529	41.797017	0.000343	3.432081	0.581410	-0.013713
 635	3.1700e-01	7.3328	41.700223	0.000485	4.845291	0.820815	-0.019359
 636	3.1750e-01	7.3120	41.615528	0.000424	4.239630	0.718213	-0.016939
 637	3.1800e-01	7.2928	41.571164	0.000222	2.220758	0.376207	-0.008873
 638	3.1850e-01	7.2742	41.490502	0.000404	4.037743	0.684012	-0.016132
 639	3.1900e-01	7.2528	41.446138	0.000222	2.220758	0.376207	-0.008873
 640	3.1950e-01	7.2328	41.377575	0.000343	3.432081	0.581410	-0.013713
 641	3.2000e-01	7.2133	41.309012	0.000343	3.432081	0.581410	-0.013713
 642	3.2050e-01	7.1924	41.220284	0.000444	4.441517	0.752413	-0.017746
 643	3.2100e-01	7.1729	41.127523	0.000464	4.643404	0.786614	-0.018552
 644	3.2150e-01	7.1527	41.062993	0.000323	3.230194	0.547210	-0.012906
 645	3.2200e-01	7.1332	41.022662	0.000202	2.018871	0.342006	-0.008066
 646	3.2250e-01	7.1124	40.929901	0.000464	4.643404	0.786614	-0.018552
 647	3.2300e-01	7.0935	40.833107	0.000485	4.845291	0.820815	-0.019359
 648	3.2350e-01	7.0728	40.720180	0.000565	5.652840	0.957617	-0.022585
 649	3.2400e-01	7.0532	40.679849	0.000202	2.018871	0.342006	-0.008066
 650	3.2450e-01	7.0325	40.591121	0.000444	4.441517	0.752413	-0.017746
 651	3.2500e-01	7.0126	40.490293	0.000505	5.047178	0.855015	-0.020165
 652	3.2550e-01	6.9928	40.401565	0.000444	4.441517	0.752413	-0.017746
 653	3.2600e-01	6.9727	40.401565	-0.000000	-0.000000	-0.000000	0.000000
 654	3.2650e-01	6.9525	40.316870	0.000424	4.239630	0.718213	-0.016939
 655	3.2700e-01	6.9318	40.228142	0.000444	4.441517	0.752413	-0.017746
 656	3.2750e-01	6.9128	40.191844	0.000182	1.816984	0.307805	-0.007260
 657	3.2800e-01	6.8927	40.099083	0.000464	4.643404	0.786614	-0.018552
 658	3.2850e-01	6.8738	39.986156	0.000565	5.652840	0.957617	-0.022585
 659	3.2900e-01	6.8527	39.949858	0.000182	1.816984	0.307805	-0.007260
 660	3.2950e-01	6.8329	39.853064	0.000485	4.845291	0.820815	-0.019359
 661	3.3000e-01	6.8137	39.752236	0.000505	5.047178	0.855015	-0.020165
 662	3.3050e-01	6.7932	39.675608	0.000384	3.835855	0.649811	-0.015326
 663	3.3100e-01	6.7737	39.643343	0.000162	1.615097	0.273605	-0.006453
 664	3.3150e-01	6.7529	39.566714	0.000384	3.835855	0.649811	-0.015326
 665	3.3200e-01	6.7323	39.502184	0.000323	3.230194	0.547210	-0.012906
 666	3.3250e-01	6.7126	39.381191	0.000606	6.056614	1.026018	-0.024199
 667	3.3300e-01	6.6931	39.324728	0.000283	2.826420	0.478808	-0.011293
 668	3.3350e-01	6.6730	39.276331	0.000242	2.422646	0.410407	-0.009679
 669	3.3400e-01	6.6534	39.139205	0.000686	6.864162	1.162821	-0.027425
 670	3.3450e-01	6.6321	39.062577	0.000384	3.835855	0.649811	-0.015326
 671	3.3500e-01	6.6125	39.006113	0.000283	2.826420	0.478808	-0.011293
 672	3.3550e-01	6.5921	38.893186	0.000565	5.652840	0.957617	-0.022585
 673	3.3600e-01	6.5735	38.824624	0.000343	3.432081	0.581410	-0.013713
 674	3.3650e-01	6.5540	38.788326	0.000182	1.816984	0.307805	-0.007260
 675	3.3700e-01	6.5332	38.703631	0.000424	4.239630	0.718213	-0.016939
 676	3.3750e-01	6.5137	38.598770	0.000525	5.249065	0.889216	-0.020972
 677	3.3800e-01	6.4923	38.614903	-0.000081	-0.807549	-0.136802	0.003226
 678	3.3850e-01	6.4737	38.457612	0.000787	7.873598	1.333824	-0.031458
 679	3.3900e-01	6.4532	38.356784	0.000505	5.047178	0.855015	-0.020165
 680	3.3950e-01	6.4331	38.324519	0.000162	1.615097	0.273605	-0.006453
 681	3.4000e-01	6.4130	38.199493	0.000626	6.258501	1.060219	-0.025005
 682	3.4050e-01	6.3922	38.130931	0.000343	3.432081	0.581410	-0.013713
 683	3.4100e-01	6.3739	38.102699	0.000141	1.413210	0.239404	-0.005646
 684	3.4150e-01	6.3525	37.981706	0.000606	6.056614	1.026018	-0.024199
 685	3.4200e-01	6.3335	37.913143	0.000343	3.432081	0.581410	-0.013713
 686	3.4250e-01	6.3116	37.860713	0.000262	2.624533	0.444608	-0.010486
 687	3.4300e-01	6.2921	37.739720	0.000606	6.056614	1.026018	-0.024199
 688	3.4350e-01	6.2732	37.642926	0.000485	4.845291	0.820815	-0.019359
 689	3.4400e-01	6.2543	37.610661	0.000162	1.615097	0.273605	-0.006453
 690	3.4450e-01	6.2335	37.529999	0.000404	4.037743	0.684012	-0.016132
 691	3.4500e-01	6.2140	37.445304	0.000424	4.239630	0.718213	-0.016939
 692	3.4550e-01	6.1938	37.409006	0.000182	1.816984	0.307805	-0.007260
 693	3.4600e-01	6.1734	37.267848	0.000707	7.066049	1.197021	-0.028232
 694	3.4650e-01	6.1531	37.251715	0.000081	0.807549	0.136802	-0.003226
 695	3.4700e-01	6.1334	37.102491	0.000747	7.469824	1.265422	-0.029845
 696	3.4750e-01	6.1133	37.074259	0.000141	1.413210	0.239404	-0.005646
 697	3.4800e-01	6.0938	36.896803	0.000888	8.883034	1.504827	-0.035491
 698	3.4850e-01	6.0727	36.860505	0.000182	1.816984	0.307805	-0.007260
 699	3.4900e-01	6.0526	36.808074	0.000262	2.624533	0.444608	-0.010486
 700	3.4950e-01	6.0333	36.711280	0.000485	4.845291	0.820815	-0.019359
 701	3.5000e-01	6.0129	36.650784	0.000303	3.028307	0.513009	-0.012099
 702	3.5050e-01	5.9926	36.562055	0.000444	4.441517	0.752413	-0.017746
 703	3.5100e-01	5.9737	36.473327	0.000444	4.441517	0.752413	-0.017746
 704	3.5150e-01	5.9528	36.441062	0.000162	1.615097	0.273605	-0.006453
 705	3.5200e-01	5.9329	36.283772	0.000787	7.873598	1.333824	-0.031458
 706	3.5250e-01	5.9134	36.287805	-0.000020	-0.201887	-0.034201	0.000807
 707	3.5300e-01	5.8936	36.170845	0.000585	5.854727	0.991818	-0.023392
 708	3.5350e-01	5.8728	36.057918	0.000565	5.652840	0.957617	-0.022585
 709	3.5400e-01	5.8533	36.005488	0.000262	2.624533	0.444608	-0.010486
 710	3.5450e-01	5.8331	35.884495	0.000606	6.056614	1.026018	-0.024199
 711	3.5500e-01	5.8131	35.823998	0.000303	3.028307	0.513009	-0.012099
 712	3.5550e-01	5.7930	35.735270	0.000444	4.441517	0.752413	-0.017746
 713	3.5600e-01	5.7727	35.634443	0.000505	5.047178	0.855015	-0.020165
 714	3.5650e-01	5.7529	35.594112	0.000202	2.018871	0.342006	-0.008066
 715	3.5700e-01	5.7336	35.485218	0.000545	5.450952	0.923416	-0.021779
 716	3.5750e-01	5.7130	35.432788	0.000262	2.624533	0.444608	-0.010486
 717	3.5800e-01	5.6927	35.315828	0.000585	5.854727	0.991818	-0.023392
 718	3.5850e-01	5.6729	35.239199	0.000384	3.835855	0.649811	-0.015326
 719	3.5900e-01	5.6531	35.154504	0.000424	4.239630	0.718213	-0.016939
 720	3.5950e-01	5.6329	35.102074	0.000262	2.624533	0.444608	-0.010486
 721	3.6000e-01	5.6131	34.997213	0.000525	5.249065	0.889216	-0.020972
 722	3.6050e-01	5.5927	34.928650	0.000343	3.432081	0.581410	-0.013713
 723	3.6100e-01	5.5725	34.852022	0.000384	3.835855	0.649811	-0.015326
 724	3.6150e-01	5.5530	34.771360	0.000404	4.037743	0.684012	-0.016132
 725	3.6200e-01	5.5319	34.722962	0.000242	2.422646	0.410407	-0.009679
 726	3.6250e-01	5.5134	34.593903	0.000646	6.460388	1.094419	-0.025812
 727	3.6300e-01	5.4926	34.472910	0.000606	6.056614	1.026018	-0.024199
 728	3.6350e-01	5.4727	34.420480	0.000262	2.624533	0.444608	-0.010486
 729	3.6400e-01	5.4529	34.335785	0.000424	4.239630	0.718213	-0.016939
 730	3.6450e-01	5.4330	34.210759	0.000626	6.258501	1.060219	-0.025005
 731	3.6500e-01	5.4132	34.158329	0.000262	2.624533	0.444608	-0.010486
 732	3.6550e-01	5.3925	34.085733	0.000363	3.633968	0.615611	-0.014519
 733	3.6600e-01	5.3729	34.009104	0.000384	3.835855	0.649811	-0.015326
 734	3.6650e-01	5.3522	33.932475	0.000384	3.835855	0.649811	-0.015326
 735	3.6700e-01	5.3320	33.839714	0.000464	4.643404	0.786614	-0.018552
 736	3.6750e-01	5.3131	33.815515	0.000121	1.211323	0.205204	-0.004840
 737	3.6800e-01	5.2930	33.722754	0.000464	4.643404	0.786614	-0.018552
 738	3.6850e-01	5.2731	33.565463	0.000787	7.873598	1.333824	-0.031458
 739	3.6900e-01	5.2521	33.476735	0.000444	4.441517	0.752413	-0.017746
 740	3.6950e-01	5.2333	33.379941	0.000485	4.845291	0.820815	-0.019359
 741	3.7000e-01	5.2122	33.315411	0.000323	3.230194	0.547210	-0.012906
 742	3.7050e-01	5.1929	33.226683	0.000444	4.441517	0.752413	-0.017746
 743	3.7100e-01	5.1740	33.166186	0.000303	3.028307	0.513009	-0.012099
 744	3.7150e-01	5.1526	33.045193	0.000606	6.056614	1.026018	-0.024199
 745	3.7200e-01	5.1326	32.964531	0.000404	4.037743	0.684012	-0.016132
 746	3.7250e-01	5.1137	32.863704	0.000505	5.047178	0.855015	-0.020165
 747	3.7300e-01	5.0931	32.783042	0.000404	4.037743	0.684012	-0.016132
 748	3.7350e-01	5.0720	32.722546	0.000303	3.028307	0.513009	-0.012099
 749	3.7400e-01	5.0519	32.625751	0.000485	4.845291	0.820815	-0.019359
 750	3.7450e-01	5.0323	32.561222	0.000323	3.230194	0.547210	-0.012906
 751	3.7500e-01	5.0134	32.440229	0.000606	6.056614	1.026018	-0.024199
 752	3.7550e-01	4.9933	32.379732	0.000303	3.028307	0.513009	-0.012099
 753	3.7600e-01	4.9738	32.291004	0.000444	4.441517	0.752413	-0.017746
 754	3.7650e-01	4.9532	32.141779	0.000747	7.469824	1.265422	-0.029845
 755	3.7700e-01	4.9332	32.121614	0.000101	1.009436	0.171003	-0.004033
 756	3.7750e-01	4.9133	31.980455	0.000707	7.066049	1.197021	-0.028232
 757	3.7800e-01	4.8932	31.919959	0.000303	3.028307	0.513009	-0.012099
 758	3.7850e-01	4.8730	31.831231	0.000444	4.441517	0.752413	-0.017746
 759	3.7900e-01	4.8535	31.774767	0.000283	2.826420	0.478808	-0.011293
 760	3.7950e-01	4.8328	31.669907	0.000525	5.249065	0.889216	-0.020972
 761	3.8000e-01	4.8140	31.621510	0.000242	2.422646	0.410407	-0.009679
 762	3.8050e-01	4.7931	31.540848	0.000404	4.037743	0.684012	-0.016132
 763	3.8100e-01	4.7736	31.440020	0.000505	5.047178	0.855015	-0.020165
 764	3.8150e-01	4.7536	31.355325	0.000424	4.239630	0.718213	-0.016939
 765	3.8200e-01	4.7327	31.294829	0.000303	3.028307	0.513009	-0.012099
 766	3.8250e-01	4.7131	31.157703	0.000686	6.864162	1.162821	-0.027425
 767	3.8300e-01	4.6927	31.077041	0.000404	4.037743	0.684012	-0.016132
 768	3.8350e-01	4.6722	30.935883	0.000707	7.066049	1.197021	-0.028232
 769	3.8400e-01	4.6529	30.826989	0.000545	5.450952	0.923416	-0.021779
 770	3.8450e-01	4.6326	30.814890	0.000061	0.605661	0.102602	-0.002420
 771	3.8500e-01	4.6130	30.697930	0.000585	5.854727	0.991818	-0.023392
 772	3.8550e-01	4.5932	30.601136	0.000485	4.845291	0.820815	-0.019359
 773	3.8600e-01	4.5728	30.548705	0.000262	2.624533	0.444608	-0.010486
 774	3.8650e-01	4.5520	30.399481	0.000747	7.469824	1.265422	-0.029845
 775	3.8700e-01	4.5331	30.411580	-0.000061	-0.605661	-0.102602	0.002420
 776	3.8750e-01	4.5131	30.302686	0.000545	5.450952	0.923416	-0.021779
 777	3.8800e-01	4.4925	30.238157	0.000323	3.230194	0.547210	-0.012906
 778	3.8850e-01	4.4704	30.012303	0.001131	11.305679	1.915234	-0.045171
 779	3.8900e-01	4.4531	30.012303	-0.000000	-0.000000	-0.000000	0.000000
 780	3.8950e-01	4.4330	29.935674	0.000384	3.835855	0.649811	-0.015326
 781	3.9000e-01	4.4116	29.830814	0.000525	5.249065	0.889216	-0.020972
 782	3.9050e-01	4.3924	29.742086	0.000444	4.441517	0.752413	-0.017746
 783	3.9100e-01	4.3726	29.653357	0.000444	4.441517	0.752413	-0.017746
 784	3.9150e-01	4.3527	29.572696	0.000404	4.037743	0.684012	-0.016132
 785	3.9200e-01	4.3311	29.479934	0.000464	4.643404	0.786614	-0.018552
 786	3.9250e-01	4.3127	29.362974	0.000585	5.854727	0.991818	-0.023392
 787	3.9300e-01	4.2929	29.278279	0.000424	4.239630	0.718213	-0.016939
 788	3.9350e-01	4.2731	29.209717	0.000343	3.432081	0.581410	-0.013713
 789	3.9400e-01	4.2532	29.108889	0.000505	5.047178	0.855015	-0.020165
 790	3.9450e-01	4.2329	29.028227	0.000404	4.037743	0.684012	-0.016132
 791	3.9500e-01	4.2130	28.931433	0.000485	4.845291	0.820815	-0.019359
 792	3.9550e-01	4.1925	28.842705	0.000444	4.441517	0.752413	-0.017746
 793	3.9600e-01	4.1725	28.729778	0.000565	5.652840	0.957617	-0.022585
 794	3.9650e-01	4.1528	28.620884	0.000545	5.450952	0.923416	-0.021779
 795	3.9700e-01	4.1325	28.491825	0.000646	6.460388	1.094419	-0.025812
 796	3.9750e-01	4.1119	28.479726	0.000061	0.605661	0.102602	-0.002420
 797	3.9800e-01	4.0921	28.370832	0.000545	5.450952	0.923416	-0.021779
 798	3.9850e-01	4.0723	28.270005	0.000505	5.047178	0.855015	-0.020165
 799	3.9900e-01	4.0527	28.169177	0.000505	5.047178	0.855015	-0.020165
 800	3.9950e-01	4.0326	28.060284	0.000545	5.450952	0.923416	-0.021779
 801	4.0000e-01	4.0134	27.995754	0.000323	3.230194	0.547210	-0.012906
 802	4.0050e-01	3.9925	27.907026	0.000444	4.441517	0.752413	-0.017746
 803	4.0100e-01	3.9728	27.753768	0.000767	7.671711	1.299623	-0.030652
 804	4.0150e-01	3.9532	27.697305	0.000283	2.826420	0.478808	-0.011293
 805	4.0200e-01	3.9331	27.600510	0.000485	4.845291	0.820815	-0.019359
 806	4.0250e-01	3.9120	27.544047	0.000283	2.826420	0.478808	-0.011293
 807	4.0300e-01	3.8928	27.443219	0.000505	5.047178	0.855015	-0.020165
 808	4.0350e-01	3.8715	27.342392	0.000505	5.047178	0.855015	-0.020165
 809	4.0400e-01	3.8519	27.253664	0.000444	4.441517	0.752413	-0.017746
 810	4.0450e-01	3.8319	27.152836	0.000505	5.047178	0.855015	-0.020165
 811	4.0500e-01	3.8126	27.052009	0.000505	5.047178	0.855015	-0.020165
 812	4.0550e-01	3.7921	27.011678	0.000202	2.018871	0.342006	-0.008066
 813	4.0600e-01	3.7729	26.922950	0.000444	4.441517	0.752413	-0.017746
 814	4.0650e-01	3.7521	26.769692	0.000767	7.671711	1.299623	-0.030652
 815	4.0700e-01	3.7331	26.676931	0.000464	4.643404	0.786614	-0.018552
 816	4.0750e-01	3.7128	26.588203	0.000444	4.441517	0.752413	-0.017746
 817	4.0800e-01	3.6935	26.455110	0.000666	6.662275	1.128620	-0.026618
 818	4.0850e-01	3.6722	26.402680	0.000262	2.624533	0.444608	-0.010486
 819	4.0900e-01	3.6530	26.334117	0.000343	3.432081	0.581410	-0.013713
 820	4.0950e-01	3.6324	26.213124	0.000606	6.056614	1.026018	-0.024199
 821	4.1000e-01	3.6133	26.108264	0.000525	5.249065	0.889216	-0.020972
 822	4.1050e-01	3.5930	25.975172	0.000666	6.662275	1.128620	-0.026618
 823	4.1100e-01	3.5719	25.959039	0.000081	0.807549	0.136802	-0.003226
 824	4.1150e-01	3.5529	25.829980	0.000646	6.460388	1.094419	-0.025812
 825	4.1200e-01	3.5327	25.773517	0.000283	2.826420	0.478808	-0.011293
 826	4.1250e-01	3.5120	25.600093	0.000868	8.681146	1.470626	-0.034685
 827	4.1300e-01	3.4937	25.592027	0.000040	0.403774	0.068401	-0.001613
 828	4.1350e-01	3.4724	25.442803	0.000747	7.469824	1.265422	-0.029845
 829	4.1400e-01	3.4528	25.313743	0.000646	6.460388	1.094419	-0.025812
 830	4.1450e-01	3.4325	25.289545	0.000121	1.211323	0.205204	-0.004840
 831	4.1500e-01	3.4131	25.184684	0.000525	5.249065	0.889216	-0.020972
 832	4.1550e-01	3.3923	25.095956	0.000444	4.441517	0.752413	-0.017746
 833	4.1600e-01	3.3728	25.007228	0.000444	4.441517	0.752413	-0.017746
 834	4.1650e-01	3.3534	24.898334	0.000545	5.450952	0.923416	-0.021779
 835	4.1700e-01	3.3325	24.785407	0.000565	5.652840	0.957617	-0.022585
 836	4.1750e-01	3.3133	24.704745	0.000404	4.037743	0.684012	-0.016132
 837	4.1800e-01	3.2932	24.571653	0.000666	6.662275	1.128620	-0.026618
 838	4.1850e-01	3.2722	24.474859	0.000485	4.845291	0.820815	-0.019359
 839	4.1900e-01	3.2535	24.378065	0.000485	4.845291	0.820815	-0.019359
 840	4.1950e-01	3.2336	24.261105	0.000585	5.854727	0.991818	-0.023392
 841	4.2000e-01	3.2126	24.176410	0.000424	4.239630	0.718213	-0.016939
 842	4.2050e-01	3.1931	24.099781	0.000384	3.835855	0.649811	-0.015326
 843	4.2100e-01	3.1729	23.950556	0.000747	7.469824	1.265422	-0.029845
 844	4.2150e-01	3.1522	23.890060	0.000303	3.028307	0.513009	-0.012099
 845	4.2200e-01	3.1334	23.825530	0.000323	3.230194	0.547210	-0.012906
 846	4.2250e-01	3.1125	23.668239	0.000787	7.873598	1.333824	-0.031458
 847	4.2300e-01	3.0933	23.676305	-0.000040	-0.403774	-0.068401	0.001613
 848	4.2350e-01	3.0727	23.514981	0.000808	8.075485	1.368024	-0.032265
 849	4.2400e-01	3.0536	23.426253	0.000444	4.441517	0.752413	-0.017746
 850	4.2450e-01	3.0322	23.325426	0.000505	5.047178	0.855015	-0.020165
 851	4.2500e-01	3.0127	23.248797	0.000384	3.835855	0.649811	-0.015326
 852	4.2550e-01	2.9920	23.164102	0.000424	4.239630	0.718213	-0.016939
 853	4.2600e-01	2.9730	23.022943	0.000707	7.066049	1.197021	-0.028232
 854	4.2650e-01	2.9523	22.905984	0.000585	5.854727	0.991818	-0.023392
 855	4.2700e-01	2.9321	22.861619	0.000222	2.220758	0.376207	-0.008873
 856	4.2750e-01	2.9132	22.764825	0.000485	4.845291	0.820815	-0.019359
 857	4.2800e-01	2.8925	22.623667	0.000707	7.066049	1.197021	-0.028232
 858	4.2850e-01	2.8725	22.563170	0.000303	3.028307	0.513009	-0.012099
 859	4.2900e-01	2.8520	22.466376	0.000485	4.845291	0.820815	-0.019359
 860	4.2950e-01	2.8325	22.393780	0.000363	3.633968	0.615611	-0.014519
 861	4.3000e-01	2.8120	22.252622	0.000707	7.066049	1.197021	-0.028232
 862	4.3050e-01	2.7922	22.171960	0.000404	4.037743	0.684012	-0.016132
 863	4.3100e-01	2.7728	22.079198	0.000464	4.643404	0.786614	-0.018552
 864	4.3150e-01	2.7527	21.958205	0.000606	6.056614	1.026018	-0.024199
 865	4.3200e-01	2.7325	21.817047	0.000707	7.066049	1.197021	-0.028232
 866	4.3250e-01	2.7126	21.756550	0.000303	3.028307	0.513009	-0.012099
 867	4.3300e-01	2.6921	21.591193	0.000828	8.277372	1.402225	-0.033071
 868	4.3350e-01	2.6721	21.502465	0.000444	4.441517	0.752413	-0.017746
 869	4.3400e-01	2.6524	21.433903	0.000343	3.432081	0.581410	-0.013713
 870	4.3450e-01	2.6321	21.312910	0.000606	6.056614	1.026018	-0.024199
 871	4.3500e-01	2.6131	21.224181	0.000444	4.441517	0.752413	-0.017746
 872	4.3550e-01	2.5935	21.119321	0.000525	5.249065	0.889216	-0.020972
 873	4.3600e-01	2.5720	21.014460	0.000525	5.249065	0.889216	-0.020972
 874	4.3650e-01	2.5514	20.937831	0.000384	3.835855	0.649811	-0.015326
 875	4.3700e-01	2.5311	20.792640	0.000727	7.267937	1.231222	-0.029038
 876	4.3750e-01	2.5120	20.711978	0.000404	4.037743	0.684012	-0.016132
 877	4.3800e-01	2.4924	20.611150	0.000505	5.047178	0.855015	-0.020165
 878	4.3850e-01	2.4726	20.482091	0.000646	6.460388	1.094419	-0.025812
 879	4.3900e-01	2.4530	20.389330	0.000464	4.643404	0.786614	-0.018552
 880	4.3950e-01	2.4326	20.304635	0.000424	4.239630	0.718213	-0.016939
 881	4.4000e-01	2.4130	20.240105	0.000323	3.230194	0.547210	-0.012906
 882	4.4050e-01	2.3926	20.046517	0.000969	9.690582	1.641629	-0.038718
 883	4.4100e-01	2.3724	20.018285	0.000141	1.413210	0.239404	-0.005646
 884	4.4150e-01	2.3529	19.925524	0.000464	4.643404	0.786614	-0.018552
 885	4.4200e-01	2.3326	19.820663	0.000525	5.249065	0.889216	-0.020972
 886	4.4250e-01	2.3123	19.671438	0.000747	7.469824	1.265422	-0.029845
 887	4.4300e-01	2.2925	19.546412	0.000626	6.258501	1.060219	-0.025005
 888	4.4350e-01	2.2723	19.453651	0.000464	4.643404	0.786614	-0.018552
 889	4.4400e-01	2.2522	19.393155	0.000303	3.028307	0.513009	-0.012099
 890	4.4450e-01	2.2321	19.284261	0.000545	5.450952	0.923416	-0.021779
 891	4.4500e-01	2.2122	19.223764	0.000303	3.028307	0.513009	-0.012099
 892	4.4550e-01	2.1924	19.078573	0.000727	7.267937	1.231222	-0.029038
 893	4.4600e-01	2.1716	18.949514	0.000646	6.460388	1.094419	-0.025812
 894	4.4650e-01	2.1515	18.868852	0.000404	4.037743	0.684012	-0.016132
 895	4.4700e-01	2.1333	18.747859	0.000606	6.056614	1.026018	-0.024199
 896	4.4750e-01	2.1115	18.663164	0.000424	4.239630	0.718213	-0.016939
 897	4.4800e-01	2.0923	18.546204	0.000585	5.854727	0.991818	-0.023392
 898	4.4850e-01	2.0729	18.453443	0.000464	4.643404	0.786614	-0.018552
 899	4.4900e-01	2.0514	18.360681	0.000464	4.643404	0.786614	-0.018552
 900	4.4950e-01	2.0320	18.251788	0.000545	5.450952	0.923416	-0.021779
 901	4.5000e-01	2.0118	18.171126	0.000404	4.037743	0.684012	-0.016132
 902	4.5050e-01	1.9923	18.102563	0.000343	3.432081	0.581410	-0.013713
 903	4.5100e-01	1.9724	17.973504	0.000646	6.460388	1.094419	-0.025812
 904	4.5150e-01	1.9519	17.860577	0.000565	5.652840	0.957617	-0.022585
 905	4.5200e-01	1.9331	17.755717	0.000525	5.249065	0.889216	-0.020972
 906	4.5250e-01	1.9122	17.622624	0.000666	6.662275	1.128620	-0.026618
 907	4.5300e-01	1.8919	17.550029	0.000363	3.633968	0.615611	-0.014519
 908	4.5350e-01	1.8719	17.420969	0.000646	6.460388	1.094419	-0.025812
 909	4.5400e-01	1.8526	17.299976	0.000606	6.056614	1.026018	-0.024199
 910	4.5450e-01	1.8322	17.191083	0.000545	5.450952	0.923416	-0.021779
 911	4.5500e-01	1.8111	17.130586	0.000303	3.028307	0.513009	-0.012099
 912	4.5550e-01	1.7923	16.973295	0.000787	7.873598	1.333824	-0.031458
 913	4.5600e-01	1.7715	16.924898	0.000242	2.422646	0.410407	-0.009679
 914	4.5650e-01	1.7520	16.828104	0.000485	4.845291	0.820815	-0.019359
 915	4.5700e-01	1.7325	16.699045	0.000646	6.460388	1.094419	-0.025812
 916	4.5750e-01	1.7123	16.590151	0.000545	5.450952	0.923416	-0.021779
 917	4.5800e-01	1.6923	16.505456	0.000424	4.239630	0.718213	-0.016939
 918	4.5850e-01	1.6715	16.360264	0.000727	7.267937	1.231222	-0.029038
 919	4.5900e-01	1.6518	16.283636	0.000384	3.835855	0.649811	-0.015326
 920	4.5950e-01	1.6327	16.194907	0.000444	4.441517	0.752413	-0.017746
 921	4.6000e-01	1.6125	16.069881	0.000626	6.258501	1.060219	-0.025005
 922	4.6050e-01	1.5924	15.981153	0.000444	4.441517	0.752413	-0.017746
 923	4.6100e-01	1.5720	15.884359	0.000485	4.845291	0.820815	-0.019359
 924	4.6150e-01	1.5511	15.710936	0.000868	8.681146	1.470626	-0.034685
 925	4.6200e-01	1.5314	15.626241	0.000424	4.239630	0.718213	-0.016939
 926	4.6250e-01	1.5125	15.573810	0.000262	2.624533	0.444608	-0.010486
 927	4.6300e-01	1.4915	15.436685	0.000686	6.864162	1.162821	-0.027425
 928	4.6350e-01	1.4722	15.287460	0.000747	7.469824	1.265422	-0.029845
 929	4.6400e-01	1.4518	15.186633	0.000505	5.047178	0.855015	-0.020165
 930	4.6450e-01	1.4323	15.077739	0.000545	5.450952	0.923416	-0.021779
 931	4.6500e-01	1.4114	15.009176	0.000343	3.432081	0.581410	-0.013713
 932	4.6550e-01	1.3924	14.904316	0.000525	5.249065	0.889216	-0.020972
 933	4.6600e-01	1.3715	14.827687	0.000384	3.835855	0.649811	-0.015326
 934	4.6650e-01	1.3512	14.714760	0.000565	5.652840	0.957617	-0.022585
 935	4.6700e-01	1.3319	14.609900	0.000525	5.249065	0.889216	-0.020972
 936	4.6750e-01	1.3123	14.468741	0.000707	7.066049	1.197021	-0.028232
 937	4.6800e-01	1.2918	14.371947	0.000485	4.845291	0.820815	-0.019359
 938	4.6850e-01	1.2708	14.234822	0.000686	6.864162	1.162821	-0.027425
 939	4.6900e-01	1.2518	14.142060	0.000464	4.643404	0.786614	-0.018552
 940	4.6950e-01	1.2320	14.057365	0.000424	4.239630	0.718213	-0.016939
 941	4.7000e-01	1.2125	14.004935	0.000262	2.624533	0.444608	-0.010486
 942	4.7050e-01	1.1927	13.847644	0.000787	7.873598	1.333824	-0.031458
 943	4.7100e-01	1.1731	13.754883	0.000464	4.643404	0.786614	-0.018552
 944	4.7150e-01	1.1525	13.690353	0.000323	3.230194	0.547210	-0.012906
 945	4.7200e-01	1.1328	13.500798	0.000949	9.488695	1.607428	-0.037911
 946	4.7250e-01	1.1124	13.416103	0.000424	4.239630	0.718213	-0.016939
 947	4.7300e-01	1.0925	13.287043	0.000646	6.460388	1.094419	-0.025812
 948	4.7350e-01	1.0722	13.182183	0.000525	5.249065	0.889216	-0.020972
 949	4.7400e-01	1.0529	13.073289	0.000545	5.450952	0.923416	-0.021779
 950	4.7450e-01	1.0313	12.964395	0.000545	5.450952	0.923416	-0.021779
 951	4.7500e-01	1.0125	12.843402	0.000606	6.056614	1.026018	-0.024199
 952	4.7550e-01	0.9926	12.750641	0.000464	4.643404	0.786614	-0.018552
 953	4.7600e-01	0.9729	12.641748	0.000545	5.450952	0.923416	-0.021779
 954	4.7650e-01	0.9518	12.553019	0.000444	4.441517	0.752413	-0.017746
 955	4.7700e-01	0.9338	12.448159	0.000525	5.249065	0.889216	-0.020972
 956	4.7750e-01	0.9119	12.302967	0.000727	7.267937	1.231222	-0.029038
 957	4.7800e-01	0.8922	12.181974	0.000606	6.056614	1.026018	-0.024199
 958	4.7850e-01	0.8723	12.089213	0.000464	4.643404	0.786614	-0.018552
 959	4.7900e-01	0.8524	12.028717	0.000303	3.028307	0.513009	-0.012099
 960	4.7950e-01	0.8336	11.863360	0.000828	8.277372	1.402225	-0.033071
 961	4.8000e-01	0.8117	11.738333	0.000626	6.258501	1.060219	-0.025005
 962	4.8050e-01	0.7916	11.669771	0.000343	3.432081	0.581410	-0.013713
 963	4.8100e-01	0.7718	11.532645	0.000686	6.864162	1.162821	-0.027425
 964	4.8150e-01	0.7520	11.500381	0.000162	1.615097	0.273605	-0.006453
 965	4.8200e-01	0.7298	11.419719	0.000404	4.037743	0.684012	-0.016132
 966	4.8250e-01	0.7110	11.209998	0.001050	10.498131	1.778431	-0.041944
 967	4.8300e-01	0.6917	11.149501	0.000303	3.028307	0.513009	-0.012099
 968	4.8350e-01	0.6719	11.004310	0.000727	7.267937	1.231222	-0.029038
 969	4.8400e-01	0.6529	10.863151	0.000707	7.066049	1.197021	-0.028232
 970	4.8450e-01	0.6313	10.822820	0.000202	2.018871	0.342006	-0.008066
 971	4.8500e-01	0.6126	10.653430	0.000848	8.479259	1.436425	-0.033878
 972	4.8550e-01	0.5921	10.568735	0.000424	4.239630	0.718213	-0.016939
 973	4.8600e-01	0.5729	10.480007	0.000444	4.441517	0.752413	-0.017746
 974	4.8650e-01	0.5528	10.367080	0.000565	5.652840	0.957617	-0.022585
 975	4.8700e-01	0.5328	10.233988	0.000666	6.662275	1.128620	-0.026618
 976	4.8750e-01	0.5127	10.121061	0.000565	5.652840	0.957617	-0.022585
 977	4.8800e-01	0.4929	10.016200	0.000525	5.249065	0.889216	-0.020972
 978	4.8850e-01	0.4715	9.899241	0.000585	5.854727	0.991818	-0.023392
 979	4.8900e-01	0.4523	9.846810	0.000262	2.624533	0.444608	-0.010486
 980	4.8950e-01	0.4317	9.721784	0.000626	6.258501	1.060219	-0.025005
 981	4.9000e-01	0.4121	9.572560	0.000747	7.469824	1.265422	-0.029845
 982	4.9050e-01	0.3915	9.463666	0.000545	5.450952	0.923416	-0.021779
 983	4.9100e-01	0.3720	9.387037	0.000384	3.835855	0.649811	-0.015326
 984	4.9150e-01	0.3530	9.221680	0.000828	8.277372	1.402225	-0.033071
 985	4.9200e-01	0.3317	9.153117	0.000343	3.432081	0.581410	-0.013713
 986	4.9250e-01	0.3117	9.015992	0.000686	6.864162	1.162821	-0.027425
 987	4.9300e-01	0.2930	8.935330	0.000404	4.037743	0.684012	-0.016132
 988	4.9350e-01	0.2716	8.778039	0.000787	7.873598	1.333824	-0.031458
 989	4.9400e-01	0.2518	8.778039	-0.000000	-0.000000	-0.000000	0.000000
 990	4.9450e-01	0.2318	8.576384	0.001009	10.094356	1.710030	-0.040331
 991	4.9500e-01	0.2127	8.467491	0.000545	5.450952	0.923416	-0.021779
 992	4.9550e-01	0.1918	8.358597	0.000545	5.450952	0.923416	-0.021779
 993	4.9600e-01	0.1723	8.294067	0.000323	3.230194	0.547210	-0.012906
 994	4.9650e-01	0.1518	8.148876	0.000727	7.267937	1.231222	-0.029038
 995	4.9700e-01	0.1319	8.060148	0.000444	4.441517	0.752413	-0.017746
 996	4.9750e-01	0.1113	7.939155	0.000606	6.056614	1.026018	-0.024199
 997	4.9800e-01	0.0926	7.806062	0.000666	6.662275	1.128620	-0.026618
 998	4.9850e-01	0.0723	7.701202	0.000525	5.249065	0.889216	-0.020972
 999	4.9900e-01	0.0513	7.551977	0.000747	7.469824	1.265422	-0.029845
1000	4.9950e-01	0.0320	7.467282	0.000424	4.239630	0.718213	-0.016939
1001	5.0000e-01	0.0126	7.386620	0.000404	4.037743	0.684012	-0.016132
1002	5.0050e-01	-0.0085	7.289826	0.000485	4.845291	0.820815	-0.019359
1003	5.0100e-01	-0.0274	7.148667	0.000707	7.066049	1.197021	-0.028232
1004	5.0150e-01	-0.0469	7.023641	0.000626	6.258501	1.060219	-0.025005
1005	5.0200e-01	-0.0671	6.906681	0.000585	5.854727	0.991818	-0.023392
1006	5.0250e-01	-0.0858	6.805854	0.000505	5.047178	0.855015	-0.020165
1007	5.0300e-01	-0.1060	6.684861	0.000606	6.056614	1.026018	-0.024199
1008	5.0350e-01	-0.1261	6.580000	0.000525	5.249065	0.889216	-0.020972
1009	5.0400e-01	-0.1463	6.479173	0.000505	5.047178	0.855015	-0.020165
1010	5.0450e-01	-0.1670	6.350114	0.000646	6.460388	1.094419	-0.025812
1011	5.0500e-01	-0.1864	6.245253	0.000525	5.249065	0.889216	-0.020972
1012	5.0550e-01	-0.2072	6.172657	0.000363	3.633968	0.615611	-0.014519
1013	5.0600e-01	-0.2263	6.087962	0.000424	4.239630	0.718213	-0.016939
1014	5.0650e-01	-0.2467	5.946804	0.000707	7.066049	1.197021	-0.028232
1015	5.0700e-01	-0.2670	5.833877	0.000565	5.652840	0.957617	-0.022585
1016	5.0750e-01	-0.2876	5.696752	0.000686	6.864162	1.162821	-0.027425
1017	5.0800e-01	-0.3052	5.575759	0.000606	6.056614	1.026018	-0.024199
1018	5.0850e-01	-0.3263	5.470898	0.000525	5.249065	0.889216	-0.020972
1019	5.0900e-01	-0.3465	5.349905	0.000606	6.056614	1.026018	-0.024199
1020	5.0950e-01	-0.3671	5.224879	0.000626	6.258501	1.060219	-0.025005
1021	5.1000e-01	-0.3857	5.095820	0.000646	6.460388	1.094419	-0.025812
1022	5.1050e-01	-0.4069	4.986926	0.000545	5.450952	0.923416	-0.021779
1023	5.1100e-01	-0.4269	4.906264	0.000404	4.037743	0.684012	-0.016132
1024	5.1150e-01	-0.4469	4.813503	0.000464	4.643404	0.786614	-0.018552
1025	5.1200e-01	-0.4667	4.688477	0.000626	6.258501	1.060219	-0.025005
1026	5.1250e-01	-0.4865	4.555385	0.000666	6.662275	1.128620	-0.026618
1027	5.1300e-01	-0.5061	4.470690	0.000424	4.239630	0.718213	-0.016939
1028	5.1350e-01	-0.5264	4.369862	0.000505	5.047178	0.855015	-0.020165
1029	5.1400e-01	-0.5460	4.240803	0.000646	6.460388	1.094419	-0.025812
1030	5.1450e-01	-0.5679	4.180307	0.000303	3.028307	0.513009	-0.012099
1031	5.1500e-01	-0.5863	3.978652	0.001009	10.094356	1.710030	-0.040331
1032	5.1550e-01	-0.6065	3.853626	0.000626	6.258501	1.060219	-0.025005
1033	5.1600e-01	-0.6270	3.732633	0.000606	6.056614	1.026018	-0.024199
1034	5.1650e-01	-0.6476	3.627772	0.000525	5.249065	0.889216	-0.020972
1035	5.1700e-01	-0.6667	3.555176	0.000363	3.633968	0.615611	-0.014519
1036	5.1750e-01	-0.6864	3.462415	0.000464	4.643404	0.786614	-0.018552
1037	5.1800e-01	-0.7066	3.321257	0.000707	7.066049	1.197021	-0.028232
1038	5.1850e-01	-0.7268	3.216396	0.000525	5.249065	0.889216	-0.020972
1039	5.1900e-01	-0.7471	3.107502	0.000545	5.450952	0.923416	-0.021779
1040	5.1950e-01	-0.7665	3.002642	0.000525	5.249065	0.889216	-0.020972
1041	5.2000e-01	-0.7871	2.885682	0.000585	5.854727	0.991818	-0.023392
1042	5.2050e-01	-0.8070	2.809053	0.000384	3.835855	0.649811	-0.015326
1043	5.2100e-01	-0.8269	2.671928	0.000686	6.864162	1.162821	-0.027425
1044	5.2150e-01	-0.8469	2.567067	0.000525	5.249065	0.889216	-0.020972
1045	5.2200e-01	-0.8666	2.478339	0.000444	4.441517	0.752413	-0.017746
1046	5.2250e-01	-0.8872	2.325081	0.000767	7.671711	1.299623	-0.030652
1047	5.2300e-01	-0.9074	2.127460	0.000989	9.892469	1.675830	-0.039524
1048	5.2350e-01	-0.9275	2.095195	0.000162	1.615097	0.273605	-0.006453
1049	5.2400e-01	-0.9470	1.945970	0.000747	7.469824	1.265422	-0.029845
1050	5.2450e-01	-0.9669	1.881440	0.000323	3.230194	0.547210	-0.012906
1051	5.2500e-01	-0.9870	1.780613	0.000505	5.047178	0.855015	-0.020165
1052	5.2550e-01	-1.0073	1.687852	0.000464	4.643404	0.786614	-0.018552
1053	5.2600e-01	-1.0271	1.522495	0.000828	8.277372	1.402225	-0.033071
1054	5.2650e-01	-1.0462	1.421667	0.000505	5.047178	0.855015	-0.020165
1055	5.2700e-01	-1.0675	1.328906	0.000464	4.643404	0.786614	-0.018552
1056	5.2750e-01	-1.0876	1.155483	0.000868	8.681146	1.470626	-0.034685
1057	5.2800e-01	-1.1073	1.014324	0.000707	7.066049	1.197021	-0.028232
1058	5.2850e-01	-1.1266	0.933662	0.000404	4.037743	0.684012	-0.016132
1059	5.2900e-01	-1.1477	0.824769	0.000545	5.450952	0.923416	-0.021779
1060	5.2950e-01	-1.1675	0.683610	0.000707	7.066049	1.197021	-0.028232
1061	5.3000e-01	-1.1876	0.598915	0.000424	4.239630	0.718213	-0.016939
1062	5.3050e-01	-1.2074	0.506154	0.000464	4.643404	0.786614	-0.018552
1063	5.3100e-01	-1.2276	0.437591	0.000343	3.432081	0.581410	-0.013713
1064	5.3150e-01	-1.2475	0.288367	0.000747	7.469824	1.265422	-0.029845
1065	5.3200e-01	-1.2675	0.171407	0.000585	5.854727	0.991818	-0.023392
1066	5.3250e-01	-1.2872	0.046381	0.000626	6.258501	1.060219	-0.025005
1067	5.3300e-01	-1.3067	-0.046381	0.000464	4.643404	0.786614	-0.018552
1068	5.3350e-01	-1.3273	-0.219804	0.000868	8.681146	1.470626	-0.034685
1069	5.3400e-01	-1.3476	-0.284333	0.000323	3.230194	0.547210	-0.012906
1070	5.3450e-01	-1.3660	-0.413393	0.000646	6.460388	1.094419	-0.025812
1071	5.3500e-01	-1.3862	-0.534386	0.000606	6.056614	1.026018	-0.024199
1072	5.3550e-01	-1.4069	-0.659412	0.000626	6.258501	1.060219	-0.025005
1073	5.3600e-01	-1.4268	-0.711842	0.000262	2.624533	0.444608	-0.010486
1074	5.3650e-01	-1.4462	-0.861067	0.000747	7.469824	1.265422	-0.029845
1075	5.3700e-01	-1.4674	-0.969960	0.000545	5.450952	0.923416	-0.021779
1076	5.3750e-01	-1.4863	-1.062721	0.000464	4.643404	0.786614	-0.018552
1077	5.3800e-01	-1.5064	-1.167582	0.000525	5.249065	0.889216	-0.020972
1078	5.3850e-01	-1.5266	-1.332939	0.000828	8.277372	1.402225	-0.033071
1079	5.3900e-01	-1.5477	-1.385369	0.000262	2.624533	0.444608	-0.010486
1080	5.3950e-01	-1.5676	-1.546693	0.000808	8.075485	1.368024	-0.032265
1081	5.4000e-01	-1.5870	-1.655587	0.000545	5.450952	0.923416	-0.021779
1082	5.4050e-01	-1.6065	-1.699951	0.000222	2.220758	0.376207	-0.008873
1083	5.4100e-01	-1.6270	-1.889507	0.000949	9.488695	1.607428	-0.037911
1084	5.4150e-01	-1.6471	-2.006467	0.000585	5.854727	0.991818	-0.023392
1085	5.4200e-01	-1.6669	-2.163757	0.000787	7.873598	1.333824	-0.031458
1086	5.4250e-01	-1.6870	-2.268618	0.000525	5.249065	0.889216	-0.020972
1087	5.4300e-01	-1.7075	-2.353313	0.000424	4.239630	0.718213	-0.016939
1088	5.4350e-01	-1.7280	-2.494471	0.000707	7.066049	1.197021	-0.028232
1089	5.4400e-01	-1.7481	-2.603365	0.000545	5.450952	0.923416	-0.021779
1090	5.4450e-01	-1.7670	-2.619498	0.000081	0.807549	0.136802	-0.003226
1091	5.4500e-01	-1.7869	-2.768722	0.000747	7.469824	1.265422	-0.029845
1092	5.4550e-01	-1.8072	-2.901814	0.000666	6.662275	1.128620	-0.026618
1093	5.4600e-01	-1.8279	-3.030874	0.000646	6.460388	1.094419	-0.025812
1094	5.4650e-01	-1.8479	-3.172032	0.000707	7.066049	1.197021	-0.028232
1095	5.4700e-01	-1.8679	-3.272860	0.000505	5.047178	0.855015	-0.020165
1096	5.4750e-01	-1.8870	-3.369654	0.000485	4.845291	0.820815	-0.019359
1097	5.4800e-01	-1.9074	-3.494680	0.000626	6.258501	1.060219	-0.025005
1098	5.4850e-01	-1.9273	-3.623739	0.000646	6.460388	1.094419	-0.025812
1099	5.4900e-01	-1.9474	-3.740699	0.000585	5.854727	0.991818	-0.023392
1100	5.4950e-01	-1.9671	-3.845560	0.000525	5.249065	0.889216	-0.020972
1101	5.5000e-01	-1.9868	-3.994784	0.000747	7.469824	1.265422	-0.029845
1102	5.5050e-01	-2.0081	-4.087545	0.000464	4.643404	0.786614	-0.018552
1103	5.5100e-01	-2.0266	-4.160141	0.000363	3.633968	0.615611	-0.014519
1104	5.5150e-01	-2.0479	-4.265002	0.000525	5.249065	0.889216	-0.020972
1105	5.5200e-01	-2.0670	-4.365829	0.000505	5.047178	0.855015	-0.020165
1106	5.5250e-01	-2.0878	-4.498921	0.000666	6.662275	1.128620	-0.026618
1107	5.5300e-01	-2.1078	-4.640080	0.000707	7.066049	1.197021	-0.028232
1108	5.5350e-01	-2.1265	-4.744941	0.000525	5.249065	0.889216	-0.020972
1109	5.5400e-01	-2.1475	-4.861900	0.000585	5.854727	0.991818	-0.023392
1110	5.5450e-01	-2.1675	-4.970794	0.000545	5.450952	0.923416	-0.021779
1111	5.5500e-01	-2.1876	-5.063555	0.000464	4.643404	0.786614	-0.018552
1112	5.5550e-01	-2.2070	-5.184548	0.000606	6.056614	1.026018	-0.024199
1113	5.5600e-01	-2.2266	-5.309574	0.000626	6.258501	1.060219	-0.025005
1114	5.5650e-01	-2.2474	-5.442667	0.000666	6.662275	1.128620	-0.026618
1115	5.5700e-01	-2.2677	-5.531395	0.000444	4.441517	0.752413	-0.017746
1116	5.5750e-01	-2.2869	-5.676586	0.000727	7.267937	1.231222	-0.029038
1117	5.5800e-01	-2.3074	-5.757248	0.000404	4.037743	0.684012	-0.016132
1118	5.5850e-01	-2.3273	-5.890341	0.000666	6.662275	1.128620	-0.026618
1119	5.5900e-01	-2.3478	-6.079896	0.000949	9.488695	1.607428	-0.037911
1120	5.5950e-01	-2.3682	-6.168624	0.000444	4.441517	0.752413	-0.017746
1121	5.6000e-01	-2.3869	-6.212988	0.000222	2.220758	0.376207	-0.008873
1122	5.6050e-01	-2.4079	-6.293650	0.000404	4.037743	0.684012	-0.016132
1123	5.6100e-01	-2.4262	-6.438842	0.000727	7.267937	1.231222	-0.029038
1124	5.6150e-01	-2.4473	-6.559835	0.000606	6.056614	1.026018	-0.024199
1125	5.6200e-01	-2.4677	-6.717126	0.000787	7.873598	1.333824	-0.031458
1126	5.6250e-01	-2.4870	-6.753424	0.000182	1.816984	0.307805	-0.007260
1127	5.6300e-01	-2.5071	-6.894582	0.000707	7.066049	1.197021	-0.028232
1128	5.6350e-01	-2.5285	-6.979277	0.000424	4.239630	0.718213	-0.016939
1129	5.6400e-01	-2.5474	-7.088171	0.000545	5.450952	0.923416	-0.021779
1130	5.6450e-01	-2.5669	-7.209164	0.000606	6.056614	1.026018	-0.024199
1131	5.6500e-01	-2.5874	-7.366455	0.000787	7.873598	1.333824	-0.031458
1132	5.6550e-01	-2.6072	-7.503580	0.000686	6.864162	1.162821	-0.027425
1133	5.6600e-01	-2.6278	-7.572143	0.000343	3.432081	0.581410	-0.013713
1134	5.6650e-01	-2.6472	-7.705235	0.000666	6.662275	1.128620	-0.026618
1135	5.6700e-01	-2.6671	-7.797996	0.000464	4.643404	0.786614	-0.018552
1136	5.6750e-01	-2.6882	-7.927055	0.000646	6.460388	1.094419	-0.025812
1137	5.6800e-01	-2.7070	-8.035949	0.000545	5.450952	0.923416	-0.021779
1138	5.6850e-01	-2.7268	-8.124677	0.000444	4.441517	0.752413	-0.017746
1139	5.6900e-01	-2.7473	-8.229538	0.000525	5.249065	0.889216	-0.020972
1140	5.6950e-01	-2.7670	-8.366663	0.000686	6.864162	1.162821	-0.027425
1141	5.7000e-01	-2.7869	-8.483623	0.000585	5.854727	0.991818	-0.023392
1142	5.7050e-01	-2.8080	-8.576384	0.000464	4.643404	0.786614	-0.018552
1143	5.7100e-01	-2.8275	-8.725609	0.000747	7.469824	1.265422	-0.029845
1144	5.7150e-01	-2.8480	-8.858701	0.000666	6.662275	1.128620	-0.026618
1145	5.7200e-01	-2.8669	-8.923231	0.000323	3.230194	0.547210	-0.012906
1146	5.7250e-01	-2.8870	-9.084555	0.000808	8.075485	1.368024	-0.032265
1147	5.7300e-01	-2.9061	-9.205548	0.000606	6.056614	1.026018	-0.024199
1148	5.7350e-01	-2.9279	-9.302342	0.000485	4.845291	0.820815	-0.019359
1149	5.7400e-01	-2.9476	-9.415269	0.000565	5.652840	0.957617	-0.022585
1150	5.7450e-01	-2.9688	-9.459633	0.000222	2.220758	0.376207	-0.008873
1151	5.7500e-01	-2.9879	-9.616924	0.000787	7.873598	1.333824	-0.031458
1152	5.7550e-01	-3.0073	-9.713718	0.000485	4.845291	0.820815	-0.019359
1153	5.7600e-01	-3.0277	-9.806479	0.000464	4.643404	0.786614	-0.018552
1154	5.7650e-01	-3.0480	-9.935538	0.000646	6.460388	1.094419	-0.025812
1155	5.7700e-01	-3.0674	-10.048465	0.000565	5.652840	0.957617	-0.022585
1156	5.7750e-01	-3.0885	-10.153326	0.000525	5.249065	0.889216	-0.020972
1157	5.7800e-01	-3.1068	-10.367080	0.001070	10.700018	1.812632	-0.042751
1158	5.7850e-01	-3.1278	-10.367080	-0.000000	-0.000000	-0.000000	0.000000
1159	5.7900e-01	-3.1483	-10.552602	0.000929	9.286808	1.573228	-0.037105
1160	5.7950e-01	-3.1672	-10.621165	0.000343	3.432081	0.581410	-0.013713
1161	5.8000e-01	-3.1872	-10.778456	0.000787	7.873598	1.333824	-0.031458
1162	5.8050e-01	-3.2081	-10.842986	0.000323	3.230194	0.547210	-0.012906
1163	5.8100e-01	-3.2276	-11.004310	0.000808	8.075485	1.368024	-0.032265
1164	5.8150e-01	-3.2479	-11.117236	0.000565	5.652840	0.957617	-0.022585
1165	5.8200e-01	-3.2674	-11.193865	0.000384	3.835855	0.649811	-0.015326
1166	5.8250e-01	-3.2877	-11.302759	0.000545	5.450952	0.923416	-0.021779
1167	5.8300e-01	-3.3085	-11.427785	0.000626	6.258501	1.060219	-0.025005
1168	5.8350e-01	-3.3271	-11.500381	0.000363	3.633968	0.615611	-0.014519
1169	5.8400e-01	-3.3472	-11.673804	0.000868	8.681146	1.470626	-0.034685
1170	5.8450e-01	-3.3681	-11.770598	0.000485	4.845291	0.820815	-0.019359
1171	5.8500e-01	-3.3887	-11.871426	0.000505	5.047178	0.855015	-0.020165
1172	5.8550e-01	-3.4080	-11.992419	0.000606	6.056614	1.026018	-0.024199
1173	5.8600e-01	-3.4278	-12.101312	0.000545	5.450952	0.923416	-0.021779
1174	5.8650e-01	-3.4486	-12.214239	0.000565	5.652840	0.957617	-0.022585
1175	5.8700e-01	-3.4682	-12.323133	0.000545	5.450952	0.923416	-0.021779
1176	5.8750e-01	-3.4876	-12.452192	0.000646	6.460388	1.094419	-0.025812
1177	5.8800e-01	-3.5078	-12.548986	0.000485	4.845291	0.820815	-0.019359
1178	5.8850e-01	-3.5279	-12.694178	0.000727	7.267937	1.231222	-0.029038
1179	5.8900e-01	-3.5480	-12.803072	0.000545	5.450952	0.923416	-0.021779
1180	5.8950e-01	-3.5691	-12.863568	0.000303	3.028307	0.513009	-0.012099
1181	5.9000e-01	-3.5885	-12.968429	0.000525	5.249065	0.889216	-0.020972
1182	5.9050e-01	-3.6076	-13.149918	0.000908	9.084921	1.539027	-0.036298
1183	5.9100e-01	-3.6286	-13.206381	0.000283	2.826420	0.478808	-0.011293
1184	5.9150e-01	-3.6485	-13.367705	0.000808	8.075485	1.368024	-0.032265
1185	5.9200e-01	-3.6683	-13.496764	0.000646	6.460388	1.094419	-0.025812
1186	5.9250e-01	-3.6884	-13.573393	0.000384	3.835855	0.649811	-0.015326
1187	5.9300e-01	-3.7080	-13.710519	0.000686	6.864162	1.162821	-0.027425
1188	5.9350e-01	-3.7281	-13.811346	0.000505	5.047178	0.855015	-0.020165
1189	5.9400e-01	-3.7486	-13.972670	0.000808	8.075485	1.368024	-0.032265
1190	5.9450e-01	-3.7681	-14.057365	0.000424	4.239630	0.718213	-0.016939
1191	5.9500e-01	-3.7891	-14.194491	0.000686	6.864162	1.162821	-0.027425
1192	5.9550e-01	-3.8084	-14.259020	0.000323	3.230194	0.547210	-0.012906
1193	5.9600e-01	-3.8282	-14.375980	0.000585	5.854727	0.991818	-0.023392
1194	5.9650e-01	-3.8474	-14.537304	0.000808	8.075485	1.368024	-0.032265
1195	5.9700e-01	-3.8673	-14.634098	0.000485	4.845291	0.820815	-0.019359
1196	5.9750e-01	-3.8880	-14.722826	0.000444	4.441517	0.752413	-0.017746
1197	5.9800e-01	-3.9072	-14.872051	0.000747	7.469824	1.265422	-0.029845
1198	5.9850e-01	-3.9280	-14.972879	0.000505	5.047178	0.855015	-0.020165
1199	5.9900e-01	-3.9478	-15.061607	0.000444	4.441517	0.752413	-0.017746
1200	5.9950e-01	-3.9687	-15.214864	0.000767	7.671711	1.299623	-0.030652
1201	6.0000e-01	-3.9870	-15.299560	0.000424	4.239630	0.718213	-0.016939
1202	6.0050e-01	-4.0079	-15.436685	0.000686	6.864162	1.162821	-0.027425
1203	6.0100e-01	-4.0278	-15.569777	0.000666	6.662275	1.128620	-0.026618
1204	6.0150e-01	-4.0473	-15.658505	0.000444	4.441517	0.752413	-0.017746
1205	6.0200e-01	-4.0678	-15.763366	0.000525	5.249065	0.889216	-0.020972
1206	6.0250e-01	-4.0884	-15.896458	0.000666	6.662275	1.128620	-0.026618
1207	6.0300e-01	-4.1084	-16.001319	0.000525	5.249065	0.889216	-0.020972
1208	6.0350e-01	-4.1279	-16.098113	0.000485	4.845291	0.820815	-0.019359
1209	6.0400e-01	-4.1477	-16.239272	0.000707	7.066049	1.197021	-0.028232
1210	6.0450e-01	-4.1682	-16.360264	0.000606	6.056614	1.026018	-0.024199
1211	6.0500e-01	-4.1877	-16.505456	0.000727	7.267937	1.231222	-0.029038
1212	6.0550e-01	-4.2133	-16.630482	0.000626	6.258501	1.060219	-0.025005
1213	6.0600e-01	-4.2286	-16.682912	0.000262	2.624533	0.444608	-0.010486
1214	6.0650e-01	-4.2475	-16.787773	0.000525	5.249065	0.889216	-0.020972
1215	6.0700e-01	-4.2680	-16.945064	0.000787	7.873598	1.333824	-0.031458
1216	6.0750e-01	-4.2884	-17.045891	0.000505	5.047178	0.855015	-0.020165
1217	6.0800e-01	-4.3082	-17.162851	0.000585	5.854727	0.991818	-0.023392
1218	6.0850e-01	-4.3281	-17.328208	0.000828	8.277372	1.402225	-0.033071
1219	6.0900e-01	-4.3482	-17.433069	0.000525	5.249065	0.889216	-0.020972
1220	6.0950e-01	-4.3690	-17.493565	0.000303	3.028307	0.513009	-0.012099
1221	6.1000e-01	-4.3891	-17.602459	0.000545	5.450952	0.923416	-0.021779
1222	6.1050e-01	-4.4090	-17.751683	0.000747	7.469824	1.265422	-0.029845
1223	6.1100e-01	-4.4289	-17.937206	0.000929	9.286808	1.573228	-0.037105
1224	6.1150e-01	-4.4483	-18.029967	0.000464	4.643404	0.786614	-0.018552
1225	6.1200e-01	-4.4691	-18.086431	0.000283	2.826420	0.478808	-0.011293
1226	6.1250e-01	-4.4886	-18.219523	0.000666	6.662275	1.128620	-0.026618
1227	6.1300e-01	-4.5081	-18.360681	0.000707	7.066049	1.197021	-0.028232
1228	6.1350e-01	-4.5280	-18.465542	0.000525	5.249065	0.889216	-0.020972
1229	6.1400e-01	-4.5481	-18.493774	0.000141	1.413210	0.239404	-0.005646
1230	6.1450e-01	-4.5692	-18.663164	0.000848	8.479259	1.436425	-0.033878
1231	6.1500e-01	-4.5887	-18.820455	0.000787	7.873598	1.333824	-0.031458
1232	6.1550e-01	-4.6076	-18.953547	0.000666	6.662275	1.128620	-0.026618
1233	6.1600e-01	-4.6279	-19.058407	0.000525	5.249065	0.889216	-0.020972
1234	6.1650e-01	-4.6491	-19.203599	0.000727	7.267937	1.231222	-0.029038
1235	6.1700e-01	-4.6693	-19.260062	0.000283	2.826420	0.478808	-0.011293
1236	6.1750e-01	-4.6880	-19.372989	0.000565	5.652840	0.957617	-0.022585
1237	6.1800e-01	-4.7086	-19.465750	0.000464	4.643404	0.786614	-0.018552
1238	6.1850e-01	-4.7285	-19.594810	0.000646	6.460388	1.094419	-0.025812
1239	6.1900e-01	-4.7483	-19.719836	0.000626	6.258501	1.060219	-0.025005
1240	6.1950e-01	-4.7691	-19.792431	0.000363	3.633968	0.615611	-0.014519
1241	6.2000e-01	-4.7886	-19.981987	0.000949	9.488695	1.607428	-0.037911
1242	6.2050e-01	-4.8090	-20.127179	0.000727	7.267937	1.231222	-0.029038
1243	6.2100e-01	-4.8286	-20.199774	0.000363	3.633968	0.615611	-0.014519
1244	6.2150e-01	-4.8493	-20.316734	0.000585	5.854727	0.991818	-0.023392
1245	6.2200e-01	-4.8689	-20.441760	0.000626	6.258501	1.060219	-0.025005
1246	6.2250e-01	-4.8896	-20.550654	0.000545	5.450952	0.923416	-0.021779
1247	6.2300e-01	-4.9091	-20.691812	0.000707	7.066049	1.197021	-0.028232
1248	6.2350e-01	-4.9284	-20.768441	0.000384	3.835855	0.649811	-0.015326
1249	6.2400e-01	-4.9485	-20.901534	0.000666	6.662275	1.128620	-0.026618
1250	6.2450e-01	-4.9686	-21.018493	0.000585	5.854727	0.991818	-0.023392
1251	6.2500e-01	-4.9886	-21.171751	0.000767	7.671711	1.299623	-0.030652
1252	6.2550e-01	-5.0092	-21.304843	0.000666	6.662275	1.128620	-0.026618
1253	6.2600e-01	-5.0294	-21.381472	0.000384	3.835855	0.649811	-0.015326
1254	6.2650e-01	-5.0501	-21.498432	0.000585	5.854727	0.991818	-0.023392
1255	6.2700e-01	-5.0687	-21.579094	0.000404	4.037743	0.684012	-0.016132
1256	6.2750e-01	-5.0886	-21.716219	0.000686	6.864162	1.162821	-0.027425
1257	6.2800e-01	-5.1077	-21.869477	0.000767	7.671711	1.299623	-0.030652
1258	6.2850e-01	-5.1289	-21.962238	0.000464	4.643404	0.786614	-0.018552
1259	6.2900e-01	-5.1481	-22.079198	0.000585	5.854727	0.991818	-0.023392
1260	6.2950e-01	-5.1688	-22.244555	0.000828	8.277372	1.402225	-0.033071
1261	6.3000e-01	-5.1881	-22.329250	0.000424	4.239630	0.718213	-0.016939
1262	6.3050e-01	-5.2091	-22.462343	0.000666	6.662275	1.128620	-0.026618
1263	6.3100e-01	-5.2290	-22.559137	0.000485	4.845291	0.820815	-0.019359
1264	6.3150e-01	-5.2485	-22.684163	0.000626	6.258501	1.060219	-0.025005
1265	6.3200e-01	-5.2692	-22.817255	0.000666	6.662275	1.128620	-0.026618
1266	6.3250e-01	-5.2888	-22.990679	0.000868	8.681146	1.470626	-0.034685
1267	6.3300e-01	-5.3089	-22.998745	0.000040	0.403774	0.068401	-0.001613
1268	6.3350e-01	-5.3297	-23.176201	0.000888	8.883034	1.504827	-0.035491
1269	6.3400e-01	-5.3492	-23.240731	0.000323	3.230194	0.547210	-0.012906
1270	6.3450e-01	-5.3693	-23.337525	0.000485	4.845291	0.820815	-0.019359
1271	6.3500e-01	-5.3901	-23.474650	0.000686	6.864162	1.162821	-0.027425
1272	6.3550e-01	-5.4084	-23.640007	0.000828	8.277372	1.402225	-0.033071
1273	6.3600e-01	-5.4295	-23.704537	0.000323	3.230194	0.547210	-0.012906
1274	6.3650e-01	-5.4438	-23.765034	0.000303	3.028307	0.513009	-0.012099
1275	6.3700e-01	-5.4682	-23.942490	0.000888	8.883034	1.504827	-0.035491
1276	6.3750e-01	-5.4896	-24.083648	0.000707	7.066049	1.197021	-0.028232
1277	6.3800e-01	-5.5091	-24.228840	0.000727	7.267937	1.231222	-0.029038
1278	6.3850e-01	-5.5293	-24.309502	0.000404	4.037743	0.684012	-0.016132
1279	6.3900e-01	-5.5488	-24.422429	0.000565	5.652840	0.957617	-0.022585
1280	6.3950e-01	-5.5686	-24.531322	0.000545	5.450952	0.923416	-0.021779
1281	6.4000e-01	-5.5891	-24.745076	0.001070	10.700018	1.812632	-0.042751
1282	6.4050e-01	-5.6095	-24.797507	0.000262	2.624533	0.444608	-0.010486
1283	6.4100e-01	-5.6287	-24.966897	0.000848	8.479259	1.436425	-0.033878
1284	6.4150e-01	-5.6492	-25.031426	0.000323	3.230194	0.547210	-0.012906
1285	6.4200e-01	-5.6696	-25.164519	0.000666	6.662275	1.128620	-0.026618
1286	6.4250e-01	-5.6895	-25.249214	0.000424	4.239630	0.718213	-0.016939
1287	6.4300e-01	-5.7084	-25.386339	0.000686	6.864162	1.162821	-0.027425
1288	6.4350e-01	-5.7290	-25.535564	0.000747	7.469824	1.265422	-0.029845
1289	6.4400e-01	-5.7487	-25.648491	0.000565	5.652840	0.957617	-0.022585
1290	6.4450e-01	-5.7691	-25.688822	0.000202	2.018871	0.342006	-0.008066
1291	6.4500e-01	-5.7893	-25.834013	0.000727	7.267937	1.231222	-0.029038
1292	6.4550e-01	-5.8100	-25.930807	0.000485	4.845291	0.820815	-0.019359
1293	6.4600e-01	-5.8289	-26.092131	0.000808	8.075485	1.368024	-0.032265
1294	6.4650e-01	-5.8491	-26.184893	0.000464	4.643404	0.786614	-0.018552
1295	6.4700e-01	-5.8686	-26.322018	0.000686	6.864162	1.162821	-0.027425
1296	6.4750e-01	-5.8900	-26.434945	0.000565	5.652840	0.957617	-0.022585
1297	6.4800e-01	-5.9095	-26.559971	0.000626	6.258501	1.060219	-0.025005
1298	6.4850e-01	-5.9296	-26.636600	0.000384	3.835855	0.649811	-0.015326
1299	6.4900e-01	-5.9492	-26.725328	0.000444	4.441517	0.752413	-0.017746
1300	6.4950e-01	-5.9702	-26.882619	0.000787	7.873598	1.333824	-0.031458
1301	6.5000e-01	-5.9895	-27.023777	0.000707	7.066049	1.197021	-0.028232
1302	6.5050e-01	-6.0093	-27.136704	0.000565	5.652840	0.957617	-0.022585
1303	6.5100e-01	-6.0299	-27.253664	0.000585	5.854727	0.991818	-0.023392
1304	6.5150e-01	-6.0488	-27.406922	0.000767	7.671711	1.299623	-0.030652
1305	6.5200e-01	-6.0694	-27.443219	0.000182	1.816984	0.307805	-0.007260
1306	6.5250e-01	-6.0902	-27.531948	0.000444	4.441517	0.752413	-0.017746
1307	6.5300e-01	-6.1088	-27.721503	0.000949	9.488695	1.607428	-0.037911
1308	6.5350e-01	-6.1298	-27.798132	0.000384	3.835855	0.649811	-0.015326
1309	6.5400e-01	-6.1500	-27.911059	0.000565	5.652840	0.957617	-0.022585
1310	6.5450e-01	-6.1692	-28.088515	0.000888	8.883034	1.504827	-0.035491
1311	6.5500e-01	-6.1890	-28.213541	0.000626	6.258501	1.060219	-0.025005
1312	6.5550e-01	-6.2098	-28.302269	0.000444	4.441517	0.752413	-0.017746
1313	6.5600e-01	-6.2290	-28.415196	0.000565	5.652840	0.957617	-0.022585
1314	6.5650e-01	-6.2498	-28.524090	0.000545	5.450952	0.923416	-0.021779
1315	6.5700e-01	-6.2696	-28.649116	0.000626	6.258501	1.060219	-0.025005
1316	6.5750e-01	-6.2897	-28.733811	0.000424	4.239630	0.718213	-0.016939
1317	6.5800e-01	-6.3111	-28.870936	0.000686	6.864162	1.162821	-0.027425
1318	6.5850e-01	-6.3297	-28.967731	0.000485	4.845291	0.820815	-0.019359
1319	6.5900e-01	-6.3485	-29.125022	0.000787	7.873598	1.333824	-0.031458
1320	6.5950e-01	-6.3691	-29.217783	0.000464	4.643404	0.786614	-0.018552
1321	6.6000e-01	-6.3886	-29.350875	0.000666	6.662275	1.128620	-0.026618
1322	6.6050e-01	-6.4103	-29.471868	0.000606	6.056614	1.026018	-0.024199
1323	6.6100e-01	-6.4301	-29.600927	0.000646	6.460388	1.094419	-0.025812
1324	6.6150e-01	-6.4497	-29.689655	0.000444	4.441517	0.752413	-0.017746
1325	6.6200e-01	-6.4689	-29.814681	0.000626	6.258501	1.060219	-0.025005
1326	6.6250e-01	-6.4899	-29.955840	0.000707	7.066049	1.197021	-0.028232
1327	6.6300e-01	-6.5090	-30.008270	0.000262	2.624533	0.444608	-0.010486
1328	6.6350e-01	-6.5290	-30.153462	0.000727	7.267937	1.231222	-0.029038
1329	6.6400e-01	-6.5498	-30.290587	0.000686	6.864162	1.162821	-0.027425
1330	6.6450e-01	-6.5699	-30.371249	0.000404	4.037743	0.684012	-0.016132
1331	6.6500e-01	-6.5891	-30.500308	0.000646	6.460388	1.094419	-0.025812
1332	6.6550e-01	-6.6084	-30.589036	0.000444	4.441517	0.752413	-0.017746
1333	6.6600e-01	-6.6297	-30.718096	0.000646	6.460388	1.094419	-0.025812
1334	6.6650e-01	-6.6492	-30.871353	0.000767	7.671711	1.299623	-0.030652
1335	6.6700e-01	-6.6694	-30.943949	0.000363	3.633968	0.615611	-0.014519
1336	6.6750e-01	-6.6880	-30.992346	0.000242	2.422646	0.410407	-0.009679
1337	6.6800e-01	-6.7091	-31.218200	0.001131	11.305679	1.915234	-0.045171
1338	6.6850e-01	-6.7292	-31.306928	0.000444	4.441517	0.752413	-0.017746
1339	6.6900e-01	-6.7496	-31.472285	0.000828	8.277372	1.402225	-0.033071
1340	6.6950e-01	-6.7689	-31.556980	0.000424	4.239630	0.718213	-0.016939
1341	6.7000e-01	-6.7884	-31.641675	0.000424	4.239630	0.718213	-0.016939
1342	6.7050e-01	-6.8095	-31.762668	0.000606	6.056614	1.026018	-0.024199
1343	6.7100e-01	-6.8293	-31.875595	0.000565	5.652840	0.957617	-0.022585
1344	6.7150e-01	-6.8491	-32.008687	0.000666	6.662275	1.128620	-0.026618
1345	6.7200e-01	-6.8702	-32.129680	0.000606	6.056614	1.026018	-0.024199
1346	6.7250e-01	-6.8891	-32.230507	0.000505	5.047178	0.855015	-0.020165
1347	6.7300e-01	-6.9099	-32.327302	0.000485	4.845291	0.820815	-0.019359
1348	6.7350e-01	-6.9300	-32.492659	0.000828	8.277372	1.402225	-0.033071
1349	6.7400e-01	-6.9495	-32.649950	0.000787	7.873598	1.333824	-0.031458
1350	6.7450e-01	-6.9697	-32.750777	0.000505	5.047178	0.855015	-0.020165
1351	6.7500e-01	-6.9886	-32.831439	0.000404	4.037743	0.684012	-0.016132
1352	6.7550e-01	-7.0103	-32.936300	0.000525	5.249065	0.889216	-0.020972
1353	6.7600e-01	-7.0289	-33.065359	0.000646	6.460388	1.094419	-0.025812
1354	6.7650e-01	-7.0496	-33.182319	0.000585	5.854727	0.991818	-0.023392
1355	6.7700e-01	-7.0698	-33.246848	0.000323	3.230194	0.547210	-0.012906
1356	6.7750e-01	-7.0899	-33.444470	0.000989	9.892469	1.675830	-0.039524
1357	6.7800e-01	-7.1091	-33.517066	0.000363	3.633968	0.615611	-0.014519
1358	6.7850e-01	-7.1296	-33.629993	0.000565	5.652840	0.957617	-0.022585
1359	6.7900e-01	-7.1497	-33.694522	0.000323	3.230194	0.547210	-0.012906
1360	6.7950e-01	-7.1690	-33.831648	0.000686	6.864162	1.162821	-0.027425
1361	6.8000e-01	-7.1894	-33.984905	0.000767	7.671711	1.299623	-0.030652
1362	6.8050e-01	-7.2089	-34.065567	0.000404	4.037743	0.684012	-0.016132
1363	6.8100e-01	-7.2297	-34.190593	0.000626	6.258501	1.060219	-0.025005
1364	6.8150e-01	-7.2504	-34.311586	0.000606	6.056614	1.026018	-0.024199
1365	6.8200e-01	-7.2694	-34.456778	0.000727	7.267937	1.231222	-0.029038
1366	6.8250e-01	-7.2892	-34.589870	0.000666	6.662275	1.128620	-0.026618
1367	6.8300e-01	-7.3103	-34.702797	0.000565	5.652840	0.957617	-0.022585
1368	6.8350e-01	-7.3292	-34.831856	0.000646	6.460388	1.094419	-0.025812
1369	6.8400e-01	-7.3499	-34.908485	0.000384	3.835855	0.649811	-0.015326
1370	6.8450e-01	-7.3692	-35.009312	0.000505	5.047178	0.855015	-0.020165
1371	6.8500e-01	-7.3902	-35.122239	0.000565	5.652840	0.957617	-0.022585
1372	6.8550e-01	-7.4110	-35.259365	0.000686	6.864162	1.162821	-0.027425
1373	6.8600e-01	-7.4299	-35.376324	0.000585	5.854727	0.991818	-0.023392
1374	6.8650e-01	-7.4494	-35.465053	0.000444	4.441517	0.752413	-0.017746
1375	6.8700e-01	-7.4696	-35.610244	0.000727	7.267937	1.231222	-0.029038
1376	6.8750e-01	-7.4891	-35.747369	0.000686	6.864162	1.162821	-0.027425
1377	6.8800e-01	-7.5092	-35.811899	0.000323	3.230194	0.547210	-0.012906
1378	6.8850e-01	-7.5294	-35.928859	0.000585	5.854727	0.991818	-0.023392
1379	6.8900e-01	-7.5503	-36.086150	0.000787	7.873598	1.333824	-0.031458
1380	6.8950e-01	-7.5706	-36.191010	0.000525	5.249065	0.889216	-0.020972
1381	6.9000e-01	-7.5898	-36.328136	0.000686	6.864162	1.162821	-0.027425
1382	6.9050e-01	-7.6087	-36.392665	0.000323	3.230194	0.547210	-0.012906
1383	6.9100e-01	-7.6295	-36.537857	0.000727	7.267937	1.231222	-0.029038
1384	6.9150e-01	-7.6496	-36.650784	0.000565	5.652840	0.957617	-0.022585
1385	6.9200e-01	-7.6691	-36.800008	0.000747	7.469824	1.265422	-0.029845
1386	6.9250e-01	-7.6899	-36.892769	0.000464	4.643404	0.786614	-0.018552
1387	6.9300e-01	-7.7094	-37.005696	0.000565	5.652840	0.957617	-0.022585
1388	6.9350e-01	-7.7290	-37.098457	0.000464	4.643404	0.786614	-0.018552
1389	6.9400e-01	-7.7485	-37.251715	0.000767	7.671711	1.299623	-0.030652
1390	6.9450e-01	-7.7699	-37.344477	0.000464	4.643404	0.786614	-0.018552
1391	6.9500e-01	-7.7894	-37.449337	0.000525	5.249065	0.889216	-0.020972
1392	6.9550e-01	-7.8086	-37.586462	0.000686	6.864162	1.162821	-0.027425
1393	6.9600e-01	-7.8303	-37.699389	0.000565	5.652840	0.957617	-0.022585
1394	6.9650e-01	-7.8493	-37.828448	0.000646	6.460388	1.094419	-0.025812
1395	6.9700e-01	-7.8699	-37.868779	0.000202	2.018871	0.342006	-0.008066
1396	6.9750e-01	-7.8901	-38.038169	0.000848	8.479259	1.436425	-0.033878
1397	6.9800e-01	-7.9096	-38.122865	0.000424	4.239630	0.718213	-0.016939
1398	6.9850e-01	-7.9325	-38.324519	0.001009	10.094356	1.710030	-0.040331
1399	6.9900e-01	-7.9490	-38.376950	0.000262	2.624533	0.444608	-0.010486
1400	6.9950e-01	-7.9688	-38.485843	0.000545	5.450952	0.923416	-0.021779
1401	7.0000e-01	-7.9885	-38.598770	0.000565	5.652840	0.957617	-0.022585
1402	7.0050e-01	-8.0091	-38.764127	0.000828	8.277372	1.402225	-0.033071
1403	7.0100e-01	-8.0299	-38.816557	0.000262	2.624533	0.444608	-0.010486
1404	7.0150e-01	-8.0500	-38.949650	0.000666	6.662275	1.128620	-0.026618
1405	7.0200e-01	-8.0708	-39.098874	0.000747	7.469824	1.265422	-0.029845
1406	7.0250e-01	-8.0885	-39.223900	0.000626	6.258501	1.060219	-0.025005
1407	7.0300e-01	-8.1098	-39.280364	0.000283	2.826420	0.478808	-0.011293
1408	7.0350e-01	-8.1300	-39.401357	0.000606	6.056614	1.026018	-0.024199
1409	7.0400e-01	-8.1495	-39.574780	0.000868	8.681146	1.470626	-0.034685
1410	7.0450e-01	-8.1696	-39.671574	0.000485	4.845291	0.820815	-0.019359
1411	7.0500e-01	-8.1898	-39.792567	0.000606	6.056614	1.026018	-0.024199
1412	7.0550e-01	-8.2099	-39.897428	0.000525	5.249065	0.889216	-0.020972
1413	7.0600e-01	-8.2301	-40.026487	0.000646	6.460388	1.094419	-0.025812
1414	7.0650e-01	-8.2496	-40.147480	0.000606	6.056614	1.026018	-0.024199
1415	7.0700e-01	-8.2697	-40.236208	0.000444	4.441517	0.752413	-0.017746
1416	7.0750e-01	-8.2899	-40.381400	0.000727	7.267937	1.231222	-0.029038
1417	7.0800e-01	-8.3100	-40.470128	0.000444	4.441517	0.752413	-0.017746
1418	7.0850e-01	-8.3302	-40.615319	0.000727	7.267937	1.231222	-0.029038
1419	7.0900e-01	-8.3497	-40.732279	0.000585	5.854727	0.991818	-0.023392
1420	7.0950e-01	-8.3704	-40.841173	0.000545	5.450952	0.923416	-0.021779
1421	7.1000e-01	-8.3889	-40.937967	0.000485	4.845291	0.820815	-0.019359
1422	7.1050e-01	-8.4101	-41.079126	0.000707	7.066049	1.197021	-0.028232
1423	7.1100e-01	-8.4303	-41.208185	0.000646	6.460388	1.094419	-0.025812
1424	7.1150e-01	-8.4504	-41.284814	0.000384	3.835855	0.649811	-0.015326
1425	7.1200e-01	-8.4699	-41.401774	0.000585	5.854727	0.991818	-0.023392
1426	7.1250e-01	-8.4895	-41.530833	0.000646	6.460388	1.094419	-0.025812
1427	7.1300e-01	-8.5090	-41.627627	0.000485	4.845291	0.820815	-0.019359
1428	7.1350e-01	-8.5297	-41.744587	0.000585	5.854727	0.991818	-0.023392
1429	7.1400e-01	-8.5499	-41.861547	0.000585	5.854727	0.991818	-0.023392
1430	7.1450e-01	-8.5688	-41.970441	0.000545	5.450952	0.923416	-0.021779
1431	7.1500e-01	-8.5896	-42.143864	0.000868	8.681146	1.470626	-0.034685
1432	7.1550e-01	-8.6103	-42.232592	0.000444	4.441517	0.752413	-0.017746
1433	7.1600e-01	-8.6292	-42.377784	0.000727	7.267937	1.231222	-0.029038
1434	7.1650e-01	-8.6500	-42.470545	0.000464	4.643404	0.786614	-0.018552
1435	7.1700e-01	-8.6701	-42.547174	0.000384	3.835855	0.649811	-0.015326
1436	7.1750e-01	-8.6900	-42.716564	0.000848	8.479259	1.436425	-0.033878
1437	7.1800e-01	-8.7098	-42.845623	0.000646	6.460388	1.094419	-0.025812
1438	7.1850e-01	-8.7299	-42.958550	0.000565	5.652840	0.957617	-0.022585
1439	7.1900e-01	-8.7495	-43.107774	0.000747	7.469824	1.265422	-0.029845
1440	7.1950e-01	-8.7708	-43.152138	0.000222	2.220758	0.376207	-0.008873
1441	7.2000e-01	-8.7904	-43.333628	0.000908	9.084921	1.539027	-0.036298
1442	7.2050e-01	-8.8099	-43.382025	0.000242	2.422646	0.410407	-0.009679
1443	7.2100e-01	-8.8313	-43.543349	0.000808	8.075485	1.368024	-0.032265
1444	7.2150e-01	-8.8503	-43.603846	0.000303	3.028307	0.513009	-0.012099
1445	7.2200e-01	-8.8691	-43.728872	0.000626	6.258501	1.060219	-0.025005
1446	7.2250e-01	-8.8898	-43.886162	0.000787	7.873598	1.333824	-0.031458
1447	7.2300e-01	-8.9106	-44.007155	0.000606	6.056614	1.026018	-0.024199
1448	7.2350e-01	-8.9303	-44.160413	0.000767	7.671711	1.299623	-0.030652
1449	7.2400e-01	-8.9503	-44.273340	0.000565	5.652840	0.957617	-0.022585
1450	7.2450e-01	-8.9695	-44.354002	0.000404	4.037743	0.684012	-0.016132
1451	7.2500e-01	-8.9893	-44.479028	0.000626	6.258501	1.060219	-0.025005
1452	7.2550e-01	-9.0095	-44.587922	0.000545	5.450952	0.923416	-0.021779
1453	7.2600e-01	-9.0302	-44.745212	0.000787	7.873598	1.333824	-0.031458
1454	7.2650e-01	-9.0498	-44.825874	0.000404	4.037743	0.684012	-0.016132
1455	7.2700e-01	-9.0699	-44.918636	0.000464	4.643404	0.786614	-0.018552
1456	7.2750e-01	-9.0900	-45.088026	0.000848	8.479259	1.436425	-0.033878
1457	7.2800e-01	-9.1102	-45.213052	0.000626	6.258501	1.060219	-0.025005
1458	7.2850e-01	-9.1303	-45.330012	0.000585	5.854727	0.991818	-0.023392
1459	7.2900e-01	-9.1499	-45.378409	0.000242	2.422646	0.410407	-0.009679
1460	7.2950e-01	-9.1740	-45.600229	0.001110	11.103792	1.881033	-0.044364
1461	7.3000e-01	-9.1901	-45.680891	0.000404	4.037743	0.684012	-0.016132
1462	7.3050e-01	-9.2103	-45.777686	0.000485	4.845291	0.820815	-0.019359
1463	7.3100e-01	-9.2307	-45.910778	0.000666	6.662275	1.128620	-0.026618
1464	7.3150e-01	-9.2500	-46.011605	0.000505	5.047178	0.855015	-0.020165
1465	7.3200e-01	-9.2695	-46.176962	0.000828	8.277372	1.402225	-0.033071
1466	7.3250e-01	-9.2908	-46.261658	0.000424	4.239630	0.718213	-0.016939
1467	7.3300e-01	-9.3119	-46.374584	0.000565	5.652840	0.957617	-0.022585
1468	7.3350e-01	-9.3299	-46.531875	0.000787	7.873598	1.333824	-0.031458
1469	7.3400e-01	-9.3494	-46.640769	0.000545	5.450952	0.923416	-0.021779
1470	7.3450e-01	-9.3702	-46.733530	0.000464	4.643404	0.786614	-0.018552
1471	7.3500e-01	-9.3903	-46.886788	0.000767	7.671711	1.299623	-0.030652
1472	7.3550e-01	-9.4099	-47.003748	0.000585	5.854727	0.991818	-0.023392
1473	7.3600e-01	-9.4300	-47.068277	0.000323	3.230194	0.547210	-0.012906
1474	7.3650e-01	-9.4501	-47.193303	0.000626	6.258501	1.060219	-0.025005
1475	7.3700e-01	-9.4703	-47.306230	0.000565	5.652840	0.957617	-0.022585
1476	7.3750e-01	-9.4895	-47.443355	0.000686	6.864162	1.162821	-0.027425
1477	7.3800e-01	-9.5094	-47.564348	0.000606	6.056614	1.026018	-0.024199
1478	7.3850e-01	-9.5301	-47.725672	0.000808	8.075485	1.368024	-0.032265
1479	7.3900e-01	-9.5499	-47.866831	0.000707	7.066049	1.197021	-0.028232
1480	7.3950e-01	-9.5710	-47.959592	0.000464	4.643404	0.786614	-0.018552
1481	7.4000e-01	-9.5899	-48.108817	0.000747	7.469824	1.265422	-0.029845
1482	7.4050e-01	-9.6095	-48.197545	0.000444	4.441517	0.752413	-0.017746
1483	7.4100e-01	-9.6290	-48.286273	0.000444	4.441517	0.752413	-0.017746
1484	7.4150e-01	-9.6503	-48.443564	0.000787	7.873598	1.333824	-0.031458
1485	7.4200e-01	-9.6699	-48.556491	0.000565	5.652840	0.957617	-0.022585
1486	7.4250e-01	-9.6894	-48.689583	0.000666	6.662275	1.128620	-0.026618
1487	7.4300e-01	-9.7102	-48.810576	0.000606	6.056614	1.026018	-0.024199
1488	7.4350e-01	-9.7297	-48.907370	0.000485	4.845291	0.820815	-0.019359
1489	7.4400e-01	-9.7504	-49.028363	0.000606	6.056614	1.026018	-0.024199
1490	7.4450e-01	-9.7694	-49.145323	0.000585	5.854727	0.991818	-0.023392
1491	7.4500e-01	-9.7901	-49.302614	0.000787	7.873598	1.333824	-0.031458
1492	7.4550e-01	-9.8087	-49.407474	0.000525	5.249065	0.889216	-0.020972
1493	7.4600e-01	-9.8292	-49.540567	0.000666	6.662275	1.128620	-0.026618
1494	7.4650e-01	-9.8496	-49.669626	0.000646	6.460388	1.094419	-0.025812
1495	7.4700e-01	-9.8695	-49.798685	0.000646	6.460388	1.094419	-0.025812
1496	7.4750e-01	-9.8896	-49.931777	0.000666	6.662275	1.128620	-0.026618
1497	7.4800e-01	-9.9110	-50.032605	0.000505	5.047178	0.855015	-0.020165
1498	7.4850e-01	-9.9293	-50.181829	0.000747	7.469824	1.265422	-0.029845
1499	7.4900e-01	-9.9494	-50.306855	0.000626	6.258501	1.060219	-0.025005
1500	7.4950e-01	-9.9696	-50.379451	0.000363	3.633968	0.615611	-0.014519
1501	7.5000e-01	-9.9903	-50.520610	0.000707	7.066049	1.197021	-0.028232
1502	7.5050e-01	-9.9860	-50.500444	0.000101	1.009436	0.171003	0.004033
1503	7.5100e-01	-9.9705	-50.536742	-0.000182	-1.816984	-0.307805	-0.007260
1504	7.5150e-01	-9.9512	-50.516577	0.000101	1.009436	0.171003	0.004033
1505	7.5200e-01	-9.9317	-50.508510	0.000040	0.403774	0.068401	0.001613
1506	7.5250e-01	-9.9116	-50.512543	-0.000020	-0.201887	-0.034201	-0.000807
1507	7.5300e-01	-9.8914	-50.472212	0.000202	2.018871	0.342006	0.008066
1508	7.5350e-01	-9.8731	-50.456080	0.000081	0.807549	0.136802	0.003226
1509	7.5400e-01	-9.8524	-50.439948	0.000081	0.807549	0.136802	0.003226
1510	7.5450e-01	-9.8328	-50.395584	0.000222	2.220758	0.376207	0.008873
1511	7.5500e-01	-9.8121	-50.395584	0.000000	0.000000	0.000000	0.000000
1512	7.5550e-01	-9.7926	-50.335087	0.000303	3.028307	0.513009	0.012099
1513	7.5600e-01	-9.7724	-50.343153	-0.000040	-0.403774	-0.068401	-0.001613
1514	7.5650e-01	-9.7517	-50.322988	0.000101	1.009436	0.171003	0.004033
1515	7.5700e-01	-9.7327	-50.310889	0.000061	0.605661	0.102602	0.002420
1516	7.5750e-01	-9.7120	-50.218127	0.000464	4.643404	0.786614	0.018552
1517	7.5800e-01	-9.6925	-50.290723	-0.000363	-3.633968	-0.615611	-0.014519
1518	7.5850e-01	-9.6729	-50.177796	0.000565	5.652840	0.957617	0.022585
1519	7.5900e-01	-9.6528	-50.048737	0.000646	6.460388	1.094419	0.025812
1520	7.5950e-01	-9.6320	-50.056803	-0.000040	-0.403774	-0.068401	-0.001613
1521	7.6000e-01	-9.6125	-50.064869	-0.000040	-0.403774	-0.068401	-0.001613
1522	7.6050e-01	-9.5954	-50.044704	0.000101	1.009436	0.171003	0.004033
1523	7.6100e-01	-9.5722	-49.939843	0.000525	5.249065	0.889216	0.020972
1524	7.6150e-01	-9.5527	-49.915645	0.000121	1.211323	0.205204	0.004840
1525	7.6200e-01	-9.5325	-49.899512	0.000081	0.807549	0.136802	0.003226
1526	7.6250e-01	-9.5118	-49.855148	0.000222	2.220758	0.376207	0.008873
1527	7.6300e-01	-9.4923	-49.826917	0.000141	1.413210	0.239404	0.005646
1528	7.6350e-01	-9.4718	-49.750288	0.000384	3.835855	0.649811	0.015326
1529	7.6400e-01	-9.4532	-49.722056	0.000141	1.413210	0.239404	0.005646
1530	7.6450e-01	-9.4324	-49.669626	0.000262	2.624533	0.444608	0.010486
1531	7.6500e-01	-9.4123	-49.629295	0.000202	2.018871	0.342006	0.008066
1532	7.6550e-01	-9.3928	-49.548633	0.000404	4.037743	0.684012	0.016132
1533	7.6600e-01	-9.3720	-49.492169	0.000283	2.826420	0.478808	0.011293
1534	7.6650e-01	-9.3519	-49.467971	0.000121	1.211323	0.205204	0.004840
1535	7.6700e-01	-9.3324	-49.443772	0.000121	1.211323	0.205204	0.004840
1536	7.6750e-01	-9.3116	-49.419574	0.000121	1.211323	0.205204	0.004840
1537	7.6800e-01	-9.2921	-49.326812	0.000464	4.643404	0.786614	0.018552
1538	7.6850e-01	-9.2725	-49.254217	0.000363	3.633968	0.615611	0.014519
1539	7.6900e-01	-9.2515	-49.165489	0.000444	4.441517	0.752413	0.017746
1540	7.6950e-01	-9.2323	-49.125158	0.000202	2.018871	0.342006	0.008066
1541	7.7000e-01	-9.2127	-49.145323	-0.000101	-1.009436	-0.171003	-0.004033
1542	7.7050e-01	-9.1926	-49.080793	0.000323	3.230194	0.547210	0.012906
1543	7.7100e-01	-9.1730	-49.028363	0.000262	2.624533	0.444608	0.010486
1544	7.7150e-01	-9.1529	-48.955767	0.000363	3.633968	0.615611	0.014519
1545	7.7200e-01	-9.1328	-48.891238	0.000323	3.230194	0.547210	0.012906
1546	7.7250e-01	-9.1126	-48.858973	0.000162	1.615097	0.273605	0.006453
1547	7.7300e-01	-9.0919	-48.798477	0.000303	3.028307	0.513009	0.012099
1548	7.7350e-01	-9.0711	-48.758146	0.000202	2.018871	0.342006	0.008066
1549	7.7400e-01	-9.0528	-48.701682	0.000283	2.826420	0.478808	0.011293
1550	7.7450e-01	-9.0333	-48.645219	0.000283	2.826420	0.478808	0.011293
1551	7.7500e-01	-9.0125	-48.560524	0.000424	4.239630	0.718213	0.016939
1552	7.7550e-01	-8.9918	-48.508093	0.000262	2.624533	0.444608	0.010486
1553	7.7600e-01	-8.9710	-48.483895	0.000121	1.211323	0.205204	0.004840
1554	7.7650e-01	-8.9533	-48.435498	0.000242	2.422646	0.410407	0.009679
1555	7.7700e-01	-8.9320	-48.318538	0.000585	5.854727	0.991818	0.023392
1556	7.7750e-01	-8.9130	-48.266108	0.000262	2.624533	0.444608	0.010486
1557	7.7800e-01	-8.8923	-48.189479	0.000384	3.835855	0.649811	0.015326
1558	7.7850e-01	-8.8728	-48.141081	0.000242	2.422646	0.410407	0.009679
1559	7.7900e-01	-8.8520	-48.088651	0.000262	2.624533	0.444608	0.010486
1560	7.7950e-01	-8.8300	-48.056386	0.000162	1.615097	0.273605	0.006453
1561	7.8000e-01	-8.8124	-47.991857	0.000323	3.230194	0.547210	0.012906
1562	7.8050e-01	-8.7922	-47.895062	0.000485	4.845291	0.820815	0.019359
1563	7.8100e-01	-8.7727	-47.862798	0.000162	1.615097	0.273605	0.006453
1564	7.8150e-01	-8.7522	-47.774069	0.000444	4.441517	0.752413	0.017746
1565	7.8200e-01	-8.7324	-47.757937	0.000081	0.807549	0.136802	0.003226
1566	7.8250e-01	-8.7128	-47.766003	-0.000040	-0.403774	-0.068401	-0.001613
1567	7.8300e-01	-8.6915	-47.628878	0.000686	6.864162	1.162821	0.027425
1568	7.8350e-01	-8.6726	-47.552249	0.000384	3.835855	0.649811	0.015326
1569	7.8400e-01	-8.6521	-47.475620	0.000384	3.835855	0.649811	0.015326
1570	7.8450e-01	-8.6323	-47.431256	0.000222	2.220758	0.376207	0.008873
1571	7.8500e-01	-8.6121	-47.362693	0.000343	3.432081	0.581410	0.013713
1572	7.8550e-01	-8.5926	-47.302197	0.000303	3.028307	0.513009	0.012099
1573	7.8600e-01	-8.5719	-47.269932	0.000162	1.615097	0.273605	0.006453
1574	7.8650e-01	-8.5511	-47.181204	0.000444	4.441517	0.752413	0.017746
1575	7.8700e-01	-8.5322	-47.084410	0.000485	4.845291	0.820815	0.019359
1576	7.8750e-01	-8.5108	-47.044079	0.000202	2.018871	0.342006	0.008066
1577	7.8800e-01	-8.4913	-47.040046	0.000020	0.201887	0.034201	0.000807
1578	7.8850e-01	-8.4724	-46.983582	0.000283	2.826420	0.478808	0.011293
1579	7.8900e-01	-8.4516	-46.894854	0.000444	4.441517	0.752413	0.017746
1580	7.8950e-01	-8.4318	-46.838391	0.000283	2.826420	0.478808	0.011293
1581	7.9000e-01	-8.4119	-46.737563	0.000505	5.047178	0.855015	0.020165
1582	7.9050e-01	-8.3921	-46.709331	0.000141	1.413210	0.239404	0.005646
1583	7.9100e-01	-8.3723	-46.628669	0.000404	4.037743	0.684012	0.016132
1584	7.9150e-01	-8.3552	-46.624636	0.000020	0.201887	0.034201	0.000807
1585	7.9200e-01	-8.3311	-46.543974	0.000404	4.037743	0.684012	0.016132
1586	7.9250e-01	-8.3118	-46.435081	0.000545	5.450952	0.923416	0.021779
1587	7.9300e-01	-8.2923	-46.374584	0.000303	3.028307	0.513009	0.012099
1588	7.9350e-01	-8.2722	-46.342319	0.000162	1.615097	0.273605	0.006453
1589	7.9400e-01	-8.2517	-46.265691	0.000384	3.835855	0.649811	0.015326
1590	7.9450e-01	-8.2322	-46.185029	0.000404	4.037743	0.684012	0.016132
1591	7.9500e-01	-8.2124	-46.096300	0.000444	4.441517	0.752413	0.017746
1592	7.9550e-01	-8.1916	-46.035804	0.000303	3.028307	0.513009	0.012099
1593	7.9600e-01	-8.1715	-46.031771	0.000020	0.201887	0.034201	0.000807
1594	7.9650e-01	-8.1519	-45.910778	0.000606	6.056614	1.026018	0.024199
1595	7.9700e-01	-8.1318	-45.801884	0.000545	5.450952	0.923416	0.021779
1596	7.9750e-01	-8.1113	-45.809950	-0.000040	-0.403774	-0.068401	-0.001613
1597	7.9800e-01	-8.0915	-45.701057	0.000545	5.450952	0.923416	0.021779
1598	7.9850e-01	-8.0720	-45.648627	0.000262	2.624533	0.444608	0.010486
1599	7.9900e-01	-8.0518	-45.584097	0.000323	3.230194	0.547210	0.012906
1600	7.9950e-01	-8.0311	-45.535700	0.000242	2.422646	0.410407	0.009679
1601	8.0000e-01	-8.0116	-45.467137	0.000343	3.432081	0.581410	0.013713
1602	8.0050e-01	-7.9920	-45.398574	0.000343	3.432081	0.581410	0.013713
1603	8.0100e-01	-7.9713	-45.297747	0.000505	5.047178	0.855015	0.020165
1604	8.0150e-01	-7.9523	-45.301780	-0.000020	-0.201887	-0.034201	-0.000807
1605	8.0200e-01	-7.9313	-45.213052	0.000444	4.441517	0.752413	0.017746
1606	8.0250e-01	-7.9121	-45.172721	0.000202	2.018871	0.342006	0.008066
1607	8.0300e-01	-7.8901	-45.088026	0.000424	4.239630	0.718213	0.016939
1608	8.0350e-01	-7.8718	-45.007364	0.000404	4.037743	0.684012	0.016132
1609	8.0400e-01	-7.8516	-44.926702	0.000404	4.037743	0.684012	0.016132
1610	8.0450e-01	-7.8315	-44.874272	0.000262	2.624533	0.444608	0.010486
1611	8.0500e-01	-7.8114	-44.825874	0.000242	2.422646	0.410407	0.009679
1612	8.0550e-01	-7.7918	-44.753279	0.000363	3.633968	0.615611	0.014519
1613	8.0600e-01	-7.7720	-44.684716	0.000343	3.432081	0.581410	0.013713
1614	8.0650e-01	-7.7522	-44.612120	0.000363	3.633968	0.615611	0.014519
1615	8.0700e-01	-7.7314	-44.535491	0.000384	3.835855	0.649811	0.015326
1616	8.0750e-01	-7.7125	-44.462896	0.000363	3.633968	0.615611	0.014519
1617	8.0800e-01	-7.6919	-44.402399	0.000303	3.028307	0.513009	0.012099
1618	8.0850e-01	-7.6722	-44.325770	0.000384	3.835855	0.649811	0.015326
1619	8.0900e-01	-7.6508	-44.261241	0.000323	3.230194	0.547210	0.012906
1620	8.0950e-01	-7.6325	-44.196711	0.000323	3.230194	0.547210	0.012906
1621	8.1000e-01	-7.6118	-44.152347	0.000222	2.220758	0.376207	0.008873
1622	8.1050e-01	-7.5904	-44.039420	0.000565	5.652840	0.957617	0.022585
1623	8.1100e-01	-7.5704	-43.966824	0.000363	3.633968	0.615611	0.014519
1624	8.1150e-01	-7.5520	-43.910361	0.000283	2.826420	0.478808	0.011293
1625	8.1200e-01	-7.5327	-43.890196	0.000101	1.009436	0.171003	0.004033
1626	8.1250e-01	-7.5123	-43.773236	0.000585	5.854727	0.991818	0.023392
1627	8.1300e-01	-7.4924	-43.712739	0.000303	3.028307	0.513009	0.012099
1628	8.1350e-01	-7.4726	-43.632077	0.000404	4.037743	0.684012	0.016132
1629	8.1400e-01	-7.4519	-43.599812	0.000162	1.615097	0.273605	0.006453
1630	8.1450e-01	-7.4323	-43.466720	0.000666	6.662275	1.128620	0.026618
1631	8.1500e-01	-7.4122	-43.438488	0.000141	1.413210	0.239404	0.005646
1632	8.1550e-01	-7.3933	-43.353793	0.000424	4.239630	0.718213	0.016939
1633	8.1600e-01	-7.3725	-43.329595	0.000121	1.211323	0.205204	0.004840
1634	8.1650e-01	-7.3518	-43.220701	0.000545	5.450952	0.923416	0.021779
1635	8.1700e-01	-7.3322	-43.160205	0.000303	3.028307	0.513009	0.012099
1636	8.1750e-01	-7.3121	-43.055344	0.000525	5.249065	0.889216	0.020972
1637	8.1800e-01	-7.2919	-43.019046	0.000182	1.816984	0.307805	0.007260
1638	8.1850e-01	-7.2730	-42.942417	0.000384	3.835855	0.649811	0.015326
1639	8.1900e-01	-7.2517	-42.833524	0.000545	5.450952	0.923416	0.021779
1640	8.1950e-01	-7.2315	-42.752862	0.000404	4.037743	0.684012	0.016132
1641	8.2000e-01	-7.2120	-42.752862	0.000000	0.000000	0.000000	0.000000
1642	8.2050e-01	-7.1931	-42.611703	0.000707	7.066049	1.197021	0.028232
1643	8.2100e-01	-7.1723	-42.627836	-0.000081	-0.807549	-0.136802	-0.003226
1644	8.2150e-01	-7.1531	-42.510876	0.000585	5.854727	0.991818	0.023392
1645	8.2200e-01	-7.1320	-42.478611	0.000162	1.615097	0.273605	0.006453
1646	8.2250e-01	-7.1137	-42.438280	0.000202	2.018871	0.342006	0.008066
1647	8.2300e-01	-7.0924	-42.289055	0.000747	7.469824	1.265422	0.029845
1648	8.2350e-01	-7.0722	-42.252758	0.000182	1.816984	0.307805	0.007260
1649	8.2400e-01	-7.0521	-42.123698	0.000646	6.460388	1.094419	0.025812
1650	8.2450e-01	-7.0332	-42.071268	0.000262	2.624533	0.444608	0.010486
1651	8.2500e-01	-7.0121	-41.970441	0.000505	5.047178	0.855015	0.020165
1652	8.2550e-01	-6.9920	-41.974474	-0.000020	-0.201887	-0.034201	-0.000807
1653	8.2600e-01	-6.9740	-41.897845	0.000384	3.835855	0.649811	0.015326
1654	8.2650e-01	-6.9532	-41.801050	0.000485	4.845291	0.820815	0.019359
1655	8.2700e-01	-6.9318	-41.744587	0.000283	2.826420	0.478808	0.011293
1656	8.2750e-01	-6.9123	-41.639727	0.000525	5.249065	0.889216	0.020972
1657	8.2800e-01	-6.8911	-41.542932	0.000485	4.845291	0.820815	0.019359
1658	8.2850e-01	-6.8720	-41.514700	0.000141	1.413210	0.239404	0.005646
1659	8.2900e-01	-6.8516	-41.385641	0.000646	6.460388	1.094419	0.025812
1660	8.2950e-01	-6.8317	-41.353377	0.000162	1.615097	0.273605	0.006453
1661	8.3000e-01	-6.8122	-41.304979	0.000242	2.422646	0.410407	0.009679
1662	8.3050e-01	-6.7915	-41.155755	0.000747	7.469824	1.265422	0.029845
1663	8.3100e-01	-6.7719	-41.131556	0.000121	1.211323	0.205204	0.004840
1664	8.3150e-01	-6.7527	-41.050894	0.000404	4.037743	0.684012	0.016132
1665	8.3200e-01	-6.7316	-40.950067	0.000505	5.047178	0.855015	0.020165
1666	8.3250e-01	-6.7124	-40.873438	0.000384	3.835855	0.649811	0.015326
1667	8.3300e-01	-6.6914	-40.837140	0.000182	1.816984	0.307805	0.007260
1668	8.3350e-01	-6.6724	-40.752445	0.000424	4.239630	0.718213	0.016939
1669	8.3400e-01	-6.6523	-40.675816	0.000384	3.835855	0.649811	0.015326
1670	8.3450e-01	-6.6309	-40.587088	0.000444	4.441517	0.752413	0.017746
1671	8.3500e-01	-6.6114	-40.562889	0.000121	1.211323	0.205204	0.004840
1672	8.3550e-01	-6.5914	-40.445929	0.000585	5.854727	0.991818	0.023392
1673	8.3600e-01	-6.5725	-40.397532	0.000242	2.422646	0.410407	0.009679
1674	8.3650e-01	-6.5522	-40.284605	0.000565	5.652840	0.957617	0.022585
1675	8.3700e-01	-6.5321	-40.224109	0.000303	3.028307	0.513009	0.012099
1676	8.3750e-01	-6.5125	-40.155546	0.000343	3.432081	0.581410	0.013713
1677	8.3800e-01	-6.4913	-40.070851	0.000424	4.239630	0.718213	0.016939
1678	8.3850e-01	-6.4719	-39.994222	0.000384	3.835855	0.649811	0.015326
1679	8.3900e-01	-6.4521	-39.929693	0.000323	3.230194	0.547210	0.012906
1680	8.3950e-01	-6.4314	-39.844998	0.000424	4.239630	0.718213	0.016939
1681	8.4000e-01	-6.4124	-39.796600	0.000242	2.422646	0.410407	0.009679
1682	8.4050e-01	-6.3923	-39.740137	0.000283	2.826420	0.478808	0.011293
1683	8.4100e-01	-6.3712	-39.699806	0.000202	2.018871	0.342006	0.008066
1684	8.4150e-01	-6.3514	-39.510250	0.000949	9.488695	1.607428	0.037911
1685	8.4200e-01	-6.3320	-39.477986	0.000162	1.615097	0.273605	0.006453
1686	8.4250e-01	-6.3106	-39.385224	0.000464	4.643404	0.786614	0.018552
1687	8.4300e-01	-6.2917	-39.304562	0.000404	4.037743	0.684012	0.016132
1688	8.4350e-01	-6.2720	-39.268265	0.000182	1.816984	0.307805	0.007260
1689	8.4400e-01	-6.2522	-39.183569	0.000424	4.239630	0.718213	0.016939
1690	8.4450e-01	-6.2318	-39.094841	0.000444	4.441517	0.752413	0.017746
1691	8.4500e-01	-6.2122	-39.038378	0.000283	2.826420	0.478808	0.011293
1692	8.4550e-01	-6.1921	-38.933517	0.000525	5.249065	0.889216	0.020972
1693	8.4600e-01	-6.1726	-38.885120	0.000242	2.422646	0.410407	0.009679
1694	8.4650e-01	-6.1512	-38.792359	0.000464	4.643404	0.786614	0.018552
1695	8.4700e-01	-6.1311	-38.711697	0.000404	4.037743	0.684012	0.016132
1696	8.4750e-01	-6.1115	-38.610869	0.000505	5.047178	0.855015	0.020165
1697	8.4800e-01	-6.0905	-38.578605	0.000162	1.615097	0.273605	0.006453
1698	8.4850e-01	-6.0720	-38.497943	0.000404	4.037743	0.684012	0.016132
1699	8.4900e-01	-6.0523	-38.393082	0.000525	5.249065	0.889216	0.020972
1700	8.4950e-01	-6.0322	-38.348718	0.000222	2.220758	0.376207	0.008873
1701	8.5000e-01	-6.0114	-38.239824	0.000545	5.450952	0.923416	0.021779
1702	8.5050e-01	-5.9931	-38.167229	0.000363	3.633968	0.615611	0.014519
1703	8.5100e-01	-5.9724	-38.122865	0.000222	2.220758	0.376207	0.008873
1704	8.5150e-01	-5.9513	-38.009938	0.000565	5.652840	0.957617	0.022585
1705	8.5200e-01	-5.9321	-37.945408	0.000323	3.230194	0.547210	0.012906
1706	8.5250e-01	-5.9122	-37.844581	0.000505	5.047178	0.855015	0.020165
1707	8.5300e-01	-5.8924	-37.788117	0.000283	2.826420	0.478808	0.011293
1708	8.5350e-01	-5.8732	-37.703422	0.000424	4.239630	0.718213	0.016939
1709	8.5400e-01	-5.8521	-37.618727	0.000424	4.239630	0.718213	0.016939
1710	8.5450e-01	-5.8320	-37.542098	0.000384	3.835855	0.649811	0.015326
1711	8.5500e-01	-5.8125	-37.453370	0.000444	4.441517	0.752413	0.017746
1712	8.5550e-01	-5.7917	-37.421105	0.000162	1.615097	0.273605	0.006453
1713	8.5600e-01	-5.7716	-37.336410	0.000424	4.239630	0.718213	0.016939
1714	8.5650e-01	-5.7508	-37.255748	0.000404	4.037743	0.684012	0.016132
1715	8.5700e-01	-5.7307	-37.203318	0.000262	2.624533	0.444608	0.010486
1716	8.5750e-01	-5.7117	-37.074259	0.000646	6.460388	1.094419	0.025812
1717	8.5800e-01	-5.6922	-36.993597	0.000404	4.037743	0.684012	0.016132
1718	8.5850e-01	-5.6702	-36.880670	0.000565	5.652840	0.957617	0.022585
1719	8.5900e-01	-5.6510	-36.856472	0.000121	1.211323	0.205204	0.004840
1720	8.5950e-01	-5.6318	-36.800008	0.000283	2.826420	0.478808	0.011293
1721	8.6000e-01	-5.6110	-36.683048	0.000585	5.854727	0.991818	0.023392
1722	8.6050e-01	-5.5909	-36.570122	0.000565	5.652840	0.957617	0.022585
1723	8.6100e-01	-5.5714	-36.517691	0.000262	2.624533	0.444608	0.010486
1724	8.6150e-01	-5.5518	-36.441062	0.000384	3.835855	0.649811	0.015326
1725	8.6200e-01	-5.5317	-36.372500	0.000343	3.432081	0.581410	0.013713
1726	8.6250e-01	-5.5112	-36.271672	0.000505	5.047178	0.855015	0.020165
1727	8.6300e-01	-5.4914	-36.231341	0.000202	2.018871	0.342006	0.008066
1728	8.6350e-01	-5.4713	-36.102282	0.000646	6.460388	1.094419	0.025812
1729	8.6400e-01	-5.4511	-36.037753	0.000323	3.230194	0.547210	0.012906
1730	8.6450e-01	-5.4310	-35.949024	0.000444	4.441517	0.752413	0.017746
1731	8.6500e-01	-5.4121	-35.884495	0.000323	3.230194	0.547210	0.012906
1732	8.6550e-01	-5.3907	-35.819965	0.000323	3.230194	0.547210	0.012906
1733	8.6600e-01	-5.3709	-35.658641	0.000808	8.075485	1.368024	0.032265
1734	8.6650e-01	-5.3515	-35.618310	0.000202	2.018871	0.342006	0.008066
1735	8.6700e-01	-5.3309	-35.622343	-0.000020	-0.201887	-0.034201	-0.000807
1736	8.6750e-01	-5.3107	-35.481185	0.000707	7.066049	1.197021	0.028232
1737	8.6800e-01	-5.2918	-35.376324	0.000525	5.249065	0.889216	0.020972
1738	8.6850e-01	-5.2714	-35.360192	0.000081	0.807549	0.136802	0.003226
1739	8.6900e-01	-5.2522	-35.219034	0.000707	7.066049	1.197021	0.028232
1740	8.6950e-01	-5.2314	-35.138372	0.000404	4.037743	0.684012	0.016132
1741	8.7000e-01	-5.2113	-35.061743	0.000384	3.835855	0.649811	0.015326
1742	8.7050e-01	-5.1911	-34.993180	0.000343	3.432081	0.581410	0.013713
1743	8.7100e-01	-5.1716	-34.904452	0.000444	4.441517	0.752413	0.017746
1744	8.7150e-01	-5.1514	-34.888319	0.000081	0.807549	0.136802	0.003226
1745	8.7200e-01	-5.1316	-34.775393	0.000565	5.652840	0.957617	0.022585
1746	8.7250e-01	-5.1112	-34.670532	0.000525	5.249065	0.889216	0.020972
1747	8.7300e-01	-5.0910	-34.597936	0.000363	3.633968	0.615611	0.014519
1748	8.7350e-01	-5.0715	-34.513241	0.000424	4.239630	0.718213	0.016939
1749	8.7400e-01	-5.0497	-34.452745	0.000303	3.028307	0.513009	0.012099
1750	8.7450e-01	-5.0309	-34.355950	0.000485	4.845291	0.820815	0.019359
1751	8.7500e-01	-5.0112	-34.263189	0.000464	4.643404	0.786614	0.018552
1752	8.7550e-01	-4.9914	-34.162362	0.000505	5.047178	0.855015	0.020165
1753	8.7600e-01	-4.9708	-34.117998	0.000222	2.220758	0.376207	0.008873
1754	8.7650e-01	-4.9506	-34.029269	0.000444	4.441517	0.752413	0.017746
1755	8.7700e-01	-4.9317	-33.932475	0.000485	4.845291	0.820815	0.019359
1756	8.7750e-01	-4.9113	-33.888111	0.000222	2.220758	0.376207	0.008873
1757	8.7800e-01	-4.8908	-33.750986	0.000686	6.864162	1.162821	0.027425
1758	8.7850e-01	-4.8714	-33.666291	0.000424	4.239630	0.718213	0.016939
1759	8.7900e-01	-4.8512	-33.553364	0.000565	5.652840	0.957617	0.022585
1760	8.7950e-01	-4.8310	-33.492867	0.000303	3.028307	0.513009	0.012099
1761	8.8000e-01	-4.8116	-33.404139	0.000444	4.441517	0.752413	0.017746
1762	8.8050e-01	-4.7907	-33.388007	0.000081	0.807549	0.136802	0.003226
1763	8.8100e-01	-4.7707	-33.238782	0.000747	7.469824	1.265422	0.029845
1764	8.8150e-01	-4.7498	-33.214584	0.000121	1.211323	0.205204	0.004840
1765	8.8200e-01	-4.7321	-33.113756	0.000505	5.047178	0.855015	0.020165
1766	8.8250e-01	-4.7110	-32.984697	0.000646	6.460388	1.094419	0.025812
1767	8.8300e-01	-4.6909	-32.924200	0.000303	3.028307	0.513009	0.012099
1768	8.8350e-01	-4.6717	-32.855638	0.000343	3.432081	0.581410	0.013713
1769	8.8400e-01	-4.6507	-32.779009	0.000384	3.835855	0.649811	0.015326
1770	8.8450e-01	-4.6308	-32.613652	0.000828	8.277372	1.402225	0.033071
1771	8.8500e-01	-4.6113	-32.641884	-0.000141	-1.413210	-0.239404	-0.005646
1772	8.8550e-01	-4.5908	-32.516857	0.000626	6.258501	1.060219	0.025005
1773	8.8600e-01	-4.5716	-32.428129	0.000444	4.441517	0.752413	0.017746
1774	8.8650e-01	-4.5502	-32.339401	0.000444	4.441517	0.752413	0.017746
1775	8.8700e-01	-4.5301	-32.230507	0.000545	5.450952	0.923416	0.021779
1776	8.8750e-01	-4.5112	-32.190176	0.000202	2.018871	0.342006	0.008066
1777	8.8800e-01	-4.4910	-32.012720	0.000888	8.883034	1.504827	0.035491
1778	8.8850e-01	-4.4709	-32.012720	0.000000	0.000000	0.000000	0.000000
1779	8.8900e-01	-4.4501	-31.932058	0.000404	4.037743	0.684012	0.016132
1780	8.8950e-01	-4.4303	-31.867529	0.000323	3.230194	0.547210	0.012906
1781	8.9000e-01	-4.4099	-31.778800	0.000444	4.441517	0.752413	0.017746
1782	8.9050e-01	-4.3897	-31.686039	0.000464	4.643404	0.786614	0.018552
1783	8.9100e-01	-4.3703	-31.593278	0.000464	4.643404	0.786614	0.018552
1784	8.9150e-01	-4.3510	-31.484384	0.000545	5.450952	0.923416	0.021779
1785	8.9200e-01	-4.3296	-31.383557	0.000505	5.047178	0.855015	0.020165
1786	8.9250e-01	-4.3110	-31.355325	0.000141	1.413210	0.239404	0.005646
1787	8.9300e-01	-4.2902	-31.258531	0.000485	4.845291	0.820815	0.019359
1788	8.9350e-01	-4.2707	-31.206100	0.000262	2.624533	0.444608	0.010486
1789	8.9400e-01	-4.2503	-31.060909	0.000727	7.267937	1.231222	0.029038
1790	8.9450e-01	-4.2304	-31.008479	0.000262	2.624533	0.444608	0.010486
1791	8.9500e-01	-4.2098	-30.915717	0.000464	4.643404	0.786614	0.018552
1792	8.9550e-01	-4.1908	-30.766493	0.000747	7.469824	1.265422	0.029845
1793	8.9600e-01	-4.1706	-30.710029	0.000283	2.826420	0.478808	0.011293
1794	8.9650e-01	-4.1505	-30.625334	0.000424	4.239630	0.718213	0.016939
1795	8.9700e-01	-4.1311	-30.540639	0.000424	4.239630	0.718213	0.016939
1796	8.9750e-01	-4.1105	-30.476110	0.000323	3.230194	0.547210	0.012906
1797	8.9800e-01	-4.0891	-30.399481	0.000384	3.835855	0.649811	0.015326
1798	8.9850e-01	-4.0702	-30.298653	0.000505	5.047178	0.855015	0.020165
1799	8.9900e-01	-4.0504	-30.197826	0.000505	5.047178	0.855015	0.020165
1800	8.9950e-01	-4.0308	-30.125230	0.000363	3.633968	0.615611	0.014519
1801	9.0000e-01	-4.0105	-30.056667	0.000343	3.432081	0.581410	0.013713
1802	9.0050e-01	-3.9906	-30.000204	0.000283	2.826420	0.478808	0.011293
1803	9.0100e-01	-3.9704	-29.846946	0.000767	7.671711	1.299623	0.030652
1804	9.0150e-01	-3.9503	-29.778384	0.000343	3.432081	0.581410	0.013713
1805	9.0200e-01	-3.9295	-29.697722	0.000404	4.037743	0.684012	0.016132
1806	9.0250e-01	-3.9100	-29.641258	0.000283	2.826420	0.478808	0.011293
1807	9.0300e-01	-3.8905	-29.548497	0.000464	4.643404	0.786614	0.018552
1808	9.0350e-01	-3.8703	-29.455736	0.000464	4.643404	0.786614	0.018552
1809	9.0400e-01	-3.8505	-29.391206	0.000323	3.230194	0.547210	0.012906
1810	9.0450e-01	-3.8300	-29.278279	0.000565	5.652840	0.957617	0.022585
1811	9.0500e-01	-3.8100	-29.181485	0.000485	4.845291	0.820815	0.019359
1812	9.0550e-01	-3.7891	-29.120988	0.000303	3.028307	0.513009	0.012099
1813	9.0600e-01	-3.7705	-29.020161	0.000505	5.047178	0.855015	0.020165
1814	9.0650e-01	-3.7507	-28.891102	0.000646	6.460388	1.094419	0.025812
1815	9.0700e-01	-3.7313	-28.854804	0.000182	1.816984	0.307805	0.007260
1816	9.0750e-01	-3.7113	-28.749943	0.000525	5.249065	0.889216	0.020972
1817	9.0800e-01	-3.6906	-28.701546	0.000242	2.422646	0.410407	0.009679
1818	9.0850e-01	-3.6713	-28.536189	0.000828	8.277372	1.402225	0.033071
1819	9.0900e-01	-3.6500	-28.475693	0.000303	3.028307	0.513009	0.012099
1820	9.0950e-01	-3.6308	-28.407130	0.000343	3.432081	0.581410	0.013713
1821	9.1000e-01	-3.6109	-28.330501	0.000384	3.835855	0.649811	0.015326
1822	9.1050e-01	-3.5908	-28.221607	0.000545	5.450952	0.923416	0.021779
1823	9.1100e-01	-3.5708	-28.144979	0.000384	3.835855	0.649811	0.015326
1824	9.1150e-01	-3.5502	-28.060284	0.000424	4.239630	0.718213	0.016939
1825	9.1200e-01	-3.5310	-28.048184	0.000061	0.605661	0.102602	0.002420
1826	9.1250e-01	-3.5108	-27.894926	0.000767	7.671711	1.299623	0.030652
1827	9.1300e-01	-3.4913	-27.773934	0.000606	6.056614	1.026018	0.024199
1828	9.1350e-01	-3.4708	-27.729569	0.000222	2.220758	0.376207	0.008873
1829	9.1400e-01	-3.4507	-27.628742	0.000505	5.047178	0.855015	0.020165
1830	9.1450e-01	-3.4309	-27.491617	0.000686	6.864162	1.162821	0.027425
1831	9.1500e-01	-3.4103	-27.435153	0.000283	2.826420	0.478808	0.011293
1832	9.1550e-01	-3.3924	-27.354491	0.000404	4.037743	0.684012	0.016132
1833	9.1600e-01	-3.3701	-27.269796	0.000424	4.239630	0.718213	0.016939
1834	9.1650e-01	-3.3503	-27.144770	0.000626	6.258501	1.060219	0.025005
1835	9.1700e-01	-3.3298	-27.100406	0.000222	2.220758	0.376207	0.008873
1836	9.1750e-01	-3.3102	-26.999579	0.000505	5.047178	0.855015	0.020165
1837	9.1800e-01	-3.2905	-26.882619	0.000585	5.854727	0.991818	0.023392
1838	9.1850e-01	-3.2716	-26.838255	0.000222	2.220758	0.376207	0.008873
1839	9.1900e-01	-3.2511	-26.713229	0.000626	6.258501	1.060219	0.025005
1840	9.1950e-01	-3.2302	-26.689030	0.000121	1.211323	0.205204	0.004840
1841	9.2000e-01	-3.2102	-26.555938	0.000666	6.662275	1.128620	0.026618
1842	9.2050e-01	-3.1904	-26.447044	0.000545	5.450952	0.923416	0.021779
1843	9.2100e-01	-3.1702	-26.358316	0.000444	4.441517	0.752413	0.017746
1844	9.2150e-01	-3.1501	-26.261522	0.000485	4.845291	0.820815	0.019359
1845	9.2200e-01	-3.1297	-26.196992	0.000323	3.230194	0.547210	0.012906
1846	9.2250e-01	-3.1098	-26.100198	0.000485	4.845291	0.820815	0.019359
1847	9.2300e-01	-3.0898	-26.015503	0.000424	4.239630	0.718213	0.016939
1848	9.2350e-01	-3.0708	-25.938874	0.000384	3.835855	0.649811	0.015326
1849	9.2400e-01	-3.0494	-25.809815	0.000646	6.460388	1.094419	0.025812
1850	9.2450e-01	-3.0312	-25.733186	0.000384	3.835855	0.649811	0.015326
1851	9.2500e-01	-3.0099	-25.672689	0.000303	3.028307	0.513009	0.012099
1852	9.2550e-01	-2.9902	-25.592027	0.000404	4.037743	0.684012	0.016132
1853	9.2600e-01	-2.9705	-25.511365	0.000404	4.037743	0.684012	0.016132
1854	9.2650e-01	-2.9505	-25.418604	0.000464	4.643404	0.786614	0.018552
1855	9.2700e-01	-2.9304	-25.285512	0.000666	6.662275	1.128620	0.026618
1856	9.2750e-01	-2.9100	-25.164519	0.000606	6.056614	1.026018	0.024199
1857	9.2800e-01	-2.8901	-25.140320	0.000121	1.211323	0.205204	0.004840
1858	9.2850e-01	-2.8703	-25.047559	0.000464	4.643404	0.786614	0.018552
1859	9.2900e-01	-2.8504	-24.926566	0.000606	6.056614	1.026018	0.024199
1860	9.2950e-01	-2.8304	-24.849937	0.000384	3.835855	0.649811	0.015326
1861	9.3000e-01	-2.8107	-24.781374	0.000343	3.432081	0.581410	0.013713
1862	9.3050e-01	-2.7906	-24.672481	0.000545	5.450952	0.923416	0.021779
1863	9.3100e-01	-2.7702	-24.535355	0.000686	6.864162	1.162821	0.027425
1864	9.3150e-01	-2.7499	-24.495024	0.000202	2.018871	0.342006	0.008066
1865	9.3200e-01	-2.7302	-24.398230	0.000485	4.845291	0.820815	0.019359
1866	9.3250e-01	-2.7098	-24.317568	0.000404	4.037743	0.684012	0.016132
1867	9.3300e-01	-2.6890	-24.261105	0.000283	2.826420	0.478808	0.011293
1868	9.3350e-01	-2.6698	-24.119946	0.000707	7.066049	1.197021	0.028232
1869	9.3400e-01	-2.6487	-24.035251	0.000424	4.239630	0.718213	0.016939
1870	9.3450e-01	-2.6301	-23.970722	0.000323	3.230194	0.547210	0.012906
1871	9.3500e-01	-2.6099	-23.861828	0.000545	5.450952	0.923416	0.021779
1872	9.3550e-01	-2.5901	-23.736802	0.000626	6.258501	1.060219	0.025005
1873	9.3600e-01	-2.5700	-23.668239	0.000343	3.432081	0.581410	0.013713
1874	9.3650e-01	-2.5486	-23.539180	0.000646	6.460388	1.094419	0.025812
1875	9.3700e-01	-2.5297	-23.474650	0.000323	3.230194	0.547210	0.012906
1876	9.3750e-01	-2.5105	-23.414154	0.000303	3.028307	0.513009	0.012099
1877	9.3800e-01	-2.4904	-23.260896	0.000767	7.671711	1.299623	0.030652
1878	9.3850e-01	-2.4708	-23.232664	0.000141	1.413210	0.239404	0.005646
1879	9.3900e-01	-2.4506	-23.107638	0.000626	6.258501	1.060219	0.025005
1880	9.3950e-01	-2.4302	-23.002778	0.000525	5.249065	0.889216	0.020972
1881	9.4000e-01	-2.4113	-22.962447	0.000202	2.018871	0.342006	0.008066
1882	9.4050e-01	-2.3896	-22.857586	0.000525	5.249065	0.889216	0.020972
1883	9.4100e-01	-2.3709	-22.704329	0.000767	7.671711	1.299623	0.030652
1884	9.4150e-01	-2.3505	-22.676097	0.000141	1.413210	0.239404	0.005646
1885	9.4200e-01	-2.3304	-22.579303	0.000485	4.845291	0.820815	0.019359
1886	9.4250e-01	-2.3100	-22.446210	0.000666	6.662275	1.128620	0.026618
1887	9.4300e-01	-2.2904	-22.369581	0.000384	3.835855	0.649811	0.015326
1888	9.4350e-01	-2.2703	-22.357482	0.000061	0.605661	0.102602	0.002420
1889	9.4400e-01	-2.2504	-22.228423	0.000646	6.460388	1.094419	0.025812
1890	9.4450e-01	-2.2303	-22.071132	0.000787	7.873598	1.333824	0.031458
1891	9.4500e-01	-2.2108	-22.038867	0.000162	1.615097	0.273605	0.006453
1892	9.4550e-01	-2.1903	-21.925941	0.000565	5.652840	0.957617	0.022585
1893	9.4600e-01	-2.1694	-21.780749	0.000727	7.267937	1.231222	0.029038
1894	9.4650e-01	-2.1488	-21.780749	0.000000	0.000000	0.000000	0.000000
1895	9.4700e-01	-2.1308	-21.643624	0.000686	6.864162	1.162821	0.027425
1896	9.4750e-01	-2.1104	-21.518598	0.000626	6.258501	1.060219	0.025005
1897	9.4800e-01	-2.0902	-21.470200	0.000242	2.422646	0.410407	0.009679
1898	9.4850e-01	-2.0704	-21.365340	0.000525	5.249065	0.889216	0.020972
1899	9.4900e-01	-2.0506	-21.284678	0.000404	4.037743	0.684012	0.016132
1900	9.4950e-01	-2.0304	-21.151586	0.000666	6.662275	1.128620	0.026618
1901	9.5000e-01	-2.0095	-21.038659	0.000565	5.652840	0.957617	0.022585
1902	9.5050e-01	-1.9910	-21.018493	0.000101	1.009436	0.171003	0.004033
1903	9.5100e-01	-1.9706	-20.905567	0.000565	5.652840	0.957617	0.022585
1904	9.5150e-01	-1.9508	-20.832971	0.000363	3.633968	0.615611	0.014519
1905	9.5200e-01	-1.9292	-20.707945	0.000626	6.258501	1.060219	0.025005
1906	9.5250e-01	-1.9102	-20.615184	0.000464	4.643404	0.786614	0.018552
1907	9.5300e-01	-1.8894	-20.506290	0.000545	5.450952	0.923416	0.021779
1908	9.5350e-01	-1.8704	-20.385297	0.000606	6.056614	1.026018	0.024199
1909	9.5400e-01	-1.8513	-20.296569	0.000444	4.441517	0.752413	0.017746
1910	9.5450e-01	-1.8293	-20.232039	0.000323	3.230194	0.547210	0.012906
1911	9.5500e-01	-1.8107	-20.155410	0.000384	3.835855	0.649811	0.015326
1912	9.5550e-01	-1.7912	-20.074748	0.000404	4.037743	0.684012	0.016132
1913	9.5600e-01	-1.7701	-19.921491	0.000767	7.671711	1.299623	0.030652
1914	9.5650e-01	-1.7496	-19.856961	0.000323	3.230194	0.547210	0.012906
1915	9.5700e-01	-1.7298	-19.816630	0.000202	2.018871	0.342006	0.008066
1916	9.5750e-01	-1.7095	-19.663372	0.000767	7.671711	1.299623	0.030652
1917	9.5800e-01	-1.6901	-19.574644	0.000444	4.441517	0.752413	0.017746
1918	9.5850e-01	-1.6700	-19.481883	0.000464	4.643404	0.786614	0.018552
1919	9.5900e-01	-1.6494	-19.397188	0.000424	4.239630	0.718213	0.016939
1920	9.5950e-01	-1.6293	-19.328625	0.000343	3.432081	0.581410	0.013713
1921	9.6000e-01	-1.6093	-19.207632	0.000606	6.056614	1.026018	0.024199
1922	9.6050e-01	-1.5901	-19.090672	0.000585	5.854727	0.991818	0.023392
1923	9.6100e-01	-1.5697	-18.989845	0.000505	5.047178	0.855015	0.020165
1924	9.6150e-01	-1.5505	-18.929348	0.000303	3.028307	0.513009	0.012099
1925	9.6200e-01	-1.5308	-18.792223	0.000686	6.864162	1.162821	0.027425
1926	9.6250e-01	-1.5102	-18.739793	0.000262	2.624533	0.444608	0.010486
1927	9.6300e-01	-1.4899	-18.630899	0.000545	5.450952	0.923416	0.021779
1928	9.6350e-01	-1.4704	-18.517972	0.000565	5.652840	0.957617	0.022585
1929	9.6400e-01	-1.4497	-18.409079	0.000545	5.450952	0.923416	0.021779
1930	9.6450e-01	-1.4300	-18.364714	0.000222	2.220758	0.376207	0.008873
1931	9.6500e-01	-1.4103	-18.243722	0.000606	6.056614	1.026018	0.024199
1932	9.6550e-01	-1.3902	-18.163060	0.000404	4.037743	0.684012	0.016132
1933	9.6600e-01	-1.3695	-18.066265	0.000485	4.845291	0.820815	0.019359
1934	9.6650e-01	-1.3500	-17.953338	0.000565	5.652840	0.957617	0.022585
1935	9.6700e-01	-1.3299	-17.860577	0.000464	4.643404	0.786614	0.018552
1936	9.6750e-01	-1.3099	-17.796048	0.000323	3.230194	0.547210	0.012906
1937	9.6800e-01	-1.2888	-17.683121	0.000565	5.652840	0.957617	0.022585
1938	9.6850e-01	-1.2685	-17.570194	0.000565	5.652840	0.957617	0.022585
1939	9.6900e-01	-1.2498	-17.513731	0.000283	2.826420	0.478808	0.011293
1940	9.6950e-01	-1.2302	-17.433069	0.000404	4.037743	0.684012	0.016132
1941	9.7000e-01	-1.2100	-17.340307	0.000464	4.643404	0.786614	0.018552
1942	9.7050e-01	-1.1906	-17.215281	0.000626	6.258501	1.060219	0.025005
1943	9.7100e-01	-1.1706	-17.057991	0.000787	7.873598	1.333824	0.031458
1944	9.7150e-01	-1.1501	-17.045891	0.000061	0.605661	0.102602	0.002420
1945	9.7200e-01	-1.1307	-16.916832	0.000646	6.460388	1.094419	0.025812
1946	9.7250e-01	-1.1103	-16.803905	0.000565	5.652840	0.957617	0.022585
1947	9.7300e-01	-1.0908	-16.686945	0.000585	5.854727	0.991818	0.023392
1948	9.7350e-01	-1.0702	-16.626449	0.000303	3.028307	0.513009	0.012099
1949	9.7400e-01	-1.0497	-16.513522	0.000565	5.652840	0.957617	0.022585
1950	9.7450e-01	-1.0303	-16.416728	0.000485	4.845291	0.820815	0.019359
1951	9.7500e-01	-1.0093	-16.344132	0.000363	3.633968	0.615611	0.014519
1952	9.7550e-01	-0.9897	-16.207007	0.000686	6.864162	1.162821	0.027425
1953	9.7600e-01	-0.9701	-16.106179	0.000505	5.047178	0.855015	0.020165
1954	9.7650e-01	-0.9507	-16.045683	0.000303	3.028307	0.513009	0.012099
1955	9.7700e-01	-0.9294	-15.956955	0.000444	4.441517	0.752413	0.017746
1956	9.7750e-01	-0.9098	-15.904524	0.000262	2.624533	0.444608	0.010486
1957	9.7800e-01	-0.8907	-15.731101	0.000868	8.681146	1.470626	0.034685
1958	9.7850e-01	-0.8701	-15.630274	0.000505	5.047178	0.855015	0.020165
1959	9.7900e-01	-0.8515	-15.549612	0.000404	4.037743	0.684012	0.016132
1960	9.7950e-01	-0.8295	-15.493148	0.000283	2.826420	0.478808	0.011293
1961	9.8000e-01	-0.8097	-15.339891	0.000767	7.671711	1.299623	0.030652
1962	9.8050e-01	-0.7907	-15.303593	0.000182	1.816984	0.307805	0.007260
1963	9.8100e-01	-0.7694	-15.114037	0.000949	9.488695	1.607428	0.037911
1964	9.8150e-01	-0.7503	-15.057574	0.000283	2.826420	0.478808	0.011293
1965	9.8200e-01	-0.7301	-14.976912	0.000404	4.037743	0.684012	0.016132
1966	9.8250e-01	-0.7091	-14.908349	0.000343	3.432081	0.581410	0.013713
1967	9.8300e-01	-0.6890	-14.763157	0.000727	7.267937	1.231222	0.029038
1968	9.8350e-01	-0.6699	-14.702661	0.000303	3.028307	0.513009	0.012099
1969	9.8400e-01	-0.6495	-14.593767	0.000545	5.450952	0.923416	0.021779
1970	9.8450e-01	-0.6292	-14.444543	0.000747	7.469824	1.265422	0.029845
1971	9.8500e-01	-0.6099	-14.460675	-0.000081	-0.807549	-0.136802	-0.003226
1972	9.8550e-01	-0.5898	-14.339682	0.000606	6.056614	1.026018	0.024199
1973	9.8600e-01	-0.5698	-14.242888	0.000485	4.845291	0.820815	0.019359
1974	9.8650e-01	-0.5503	-14.133994	0.000545	5.450952	0.923416	0.021779
1975	9.8700e-01	-0.5296	-14.000902	0.000666	6.662275	1.128620	0.026618
1976	9.8750e-01	-0.5106	-13.879909	0.000606	6.056614	1.026018	0.024199
1977	9.8800e-01	-0.4899	-13.807313	0.000363	3.633968	0.615611	0.014519
1978	9.8850e-01	-0.4691	-13.787148	0.000101	1.009436	0.171003	0.004033
1979	9.8900e-01	-0.4497	-13.633890	0.000767	7.671711	1.299623	0.030652
1980	9.8950e-01	-0.4305	-13.516930	0.000585	5.854727	0.991818	0.023392
1981	9.9000e-01	-0.4096	-13.436268	0.000404	4.037743	0.684012	0.016132
1982	9.9050e-01	-0.3903	-13.323341	0.000565	5.652840	0.957617	0.022585
1983	9.9100e-01	-0.3696	-13.242679	0.000404	4.037743	0.684012	0.016132
1984	9.9150e-01	-0.3501	-13.109587	0.000666	6.662275	1.128620	0.026618
1985	9.9200e-01	-0.3292	-13.020859	0.000444	4.441517	0.752413	0.017746
1986	9.9250e-01	-0.3098	-12.952296	0.000343	3.432081	0.581410	0.013713
1987	9.9300e-01	-0.2892	-12.863568	0.000444	4.441517	0.752413	0.017746
1988	9.9350e-01	-0.2695	-12.738542	0.000626	6.258501	1.060219	0.025005
1989	9.9400e-01	-0.2487	-12.694178	0.000222	2.220758	0.376207	0.008873
1990	9.9450e-01	-0.2290	-12.569152	0.000626	6.258501	1.060219	0.025005
1991	9.9500e-01	-0.2105	-12.444126	0.000626	6.258501	1.060219	0.025005
1992	9.9550e-01	-0.1899	-12.311033	0.000666	6.662275	1.128620	0.026618
1993	9.9600e-01	-0.1691	-12.274736	0.000182	1.816984	0.307805	0.007260
1994	9.9650e-01	-0.1490	-12.190041	0.000424	4.239630	0.718213	0.016939
1995	9.9700e-01	-0.1285	-12.097279	0.000464	4.643404	0.786614	0.018552
1996	9.9750e-01	-0.1094	-11.972253	0.000626	6.258501	1.060219	0.025005
1997	9.9800e-01	-0.0902	-11.843194	0.000646	6.460388	1.094419	0.025812
1998	9.9850e-01	-0.0700	-11.786731	0.000283	2.826420	0.478808	0.011293
1999	9.9900e-01	-0.0500	-11.714135	0.000363	3.633968	0.615611	0.014519
2000	9.9950e-01	-0.0288	-11.540712	0.000868	8.681146	1.470626	0.034685
2001	1.0000e+00	-0.0088	-11.488281	0.000868	8.681146	1.470626	0.010486

PMax (uC/cm2):	4.60e+01
Pr (uC/cm2):	2.78e+00
-Pr (uC/cm2):	-1.60e+01
PLoss (uC/cm2):	-1.60e+01
-Vc:	-4.88e-01
C (Max-Eff) (nF):	4.60e-01
K (Eff):	7.80e+02
Vert. (+/-Pr) Shift (uC/cm2):	-6.63e+00
Offset (uC/cm2):	-4.55e+00

A (Loop Area - uC/cm2·Volts):	-1.55e-02



Hysteresis Version: 5.48.1 - Radiant Technologies, Inc., 1999 - 9/12/24

